[Header]
Application Name	LabSolutions
Version	5.73
Data File Name	C:\LabSolutions\Data\Project1\stephen\2016-01-04\1.gcd
Output Date	1/5/2016
Output Time	4:51:28 PM

[Configuration]
Instrument Name	WEISSTA-PC-Instrument1
Instrument #	1
Line #	1
# of Detectors	1
Detector ID	DET#2
Detector Name	DFID1
# of Channels	1

[Chromatogram (Ch1)]
Interval(msec)	40
# of Points	9599
Start Time(min)	0.001
End Time(min)	6.399
R.Time (min)	Intensity
0.00067	12
0.00133	12
0.00200	12
0.00267	12
0.00333	11
0.00400	11
0.00467	11
0.00533	11
0.00600	10
0.00667	10
0.00733	9
0.00800	8
0.00867	7
0.00933	5
0.01000	3
0.01067	1
0.01133	-2
0.01200	-5
0.01267	-8
0.01333	-12
0.01400	-16
0.01467	-21
0.01533	-26
0.01600	-31
0.01667	-37
0.01733	-43
0.01800	-49
0.01867	-56
0.01933	-62
0.02000	-69
0.02067	-75
0.02133	-82
0.02200	-89
0.02267	-95
0.02333	-102
0.02400	-108
0.02467	-115
0.02533	-121
0.02600	-127
0.02667	-132
0.02733	-138
0.02800	-143
0.02867	-148
0.02933	-153
0.03000	-157
0.03067	-161
0.03133	-165
0.03200	-169
0.03267	-172
0.03333	-175
0.03400	-178
0.03467	-181
0.03533	-183
0.03600	-186
0.03667	-188
0.03733	-190
0.03800	-191
0.03867	-193
0.03933	-194
0.04000	-195
0.04067	-196
0.04133	-197
0.04200	-198
0.04267	-199
0.04333	-200
0.04400	-200
0.04467	-201
0.04533	-201
0.04600	-202
0.04667	-202
0.04733	-202
0.04800	-202
0.04867	-202
0.04933	-202
0.05000	-202
0.05067	-202
0.05133	-201
0.05200	-201
0.05267	-201
0.05333	-201
0.05400	-201
0.05467	-201
0.05533	-201
0.05600	-201
0.05667	-201
0.05733	-201
0.05800	-201
0.05867	-201
0.05933	-202
0.06000	-202
0.06067	-202
0.06133	-202
0.06200	-202
0.06267	-202
0.06333	-202
0.06400	-202
0.06467	-203
0.06533	-203
0.06600	-203
0.06667	-203
0.06733	-203
0.06800	-204
0.06867	-204
0.06933	-204
0.07000	-204
0.07067	-205
0.07133	-205
0.07200	-205
0.07267	-206
0.07333	-206
0.07400	-206
0.07467	-207
0.07533	-207
0.07600	-208
0.07667	-208
0.07733	-209
0.07800	-209
0.07867	-210
0.07933	-210
0.08000	-211
0.08067	-211
0.08133	-212
0.08200	-212
0.08267	-213
0.08333	-214
0.08400	-214
0.08467	-215
0.08533	-214
0.08600	-214
0.08667	-212
0.08733	-209
0.08800	-203
0.08867	-195
0.08933	-179
0.09000	-148
0.09067	-111
0.09133	-62
0.09200	0
0.09267	81
0.09333	171
0.09400	268
0.09467	381
0.09533	500
0.09600	624
0.09667	757
0.09733	896
0.09800	1054
0.09867	1231
0.09933	1452
0.10000	1705
0.10067	1973
0.10133	2248
0.10200	2536
0.10267	2836
0.10333	3130
0.10400	3416
0.10467	3695
0.10533	3973
0.10600	4241
0.10667	4520
0.10733	4807
0.10800	5099
0.10867	5390
0.10933	5676
0.11000	5950
0.11067	6213
0.11133	6463
0.11200	6699
0.11267	6936
0.11333	7189
0.11400	7427
0.11467	7645
0.11533	7847
0.11600	8035
0.11667	8204
0.11733	8359
0.11800	8510
0.11867	8655
0.11933	8797
0.12000	8962
0.12067	9122
0.12133	9265
0.12200	9394
0.12267	9521
0.12333	9672
0.12400	9834
0.12467	9974
0.12533	10095
0.12600	10202
0.12667	10298
0.12733	10379
0.12800	10445
0.12867	10496
0.12933	10532
0.13000	10563
0.13067	10608
0.13133	10809
0.13200	11669
0.13267	14634
0.13333	23025
0.13400	43629
0.13467	88214
0.13533	176261
0.13600	334966
0.13667	597646
0.13733	998198
0.13800	1569754
0.13867	2340312
0.13933	3334790
0.14000	4572450
0.14067	6066640
0.14133	7824335
0.14200	9848601
0.14267	12138687
0.14333	14692508
0.14400	17504790
0.14467	20563851
0.14533	23849244
0.14600	27350739
0.14667	31079292
0.14733	35045347
0.14800	39245777
0.14867	43667181
0.14933	48289636
0.15000	53089480
0.15067	58041772
0.15133	63122341
0.15200	68308408
0.15267	73578985
0.15333	78914281
0.15400	84296221
0.15467	89707809
0.15533	95133413
0.15600	100558086
0.15667	105967685
0.15733	111348648
0.15800	116688490
0.15867	121975273
0.15933	127197756
0.16000	132345202
0.16067	137407707
0.16133	142375830
0.16200	147241116
0.16267	151995288
0.16333	156630779
0.16400	161140564
0.16467	165517974
0.16533	169756550
0.16600	173849743
0.16667	177791097
0.16733	181573966
0.16800	185191960
0.16867	188638723
0.16933	191908713
0.17000	194996784
0.17067	197898849
0.17133	200611206
0.17200	203131285
0.17267	205456892
0.17333	207586744
0.17400	209520111
0.17467	211257388
0.17533	212799668
0.17600	214149139
0.17667	215308677
0.17733	216281770
0.17800	217072196
0.17867	217684238
0.17933	218122403
0.18000	218391592
0.18067	218496963
0.18133	218443792
0.18200	218237591
0.18267	217883788
0.18333	217387878
0.18400	216755347
0.18467	215991736
0.18533	215102431
0.18600	214092925
0.18667	212968622
0.18733	211735035
0.18800	210397567
0.18867	208961763
0.18933	207433053
0.19000	205817022
0.19067	204119270
0.19133	202345387
0.19200	200500777
0.19267	198590682
0.19333	196620129
0.19400	194594002
0.19467	192516992
0.19533	190393642
0.19600	188228296
0.19667	186025099
0.19733	183788081
0.19800	181521181
0.19867	179228397
0.19933	176914063
0.20000	174582865
0.20067	172239130
0.20133	169886344
0.20200	167527096
0.20267	165163527
0.20333	162797573
0.20400	160431229
0.20467	158066583
0.20533	155705882
0.20600	153351393
0.20667	151005400
0.20733	148670170
0.20800	146347958
0.20867	144040930
0.20933	141751142
0.21000	139480530
0.21067	137230955
0.21133	135004191
0.21200	132801916
0.21267	130625676
0.21333	128476895
0.21400	126356824
0.21467	124266552
0.21533	122207051
0.21600	120179203
0.21667	118183757
0.21733	116221318
0.21800	114292384
0.21867	112397414
0.21933	110536779
0.22000	108710748
0.22067	106919462
0.22133	105163003
0.22200	103441437
0.22267	101754757
0.22333	100102848
0.22400	98485477
0.22467	96902299
0.22533	95352926
0.22600	93836963
0.22667	92354013
0.22733	90903652
0.22800	89485381
0.22867	88098641
0.22933	86742880
0.23000	85417536
0.23067	84122016
0.23133	82855682
0.23200	81617873
0.23267	80407929
0.23333	79225157
0.23400	78068795
0.23467	76938075
0.23533	75832208
0.23600	74750409
0.23667	73691915
0.23733	72655974
0.23800	71641817
0.23867	70648710
0.23933	69675935
0.24000	68722790
0.24067	67788578
0.24133	66872612
0.24200	65974209
0.24267	65092719
0.24333	64227523
0.24400	63377988
0.24467	62543532
0.24533	61723576
0.24600	60917574
0.24667	60124968
0.24733	59345250
0.24800	58577925
0.24867	57822546
0.24933	57078681
0.25000	56345941
0.25067	55623956
0.25133	54912365
0.25200	54210796
0.25267	53518895
0.25333	52836318
0.25400	52162749
0.25467	51497887
0.25533	50841459
0.25600	50193217
0.25667	49552917
0.25733	48920326
0.25800	48295217
0.25867	47677379
0.25933	47066618
0.26000	46462767
0.26067	45865672
0.26133	45275193
0.26200	44691187
0.26267	44113544
0.26333	43542165
0.26400	42976983
0.26467	42417916
0.26533	41864889
0.26600	41317838
0.26667	40776718
0.26733	40241493
0.26800	39712144
0.26867	39188652
0.26933	38670997
0.27000	38159161
0.27067	37653137
0.27133	37152908
0.27200	36658466
0.27267	36169804
0.27333	35686914
0.27400	35209795
0.27467	34738437
0.27533	34272838
0.27600	33812988
0.27667	33358876
0.27733	32910492
0.27800	32467826
0.27867	32030859
0.27933	31599567
0.28000	31173918
0.28067	30753887
0.28133	30339434
0.28200	29930524
0.28267	29527128
0.28333	29129234
0.28400	28736825
0.28467	28349884
0.28533	27968391
0.28600	27592331
0.28667	27221693
0.28733	26856464
0.28800	26496634
0.28867	26142191
0.28933	25793126
0.29000	25449432
0.29067	25111097
0.29133	24778095
0.29200	24450399
0.29267	24127973
0.29333	23810780
0.29400	23498765
0.29467	23191868
0.29533	22890017
0.29600	22593131
0.29667	22301120
0.29733	22013897
0.29800	21731368
0.29867	21453439
0.29933	21180009
0.30000	20910981
0.30067	20646251
0.30133	20385715
0.30200	20129272
0.30267	19876836
0.30333	19628324
0.30400	19383638
0.30467	19142686
0.30533	18905374
0.30600	18671618
0.30667	18441327
0.30733	18214419
0.30800	17990809
0.30867	17770416
0.30933	17553162
0.31000	17338973
0.31067	17127767
0.31133	16919466
0.31200	16713989
0.31267	16511262
0.31333	16311213
0.31400	16113767
0.31467	15918842
0.31533	15726362
0.31600	15536257
0.31667	15348461
0.31733	15162908
0.31800	14979535
0.31867	14798279
0.31933	14619068
0.32000	14441829
0.32067	14266489
0.32133	14092975
0.32200	13921206
0.32267	13751112
0.32333	13582621
0.32400	13415667
0.32467	13250179
0.32533	13086091
0.32600	12923331
0.32667	12761841
0.32733	12601557
0.32800	12442422
0.32867	12284382
0.32933	12127390
0.33000	11971394
0.33067	11816348
0.33133	11662211
0.33200	11508950
0.33267	11356541
0.33333	11204964
0.33400	11054215
0.33467	10904297
0.33533	10755221
0.33600	10607004
0.33667	10459663
0.33733	10313215
0.33800	10167678
0.33867	10023073
0.33933	9879427
0.34000	9736761
0.34067	9595099
0.34133	9454461
0.34200	9314866
0.34267	9176331
0.34333	9038867
0.34400	8902485
0.34467	8767195
0.34533	8633002
0.34600	8499912
0.34667	8367930
0.34733	8237060
0.34800	8107305
0.34867	7978668
0.34933	7851152
0.35000	7724760
0.35067	7599493
0.35133	7475355
0.35200	7352345
0.35267	7230460
0.35333	7109697
0.35400	6990054
0.35467	6871539
0.35533	6754169
0.35600	6637968
0.35667	6522958
0.35733	6409160
0.35800	6296591
0.35867	6185263
0.35933	6075186
0.36000	5966365
0.36067	5858801
0.36133	5752495
0.36200	5647445
0.36267	5543649
0.36333	5441108
0.36400	5339825
0.36467	5239799
0.36533	5141029
0.36600	5043515
0.36667	4947255
0.36733	4852247
0.36800	4758490
0.36867	4665983
0.36933	4574725
0.37000	4484716
0.37067	4395956
0.37133	4308444
0.37200	4222174
0.37267	4137137
0.37333	4053325
0.37400	3970735
0.37467	3889372
0.37533	3809245
0.37600	3730362
0.37667	3652730
0.37733	3576354
0.37800	3501237
0.37867	3427376
0.37933	3354770
0.38000	3283415
0.38067	3213306
0.38133	3144438
0.38200	3076806
0.38267	3010407
0.38333	2945239
0.38400	2881299
0.38467	2818588
0.38533	2757102
0.38600	2696832
0.38667	2637770
0.38733	2579903
0.38800	2523217
0.38867	2467700
0.38933	2413337
0.39000	2360115
0.39067	2308017
0.39133	2257027
0.39200	2207130
0.39267	2158308
0.39333	2110545
0.39400	2063825
0.39467	2018132
0.39533	1973449
0.39600	1929760
0.39667	1887049
0.39733	1845299
0.39800	1804493
0.39867	1764615
0.39933	1725649
0.40000	1687578
0.40067	1650386
0.40133	1614056
0.40200	1578572
0.40267	1543918
0.40333	1510079
0.40400	1477037
0.40467	1444779
0.40533	1413289
0.40600	1382550
0.40667	1352549
0.40733	1323269
0.40800	1294697
0.40867	1266818
0.40933	1239618
0.41000	1213081
0.41067	1187193
0.41133	1161939
0.41200	1137306
0.41267	1113278
0.41333	1089843
0.41400	1066988
0.41467	1044698
0.41533	1022962
0.41600	1001767
0.41667	981100
0.41733	960948
0.41800	941300
0.41867	922143
0.41933	903465
0.42000	885256
0.42067	867504
0.42133	850198
0.42200	833326
0.42267	816879
0.42333	800846
0.42400	785217
0.42467	769982
0.42533	755130
0.42600	740653
0.42667	726540
0.42733	712783
0.42800	699373
0.42867	686301
0.42933	673558
0.43000	661137
0.43067	649027
0.43133	637222
0.43200	625714
0.43267	614494
0.43333	603556
0.43400	592892
0.43467	582495
0.43533	572358
0.43600	562474
0.43667	552837
0.43733	543439
0.43800	534275
0.43867	525338
0.43933	516623
0.44000	508123
0.44067	499833
0.44133	491747
0.44200	483860
0.44267	476167
0.44333	468661
0.44400	461339
0.44467	454195
0.44533	447225
0.44600	440422
0.44667	433784
0.44733	427305
0.44800	420981
0.44867	414807
0.44933	408780
0.45000	402894
0.45067	397147
0.45133	391534
0.45200	386051
0.45267	380696
0.45333	375464
0.45400	370352
0.45467	365356
0.45533	360475
0.45600	355703
0.45667	351040
0.45733	346481
0.45800	342024
0.45867	337667
0.45933	333406
0.46000	329240
0.46067	325166
0.46133	321181
0.46200	317284
0.46267	313472
0.46333	309742
0.46400	306095
0.46467	302526
0.46533	299035
0.46600	295619
0.46667	292277
0.46733	289007
0.46800	285807
0.46867	282675
0.46933	279611
0.47000	276611
0.47067	273674
0.47133	270799
0.47200	267984
0.47267	265228
0.47333	262529
0.47400	259885
0.47467	257296
0.47533	254759
0.47600	252274
0.47667	249839
0.47733	247452
0.47800	245112
0.47867	242818
0.47933	240568
0.48000	238362
0.48067	236198
0.48133	234074
0.48200	231991
0.48267	229946
0.48333	227939
0.48400	225968
0.48467	224033
0.48533	222133
0.48600	220266
0.48667	218432
0.48733	216631
0.48800	214860
0.48867	213120
0.48933	211409
0.49000	209726
0.49067	208072
0.49133	206445
0.49200	204844
0.49267	203269
0.49333	201719
0.49400	200194
0.49467	198692
0.49533	197214
0.49600	195759
0.49667	194326
0.49733	192914
0.49800	191524
0.49867	190155
0.49933	188807
0.50000	187478
0.50067	186169
0.50133	184880
0.50200	183609
0.50267	182357
0.50333	181124
0.50400	179907
0.50467	178709
0.50533	177527
0.50600	176363
0.50667	175214
0.50733	174081
0.50800	172964
0.50867	171861
0.50933	170773
0.51000	169699
0.51067	168638
0.51133	167591
0.51200	166556
0.51267	165534
0.51333	164524
0.51400	163526
0.51467	162540
0.51533	161565
0.51600	160601
0.51667	159648
0.51733	158706
0.51800	157775
0.51867	156854
0.51933	155943
0.52000	155042
0.52067	154151
0.52133	153270
0.52200	152399
0.52267	151536
0.52333	150683
0.52400	149839
0.52467	149004
0.52533	148177
0.52600	147359
0.52667	146549
0.52733	145748
0.52800	144955
0.52867	144169
0.52933	143392
0.53000	142622
0.53067	141860
0.53133	141105
0.53200	140358
0.53267	139618
0.53333	138884
0.53400	138158
0.53467	137439
0.53533	136726
0.53600	136020
0.53667	135321
0.53733	134628
0.53800	133941
0.53867	133261
0.53933	132587
0.54000	131918
0.54067	131256
0.54133	130599
0.54200	129949
0.54267	129304
0.54333	128664
0.54400	128030
0.54467	127402
0.54533	126779
0.54600	126162
0.54667	125550
0.54733	124943
0.54800	124341
0.54867	123745
0.54933	123153
0.55000	122567
0.55067	121985
0.55133	121408
0.55200	120837
0.55267	120270
0.55333	119707
0.55400	119150
0.55467	118597
0.55533	118049
0.55600	117505
0.55667	116966
0.55733	116431
0.55800	115901
0.55867	115374
0.55933	114853
0.56000	114335
0.56067	113822
0.56133	113313
0.56200	112808
0.56267	112307
0.56333	111811
0.56400	111318
0.56467	110830
0.56533	110346
0.56600	109866
0.56667	109390
0.56733	108918
0.56800	108450
0.56867	107986
0.56933	107526
0.57000	107071
0.57067	106619
0.57133	106171
0.57200	105727
0.57267	105287
0.57333	104850
0.57400	104418
0.57467	103988
0.57533	103563
0.57600	103140
0.57667	102721
0.57733	102305
0.57800	101893
0.57867	101483
0.57933	101077
0.58000	100673
0.58067	100272
0.58133	99875
0.58200	99479
0.58267	99087
0.58333	98697
0.58400	98309
0.58467	97924
0.58533	97541
0.58600	97161
0.58667	96783
0.58733	96407
0.58800	96034
0.58867	95663
0.58933	95294
0.59000	94928
0.59067	94563
0.59133	94201
0.59200	93841
0.59267	93483
0.59333	93127
0.59400	92773
0.59467	92421
0.59533	92072
0.59600	91725
0.59667	91380
0.59733	91038
0.59800	90698
0.59867	90361
0.59933	90026
0.60000	89694
0.60067	89365
0.60133	89038
0.60200	88713
0.60267	88392
0.60333	88072
0.60400	87755
0.60467	87440
0.60533	87127
0.60600	86816
0.60667	86506
0.60733	86199
0.60800	85893
0.60867	85589
0.60933	85287
0.61000	84986
0.61067	84686
0.61133	84388
0.61200	84092
0.61267	83797
0.61333	83503
0.61400	83211
0.61467	82921
0.61533	82631
0.61600	82343
0.61667	82056
0.61733	81771
0.61800	81487
0.61867	81205
0.61933	80924
0.62000	80644
0.62067	80367
0.62133	80090
0.62200	79816
0.62267	79543
0.62333	79272
0.62400	79002
0.62467	78735
0.62533	78469
0.62600	78205
0.62667	77942
0.62733	77682
0.62800	77424
0.62867	77167
0.62933	76913
0.63000	76661
0.63067	76410
0.63133	76161
0.63200	75914
0.63267	75668
0.63333	75424
0.63400	75181
0.63467	74940
0.63533	74700
0.63600	74461
0.63667	74223
0.63733	73987
0.63800	73751
0.63867	73517
0.63933	73283
0.64000	73051
0.64067	72820
0.64133	72589
0.64200	72360
0.64267	72131
0.64333	71904
0.64400	71677
0.64467	71452
0.64533	71227
0.64600	71004
0.64667	70781
0.64733	70560
0.64800	70340
0.64867	70121
0.64933	69904
0.65000	69687
0.65067	69472
0.65133	69258
0.65200	69045
0.65267	68834
0.65333	68624
0.65400	68415
0.65467	68207
0.65533	68000
0.65600	67795
0.65667	67591
0.65733	67388
0.65800	67186
0.65867	66986
0.65933	66786
0.66000	66588
0.66067	66390
0.66133	66194
0.66200	65999
0.66267	65805
0.66333	65612
0.66400	65420
0.66467	65229
0.66533	65039
0.66600	64850
0.66667	64662
0.66733	64475
0.66800	64290
0.66867	64105
0.66933	63921
0.67000	63738
0.67067	63556
0.67133	63375
0.67200	63195
0.67267	63016
0.67333	62838
0.67400	62662
0.67467	62486
0.67533	62311
0.67600	62138
0.67667	61965
0.67733	61794
0.67800	61624
0.67867	61454
0.67933	61286
0.68000	61119
0.68067	60954
0.68133	60789
0.68200	60626
0.68267	60463
0.68333	60302
0.68400	60143
0.68467	59984
0.68533	59827
0.68600	59672
0.68667	59518
0.68733	59365
0.68800	59215
0.68867	59065
0.68933	58918
0.69000	58773
0.69067	58629
0.69133	58488
0.69200	58349
0.69267	58213
0.69333	58079
0.69400	57948
0.69467	57819
0.69533	57694
0.69600	57571
0.69667	57452
0.69733	57335
0.69800	57222
0.69867	57112
0.69933	57005
0.70000	56900
0.70067	56799
0.70133	56700
0.70200	56604
0.70267	56510
0.70333	56418
0.70400	56328
0.70467	56239
0.70533	56152
0.70600	56065
0.70667	55980
0.70733	55895
0.70800	55810
0.70867	55724
0.70933	55638
0.71000	55552
0.71067	55464
0.71133	55376
0.71200	55286
0.71267	55195
0.71333	55102
0.71400	55008
0.71467	54913
0.71533	54816
0.71600	54718
0.71667	54618
0.71733	54517
0.71800	54415
0.71867	54311
0.71933	54206
0.72000	54100
0.72067	53993
0.72133	53885
0.72200	53777
0.72267	53667
0.72333	53557
0.72400	53446
0.72467	53334
0.72533	53222
0.72600	53110
0.72667	52997
0.72733	52884
0.72800	52771
0.72867	52658
0.72933	52544
0.73000	52431
0.73067	52318
0.73133	52204
0.73200	52091
0.73267	51978
0.73333	51865
0.73400	51752
0.73467	51639
0.73533	51527
0.73600	51415
0.73667	51303
0.73733	51191
0.73800	51080
0.73867	50969
0.73933	50858
0.74000	50748
0.74067	50637
0.74133	50528
0.74200	50418
0.74267	50309
0.74333	50200
0.74400	50092
0.74467	49984
0.74533	49876
0.74600	49769
0.74667	49662
0.74733	49556
0.74800	49450
0.74867	49344
0.74933	49239
0.75000	49135
0.75067	49031
0.75133	48927
0.75200	48824
0.75267	48721
0.75333	48619
0.75400	48517
0.75467	48416
0.75533	48316
0.75600	48215
0.75667	48116
0.75733	48017
0.75800	47918
0.75867	47820
0.75933	47723
0.76000	47626
0.76067	47530
0.76133	47434
0.76200	47339
0.76267	47245
0.76333	47151
0.76400	47058
0.76467	46965
0.76533	46873
0.76600	46781
0.76667	46690
0.76733	46600
0.76800	46510
0.76867	46420
0.76933	46331
0.77000	46243
0.77067	46155
0.77133	46068
0.77200	45981
0.77267	45895
0.77333	45809
0.77400	45724
0.77467	45639
0.77533	45555
0.77600	45471
0.77667	45387
0.77733	45304
0.77800	45222
0.77867	45139
0.77933	45058
0.78000	44976
0.78067	44895
0.78133	44815
0.78200	44735
0.78267	44655
0.78333	44576
0.78400	44497
0.78467	44419
0.78533	44341
0.78600	44264
0.78667	44187
0.78733	44110
0.78800	44034
0.78867	43959
0.78933	43884
0.79000	43809
0.79067	43735
0.79133	43661
0.79200	43588
0.79267	43515
0.79333	43443
0.79400	43371
0.79467	43300
0.79533	43229
0.79600	43158
0.79667	43088
0.79733	43019
0.79800	42949
0.79867	42881
0.79933	42812
0.80000	42744
0.80067	42676
0.80133	42609
0.80200	42542
0.80267	42475
0.80333	42408
0.80400	42342
0.80467	42276
0.80533	42210
0.80600	42144
0.80667	42078
0.80733	42013
0.80800	41948
0.80867	41883
0.80933	41818
0.81000	41753
0.81067	41689
0.81133	41625
0.81200	41561
0.81267	41497
0.81333	41433
0.81400	41369
0.81467	41305
0.81533	41242
0.81600	41178
0.81667	41115
0.81733	41052
0.81800	40989
0.81867	40926
0.81933	40863
0.82000	40800
0.82067	40737
0.82133	40674
0.82200	40612
0.82267	40549
0.82333	40487
0.82400	40424
0.82467	40362
0.82533	40300
0.82600	40238
0.82667	40176
0.82733	40114
0.82800	40052
0.82867	39990
0.82933	39929
0.83000	39867
0.83067	39806
0.83133	39745
0.83200	39684
0.83267	39623
0.83333	39562
0.83400	39501
0.83467	39440
0.83533	39380
0.83600	39319
0.83667	39259
0.83733	39199
0.83800	39139
0.83867	39079
0.83933	39020
0.84000	38960
0.84067	38901
0.84133	38842
0.84200	38783
0.84267	38724
0.84333	38666
0.84400	38607
0.84467	38549
0.84533	38490
0.84600	38432
0.84667	38374
0.84733	38316
0.84800	38259
0.84867	38201
0.84933	38144
0.85000	38086
0.85067	38029
0.85133	37973
0.85200	37916
0.85267	37859
0.85333	37803
0.85400	37747
0.85467	37691
0.85533	37635
0.85600	37580
0.85667	37524
0.85733	37469
0.85800	37414
0.85867	37359
0.85933	37304
0.86000	37249
0.86067	37195
0.86133	37141
0.86200	37087
0.86267	37033
0.86333	36980
0.86400	36927
0.86467	36874
0.86533	36821
0.86600	36769
0.86667	36716
0.86733	36664
0.86800	36612
0.86867	36560
0.86933	36509
0.87000	36458
0.87067	36407
0.87133	36356
0.87200	36305
0.87267	36255
0.87333	36205
0.87400	36155
0.87467	36106
0.87533	36056
0.87600	36007
0.87667	35958
0.87733	35910
0.87800	35862
0.87867	35814
0.87933	35766
0.88000	35719
0.88067	35672
0.88133	35625
0.88200	35579
0.88267	35533
0.88333	35487
0.88400	35441
0.88467	35396
0.88533	35351
0.88600	35307
0.88667	35262
0.88733	35218
0.88800	35175
0.88867	35131
0.88933	35088
0.89000	35045
0.89067	35003
0.89133	34961
0.89200	34919
0.89267	34877
0.89333	34836
0.89400	34795
0.89467	34754
0.89533	34713
0.89600	34672
0.89667	34632
0.89733	34592
0.89800	34552
0.89867	34512
0.89933	34473
0.90000	34434
0.90067	34395
0.90133	34356
0.90200	34317
0.90267	34278
0.90333	34240
0.90400	34202
0.90467	34163
0.90533	34126
0.90600	34088
0.90667	34050
0.90733	34013
0.90800	33976
0.90867	33939
0.90933	33902
0.91000	33865
0.91067	33829
0.91133	33792
0.91200	33756
0.91267	33720
0.91333	33685
0.91400	33649
0.91467	33614
0.91533	33578
0.91600	33544
0.91667	33509
0.91733	33474
0.91800	33440
0.91867	33406
0.91933	33373
0.92000	33339
0.92067	33306
0.92133	33273
0.92200	33241
0.92267	33209
0.92333	33177
0.92400	33145
0.92467	33114
0.92533	33083
0.92600	33052
0.92667	33021
0.92733	32991
0.92800	32961
0.92867	32932
0.92933	32903
0.93000	32874
0.93067	32845
0.93133	32817
0.93200	32789
0.93267	32761
0.93333	32734
0.93400	32707
0.93467	32680
0.93533	32653
0.93600	32627
0.93667	32600
0.93733	32574
0.93800	32548
0.93867	32522
0.93933	32497
0.94000	32471
0.94067	32446
0.94133	32420
0.94200	32395
0.94267	32369
0.94333	32344
0.94400	32319
0.94467	32293
0.94533	32268
0.94600	32242
0.94667	32216
0.94733	32191
0.94800	32165
0.94867	32139
0.94933	32113
0.95000	32087
0.95067	32060
0.95133	32034
0.95200	32008
0.95267	31982
0.95333	31956
0.95400	31929
0.95467	31903
0.95533	31877
0.95600	31851
0.95667	31825
0.95733	31799
0.95800	31773
0.95867	31748
0.95933	31722
0.96000	31697
0.96067	31671
0.96133	31646
0.96200	31621
0.96267	31597
0.96333	31572
0.96400	31548
0.96467	31524
0.96533	31500
0.96600	31476
0.96667	31452
0.96733	31429
0.96800	31405
0.96867	31382
0.96933	31358
0.97000	31335
0.97067	31312
0.97133	31289
0.97200	31266
0.97267	31243
0.97333	31219
0.97400	31196
0.97467	31172
0.97533	31149
0.97600	31125
0.97667	31101
0.97733	31077
0.97800	31053
0.97867	31029
0.97933	31004
0.98000	30979
0.98067	30954
0.98133	30929
0.98200	30904
0.98267	30879
0.98333	30853
0.98400	30828
0.98467	30802
0.98533	30777
0.98600	30751
0.98667	30725
0.98733	30699
0.98800	30673
0.98867	30647
0.98933	30621
0.99000	30595
0.99067	30569
0.99133	30543
0.99200	30518
0.99267	30492
0.99333	30466
0.99400	30440
0.99467	30415
0.99533	30389
0.99600	30363
0.99667	30338
0.99733	30312
0.99800	30286
0.99867	30261
0.99933	30235
1.00000	30209
1.00067	30184
1.00133	30158
1.00200	30133
1.00267	30107
1.00333	30082
1.00400	30057
1.00467	30031
1.00533	30006
1.00600	29981
1.00667	29956
1.00733	29931
1.00800	29907
1.00867	29882
1.00933	29858
1.01000	29833
1.01067	29809
1.01133	29785
1.01200	29761
1.01267	29737
1.01333	29713
1.01400	29690
1.01467	29667
1.01533	29644
1.01600	29622
1.01667	29599
1.01733	29577
1.01800	29556
1.01867	29534
1.01933	29513
1.02000	29492
1.02067	29471
1.02133	29451
1.02200	29431
1.02267	29411
1.02333	29391
1.02400	29372
1.02467	29353
1.02533	29334
1.02600	29316
1.02667	29297
1.02733	29279
1.02800	29261
1.02867	29244
1.02933	29226
1.03000	29209
1.03067	29191
1.03133	29174
1.03200	29157
1.03267	29140
1.03333	29123
1.03400	29106
1.03467	29089
1.03533	29072
1.03600	29055
1.03667	29038
1.03733	29020
1.03800	29003
1.03867	28986
1.03933	28968
1.04000	28950
1.04067	28932
1.04133	28914
1.04200	28896
1.04267	28878
1.04333	28860
1.04400	28841
1.04467	28823
1.04533	28804
1.04600	28785
1.04667	28767
1.04733	28748
1.04800	28729
1.04867	28710
1.04933	28690
1.05000	28671
1.05067	28652
1.05133	28633
1.05200	28614
1.05267	28594
1.05333	28575
1.05400	28556
1.05467	28536
1.05533	28517
1.05600	28498
1.05667	28478
1.05733	28459
1.05800	28440
1.05867	28420
1.05933	28401
1.06000	28382
1.06067	28362
1.06133	28343
1.06200	28324
1.06267	28304
1.06333	28285
1.06400	28266
1.06467	28247
1.06533	28228
1.06600	28209
1.06667	28190
1.06733	28171
1.06800	28152
1.06867	28134
1.06933	28115
1.07000	28097
1.07067	28078
1.07133	28060
1.07200	28042
1.07267	28023
1.07333	28005
1.07400	27987
1.07467	27969
1.07533	27952
1.07600	27934
1.07667	27916
1.07733	27899
1.07800	27882
1.07867	27864
1.07933	27847
1.08000	27830
1.08067	27813
1.08133	27796
1.08200	27779
1.08267	27762
1.08333	27745
1.08400	27728
1.08467	27712
1.08533	27696
1.08600	27679
1.08667	27663
1.08733	27647
1.08800	27631
1.08867	27615
1.08933	27599
1.09000	27583
1.09067	27568
1.09133	27552
1.09200	27537
1.09267	27522
1.09333	27507
1.09400	27492
1.09467	27477
1.09533	27463
1.09600	27449
1.09667	27436
1.09733	27422
1.09800	27409
1.09867	27397
1.09933	27385
1.10000	27373
1.10067	27363
1.10133	27352
1.10200	27342
1.10267	27333
1.10333	27324
1.10400	27316
1.10467	27308
1.10533	27301
1.10600	27295
1.10667	27288
1.10733	27283
1.10800	27277
1.10867	27272
1.10933	27267
1.11000	27262
1.11067	27258
1.11133	27253
1.11200	27249
1.11267	27244
1.11333	27240
1.11400	27235
1.11467	27231
1.11533	27226
1.11600	27221
1.11667	27216
1.11733	27211
1.11800	27205
1.11867	27200
1.11933	27194
1.12000	27188
1.12067	27181
1.12133	27175
1.12200	27168
1.12267	27160
1.12333	27153
1.12400	27145
1.12467	27137
1.12533	27129
1.12600	27120
1.12667	27112
1.12733	27103
1.12800	27094
1.12867	27085
1.12933	27075
1.13000	27066
1.13067	27057
1.13133	27047
1.13200	27037
1.13267	27027
1.13333	27017
1.13400	27007
1.13467	26996
1.13533	26986
1.13600	26975
1.13667	26964
1.13733	26953
1.13800	26942
1.13867	26930
1.13933	26919
1.14000	26907
1.14067	26895
1.14133	26883
1.14200	26871
1.14267	26859
1.14333	26847
1.14400	26834
1.14467	26821
1.14533	26809
1.14600	26796
1.14667	26783
1.14733	26770
1.14800	26757
1.14867	26744
1.14933	26731
1.15000	26718
1.15067	26705
1.15133	26691
1.15200	26678
1.15267	26664
1.15333	26651
1.15400	26638
1.15467	26624
1.15533	26611
1.15600	26597
1.15667	26584
1.15733	26571
1.15800	26557
1.15867	26544
1.15933	26530
1.16000	26517
1.16067	26504
1.16133	26490
1.16200	26477
1.16267	26464
1.16333	26451
1.16400	26437
1.16467	26424
1.16533	26411
1.16600	26398
1.16667	26385
1.16733	26372
1.16800	26359
1.16867	26346
1.16933	26333
1.17000	26320
1.17067	26308
1.17133	26295
1.17200	26282
1.17267	26270
1.17333	26257
1.17400	26245
1.17467	26232
1.17533	26220
1.17600	26208
1.17667	26195
1.17733	26183
1.17800	26171
1.17867	26159
1.17933	26148
1.18000	26136
1.18067	26124
1.18133	26113
1.18200	26101
1.18267	26090
1.18333	26079
1.18400	26068
1.18467	26057
1.18533	26046
1.18600	26035
1.18667	26024
1.18733	26013
1.18800	26003
1.18867	25993
1.18933	25983
1.19000	25973
1.19067	25963
1.19133	25953
1.19200	25943
1.19267	25934
1.19333	25924
1.19400	25915
1.19467	25905
1.19533	25896
1.19600	25887
1.19667	25878
1.19733	25869
1.19800	25860
1.19867	25852
1.19933	25843
1.20000	25835
1.20067	25827
1.20133	25819
1.20200	25811
1.20267	25803
1.20333	25795
1.20400	25788
1.20467	25781
1.20533	25773
1.20600	25766
1.20667	25759
1.20733	25753
1.20800	25746
1.20867	25739
1.20933	25733
1.21000	25726
1.21067	25720
1.21133	25714
1.21200	25708
1.21267	25702
1.21333	25696
1.21400	25690
1.21467	25685
1.21533	25679
1.21600	25673
1.21667	25668
1.21733	25663
1.21800	25657
1.21867	25652
1.21933	25647
1.22000	25642
1.22067	25637
1.22133	25632
1.22200	25627
1.22267	25623
1.22333	25618
1.22400	25613
1.22467	25609
1.22533	25604
1.22600	25600
1.22667	25596
1.22733	25592
1.22800	25588
1.22867	25584
1.22933	25580
1.23000	25577
1.23067	25573
1.23133	25570
1.23200	25566
1.23267	25563
1.23333	25560
1.23400	25557
1.23467	25554
1.23533	25551
1.23600	25548
1.23667	25546
1.23733	25543
1.23800	25541
1.23867	25539
1.23933	25537
1.24000	25536
1.24067	25535
1.24133	25534
1.24200	25534
1.24267	25534
1.24333	25534
1.24400	25535
1.24467	25537
1.24533	25540
1.24600	25543
1.24667	25548
1.24733	25553
1.24800	25560
1.24867	25567
1.24933	25576
1.25000	25587
1.25067	25598
1.25133	25611
1.25200	25626
1.25267	25641
1.25333	25658
1.25400	25677
1.25467	25696
1.25533	25717
1.25600	25738
1.25667	25761
1.25733	25784
1.25800	25808
1.25867	25832
1.25933	25857
1.26000	25882
1.26067	25907
1.26133	25932
1.26200	25957
1.26267	25981
1.26333	26005
1.26400	26029
1.26467	26052
1.26533	26074
1.26600	26095
1.26667	26116
1.26733	26135
1.26800	26153
1.26867	26171
1.26933	26187
1.27000	26202
1.27067	26216
1.27133	26228
1.27200	26240
1.27267	26250
1.27333	26259
1.27400	26267
1.27467	26274
1.27533	26279
1.27600	26284
1.27667	26287
1.27733	26290
1.27800	26291
1.27867	26291
1.27933	26291
1.28000	26289
1.28067	26286
1.28133	26283
1.28200	26278
1.28267	26273
1.28333	26267
1.28400	26260
1.28467	26252
1.28533	26244
1.28600	26235
1.28667	26225
1.28733	26215
1.28800	26204
1.28867	26192
1.28933	26180
1.29000	26168
1.29067	26155
1.29133	26141
1.29200	26127
1.29267	26113
1.29333	26098
1.29400	26083
1.29467	26068
1.29533	26053
1.29600	26037
1.29667	26020
1.29733	26004
1.29800	25987
1.29867	25971
1.29933	25953
1.30000	25936
1.30067	25919
1.30133	25901
1.30200	25883
1.30267	25865
1.30333	25847
1.30400	25829
1.30467	25811
1.30533	25793
1.30600	25775
1.30667	25756
1.30733	25737
1.30800	25719
1.30867	25700
1.30933	25681
1.31000	25663
1.31067	25644
1.31133	25625
1.31200	25606
1.31267	25587
1.31333	25569
1.31400	25550
1.31467	25531
1.31533	25512
1.31600	25494
1.31667	25475
1.31733	25457
1.31800	25438
1.31867	25420
1.31933	25401
1.32000	25383
1.32067	25365
1.32133	25347
1.32200	25329
1.32267	25311
1.32333	25294
1.32400	25276
1.32467	25258
1.32533	25241
1.32600	25224
1.32667	25207
1.32733	25190
1.32800	25173
1.32867	25157
1.32933	25140
1.33000	25124
1.33067	25108
1.33133	25092
1.33200	25076
1.33267	25060
1.33333	25045
1.33400	25030
1.33467	25015
1.33533	25000
1.33600	24985
1.33667	24970
1.33733	24956
1.33800	24942
1.33867	24928
1.33933	24914
1.34000	24900
1.34067	24887
1.34133	24873
1.34200	24860
1.34267	24847
1.34333	24834
1.34400	24822
1.34467	24809
1.34533	24796
1.34600	24784
1.34667	24772
1.34733	24760
1.34800	24748
1.34867	24736
1.34933	24724
1.35000	24712
1.35067	24700
1.35133	24689
1.35200	24677
1.35267	24666
1.35333	24654
1.35400	24643
1.35467	24632
1.35533	24621
1.35600	24610
1.35667	24599
1.35733	24589
1.35800	24578
1.35867	24568
1.35933	24557
1.36000	24547
1.36067	24537
1.36133	24527
1.36200	24517
1.36267	24507
1.36333	24497
1.36400	24487
1.36467	24477
1.36533	24467
1.36600	24457
1.36667	24448
1.36733	24438
1.36800	24428
1.36867	24419
1.36933	24410
1.37000	24400
1.37067	24391
1.37133	24382
1.37200	24373
1.37267	24363
1.37333	24354
1.37400	24345
1.37467	24336
1.37533	24327
1.37600	24318
1.37667	24310
1.37733	24301
1.37800	24292
1.37867	24284
1.37933	24275
1.38000	24267
1.38067	24259
1.38133	24251
1.38200	24243
1.38267	24235
1.38333	24227
1.38400	24220
1.38467	24212
1.38533	24205
1.38600	24198
1.38667	24191
1.38733	24184
1.38800	24177
1.38867	24170
1.38933	24163
1.39000	24157
1.39067	24150
1.39133	24144
1.39200	24137
1.39267	24131
1.39333	24125
1.39400	24119
1.39467	24113
1.39533	24107
1.39600	24101
1.39667	24095
1.39733	24089
1.39800	24084
1.39867	24078
1.39933	24072
1.40000	24067
1.40067	24061
1.40133	24055
1.40200	24050
1.40267	24044
1.40333	24039
1.40400	24033
1.40467	24028
1.40533	24022
1.40600	24016
1.40667	24011
1.40733	24005
1.40800	23999
1.40867	23994
1.40933	23988
1.41000	23982
1.41067	23977
1.41133	23971
1.41200	23965
1.41267	23959
1.41333	23954
1.41400	23948
1.41467	23942
1.41533	23936
1.41600	23931
1.41667	23925
1.41733	23919
1.41800	23913
1.41867	23907
1.41933	23901
1.42000	23895
1.42067	23889
1.42133	23883
1.42200	23877
1.42267	23871
1.42333	23865
1.42400	23859
1.42467	23853
1.42533	23847
1.42600	23841
1.42667	23834
1.42733	23828
1.42800	23822
1.42867	23816
1.42933	23810
1.43000	23804
1.43067	23798
1.43133	23792
1.43200	23786
1.43267	23780
1.43333	23774
1.43400	23769
1.43467	23763
1.43533	23757
1.43600	23752
1.43667	23746
1.43733	23741
1.43800	23736
1.43867	23730
1.43933	23725
1.44000	23720
1.44067	23715
1.44133	23710
1.44200	23705
1.44267	23701
1.44333	23696
1.44400	23691
1.44467	23687
1.44533	23682
1.44600	23678
1.44667	23674
1.44733	23669
1.44800	23665
1.44867	23661
1.44933	23658
1.45000	23654
1.45067	23650
1.45133	23646
1.45200	23643
1.45267	23639
1.45333	23636
1.45400	23632
1.45467	23629
1.45533	23625
1.45600	23622
1.45667	23618
1.45733	23615
1.45800	23612
1.45867	23608
1.45933	23605
1.46000	23601
1.46067	23597
1.46133	23594
1.46200	23590
1.46267	23586
1.46333	23582
1.46400	23578
1.46467	23574
1.46533	23570
1.46600	23566
1.46667	23562
1.46733	23558
1.46800	23553
1.46867	23549
1.46933	23544
1.47000	23540
1.47067	23535
1.47133	23530
1.47200	23525
1.47267	23520
1.47333	23515
1.47400	23510
1.47467	23505
1.47533	23499
1.47600	23494
1.47667	23488
1.47733	23483
1.47800	23477
1.47867	23472
1.47933	23466
1.48000	23461
1.48067	23455
1.48133	23449
1.48200	23444
1.48267	23438
1.48333	23432
1.48400	23427
1.48467	23421
1.48533	23415
1.48600	23410
1.48667	23405
1.48733	23399
1.48800	23394
1.48867	23388
1.48933	23383
1.49000	23377
1.49067	23372
1.49133	23366
1.49200	23361
1.49267	23356
1.49333	23350
1.49400	23345
1.49467	23339
1.49533	23334
1.49600	23329
1.49667	23323
1.49733	23318
1.49800	23313
1.49867	23308
1.49933	23302
1.50000	23297
1.50067	23292
1.50133	23287
1.50200	23282
1.50267	23277
1.50333	23272
1.50400	23267
1.50467	23262
1.50533	23257
1.50600	23252
1.50667	23247
1.50733	23242
1.50800	23237
1.50867	23233
1.50933	23228
1.51000	23224
1.51067	23219
1.51133	23215
1.51200	23211
1.51267	23206
1.51333	23202
1.51400	23198
1.51467	23193
1.51533	23189
1.51600	23185
1.51667	23180
1.51733	23176
1.51800	23172
1.51867	23167
1.51933	23163
1.52000	23159
1.52067	23154
1.52133	23150
1.52200	23146
1.52267	23141
1.52333	23137
1.52400	23133
1.52467	23128
1.52533	23124
1.52600	23119
1.52667	23115
1.52733	23111
1.52800	23106
1.52867	23102
1.52933	23097
1.53000	23093
1.53067	23088
1.53133	23084
1.53200	23079
1.53267	23075
1.53333	23070
1.53400	23066
1.53467	23061
1.53533	23057
1.53600	23052
1.53667	23048
1.53733	23043
1.53800	23039
1.53867	23034
1.53933	23030
1.54000	23025
1.54067	23021
1.54133	23016
1.54200	23011
1.54267	23007
1.54333	23002
1.54400	22998
1.54467	22994
1.54533	22989
1.54600	22985
1.54667	22980
1.54733	22976
1.54800	22972
1.54867	22967
1.54933	22963
1.55000	22959
1.55067	22955
1.55133	22950
1.55200	22946
1.55267	22942
1.55333	22938
1.55400	22934
1.55467	22930
1.55533	22926
1.55600	22922
1.55667	22918
1.55733	22914
1.55800	22910
1.55867	22907
1.55933	22903
1.56000	22899
1.56067	22895
1.56133	22891
1.56200	22887
1.56267	22883
1.56333	22880
1.56400	22876
1.56467	22872
1.56533	22868
1.56600	22865
1.56667	22861
1.56733	22857
1.56800	22853
1.56867	22850
1.56933	22846
1.57000	22842
1.57067	22839
1.57133	22835
1.57200	22831
1.57267	22828
1.57333	22824
1.57400	22820
1.57467	22816
1.57533	22813
1.57600	22809
1.57667	22805
1.57733	22801
1.57800	22798
1.57867	22794
1.57933	22790
1.58000	22786
1.58067	22783
1.58133	22779
1.58200	22775
1.58267	22771
1.58333	22767
1.58400	22763
1.58467	22760
1.58533	22756
1.58600	22752
1.58667	22748
1.58733	22744
1.58800	22741
1.58867	22737
1.58933	22733
1.59000	22729
1.59067	22726
1.59133	22722
1.59200	22718
1.59267	22715
1.59333	22711
1.59400	22708
1.59467	22704
1.59533	22701
1.59600	22697
1.59667	22694
1.59733	22691
1.59800	22688
1.59867	22684
1.59933	22681
1.60000	22678
1.60067	22675
1.60133	22672
1.60200	22669
1.60267	22665
1.60333	22662
1.60400	22659
1.60467	22656
1.60533	22653
1.60600	22650
1.60667	22647
1.60733	22644
1.60800	22641
1.60867	22638
1.60933	22635
1.61000	22632
1.61067	22629
1.61133	22625
1.61200	22622
1.61267	22619
1.61333	22615
1.61400	22612
1.61467	22609
1.61533	22606
1.61600	22602
1.61667	22599
1.61733	22596
1.61800	22593
1.61867	22590
1.61933	22586
1.62000	22583
1.62067	22580
1.62133	22577
1.62200	22574
1.62267	22571
1.62333	22568
1.62400	22565
1.62467	22562
1.62533	22559
1.62600	22556
1.62667	22553
1.62733	22550
1.62800	22547
1.62867	22545
1.62933	22542
1.63000	22539
1.63067	22537
1.63133	22534
1.63200	22532
1.63267	22529
1.63333	22527
1.63400	22525
1.63467	22522
1.63533	22520
1.63600	22518
1.63667	22516
1.63733	22513
1.63800	22511
1.63867	22509
1.63933	22507
1.64000	22505
1.64067	22503
1.64133	22501
1.64200	22499
1.64267	22498
1.64333	22496
1.64400	22494
1.64467	22492
1.64533	22490
1.64600	22489
1.64667	22487
1.64733	22485
1.64800	22484
1.64867	22482
1.64933	22481
1.65000	22479
1.65067	22478
1.65133	22476
1.65200	22474
1.65267	22473
1.65333	22472
1.65400	22470
1.65467	22469
1.65533	22467
1.65600	22466
1.65667	22464
1.65733	22463
1.65800	22462
1.65867	22461
1.65933	22460
1.66000	22458
1.66067	22457
1.66133	22456
1.66200	22455
1.66267	22454
1.66333	22452
1.66400	22451
1.66467	22449
1.66533	22448
1.66600	22446
1.66667	22444
1.66733	22443
1.66800	22441
1.66867	22439
1.66933	22437
1.67000	22435
1.67067	22433
1.67133	22431
1.67200	22429
1.67267	22426
1.67333	22424
1.67400	22421
1.67467	22419
1.67533	22416
1.67600	22413
1.67667	22410
1.67733	22407
1.67800	22404
1.67867	22401
1.67933	22398
1.68000	22394
1.68067	22391
1.68133	22388
1.68200	22384
1.68267	22381
1.68333	22377
1.68400	22373
1.68467	22369
1.68533	22366
1.68600	22362
1.68667	22357
1.68733	22353
1.68800	22349
1.68867	22345
1.68933	22340
1.69000	22336
1.69067	22332
1.69133	22327
1.69200	22323
1.69267	22318
1.69333	22314
1.69400	22309
1.69467	22304
1.69533	22300
1.69600	22295
1.69667	22290
1.69733	22286
1.69800	22281
1.69867	22276
1.69933	22271
1.70000	22266
1.70067	22262
1.70133	22257
1.70200	22252
1.70267	22247
1.70333	22242
1.70400	22238
1.70467	22233
1.70533	22228
1.70600	22224
1.70667	22219
1.70733	22215
1.70800	22210
1.70867	22206
1.70933	22201
1.71000	22197
1.71067	22193
1.71133	22189
1.71200	22185
1.71267	22181
1.71333	22177
1.71400	22173
1.71467	22169
1.71533	22166
1.71600	22163
1.71667	22160
1.71733	22158
1.71800	22156
1.71867	22155
1.71933	22155
1.72000	22156
1.72067	22158
1.72133	22162
1.72200	22169
1.72267	22177
1.72333	22189
1.72400	22205
1.72467	22225
1.72533	22251
1.72600	22283
1.72667	22323
1.72733	22373
1.72800	22433
1.72867	22507
1.72933	22596
1.73000	22704
1.73067	22833
1.73133	22988
1.73200	23171
1.73267	23389
1.73333	23645
1.73400	23946
1.73467	24297
1.73533	24706
1.73600	25180
1.73667	25728
1.73733	26359
1.73800	27082
1.73867	27910
1.73933	28853
1.74000	29924
1.74067	31134
1.74133	32498
1.74200	34027
1.74267	35738
1.74333	37643
1.74400	39760
1.74467	42108
1.74533	44704
1.74600	47567
1.74667	50718
1.74733	54175
1.74800	57960
1.74867	62091
1.74933	66587
1.75000	71470
1.75067	76758
1.75133	82473
1.75200	88636
1.75267	95266
1.75333	102381
1.75400	110001
1.75467	118143
1.75533	126828
1.75600	136073
1.75667	145893
1.75733	156304
1.75800	167322
1.75867	178959
1.75933	191227
1.76000	204132
1.76067	217682
1.76133	231881
1.76200	246736
1.76267	262247
1.76333	278409
1.76400	295212
1.76467	312642
1.76533	330679
1.76600	349297
1.76667	368460
1.76733	388128
1.76800	408263
1.76867	428820
1.76933	449751
1.77000	470998
1.77067	492502
1.77133	514199
1.77200	536022
1.77267	557899
1.77333	579754
1.77400	601514
1.77467	623100
1.77533	644432
1.77600	665419
1.77667	685972
1.77733	705992
1.77800	725383
1.77867	744048
1.77933	761898
1.78000	778849
1.78067	794824
1.78133	809760
1.78200	823601
1.78267	836305
1.78333	847836
1.78400	858167
1.78467	867281
1.78533	875175
1.78600	881855
1.78667	887335
1.78733	891636
1.78800	894786
1.78867	896821
1.78933	897780
1.79000	897705
1.79067	896643
1.79133	894641
1.79200	891750
1.79267	888020
1.79333	883503
1.79400	878249
1.79467	872307
1.79533	865726
1.79600	858552
1.79667	850832
1.79733	842610
1.79800	833928
1.79867	824827
1.79933	815346
1.80000	805522
1.80067	795390
1.80133	784984
1.80200	774336
1.80267	763475
1.80333	752429
1.80400	741227
1.80467	729892
1.80533	718450
1.80600	706922
1.80667	695329
1.80733	683691
1.80800	672026
1.80867	660350
1.80933	648680
1.81000	637029
1.81067	625413
1.81133	613844
1.81200	602333
1.81267	590891
1.81333	579529
1.81400	568256
1.81467	557081
1.81533	546010
1.81600	535052
1.81667	524212
1.81733	513496
1.81800	502909
1.81867	492457
1.81933	482143
1.82000	471970
1.82067	461943
1.82133	452064
1.82200	442336
1.82267	432760
1.82333	423339
1.82400	414074
1.82467	404966
1.82533	396016
1.82600	387225
1.82667	378593
1.82733	370120
1.82800	361806
1.82867	353650
1.82933	345651
1.83000	337810
1.83067	330125
1.83133	322595
1.83200	315218
1.83267	307995
1.83333	300923
1.83400	294000
1.83467	287226
1.83533	280599
1.83600	274117
1.83667	267778
1.83733	261580
1.83800	255521
1.83867	249600
1.83933	243814
1.84000	238160
1.84067	232638
1.84133	227245
1.84200	221979
1.84267	216838
1.84333	211819
1.84400	206921
1.84467	202141
1.84533	197477
1.84600	192927
1.84667	188489
1.84733	184160
1.84800	179939
1.84867	175823
1.84933	171810
1.85000	167897
1.85067	164084
1.85133	160367
1.85200	156744
1.85267	153214
1.85333	149774
1.85400	146423
1.85467	143158
1.85533	139977
1.85600	136878
1.85667	133860
1.85733	130921
1.85800	128059
1.85867	125272
1.85933	122558
1.86000	119915
1.86067	117342
1.86133	114838
1.86200	112399
1.86267	110025
1.86333	107714
1.86400	105465
1.86467	103275
1.86533	101143
1.86600	99069
1.86667	97050
1.86733	95085
1.86800	93172
1.86867	91312
1.86933	89501
1.87000	87739
1.87067	86025
1.87133	84358
1.87200	82736
1.87267	81158
1.87333	79623
1.87400	78131
1.87467	76679
1.87533	75268
1.87600	73896
1.87667	72561
1.87733	71264
1.87800	70002
1.87867	68776
1.87933	67584
1.88000	66426
1.88067	65300
1.88133	64206
1.88200	63142
1.88267	62109
1.88333	61105
1.88400	60129
1.88467	59181
1.88533	58261
1.88600	57367
1.88667	56498
1.88733	55655
1.88800	54836
1.88867	54041
1.88933	53269
1.89000	52519
1.89067	51791
1.89133	51084
1.89200	50398
1.89267	49732
1.89333	49085
1.89400	48457
1.89467	47847
1.89533	47255
1.89600	46680
1.89667	46121
1.89733	45579
1.89800	45053
1.89867	44542
1.89933	44045
1.90000	43563
1.90067	43095
1.90133	42640
1.90200	42199
1.90267	41770
1.90333	41354
1.90400	40949
1.90467	40556
1.90533	40174
1.90600	39803
1.90667	39443
1.90733	39092
1.90800	38752
1.90867	38421
1.90933	38099
1.91000	37785
1.91067	37481
1.91133	37185
1.91200	36897
1.91267	36617
1.91333	36345
1.91400	36080
1.91467	35822
1.91533	35572
1.91600	35328
1.91667	35090
1.91733	34859
1.91800	34634
1.91867	34415
1.91933	34202
1.92000	33995
1.92067	33793
1.92133	33596
1.92200	33404
1.92267	33217
1.92333	33035
1.92400	32858
1.92467	32685
1.92533	32516
1.92600	32351
1.92667	32190
1.92733	32033
1.92800	31880
1.92867	31730
1.92933	31584
1.93000	31441
1.93067	31301
1.93133	31165
1.93200	31032
1.93267	30901
1.93333	30774
1.93400	30650
1.93467	30529
1.93533	30410
1.93600	30294
1.93667	30181
1.93733	30070
1.93800	29962
1.93867	29856
1.93933	29753
1.94000	29652
1.94067	29553
1.94133	29456
1.94200	29361
1.94267	29269
1.94333	29179
1.94400	29091
1.94467	29004
1.94533	28920
1.94600	28838
1.94667	28758
1.94733	28679
1.94800	28602
1.94867	28526
1.94933	28453
1.95000	28380
1.95067	28309
1.95133	28240
1.95200	28172
1.95267	28105
1.95333	28040
1.95400	27975
1.95467	27912
1.95533	27850
1.95600	27790
1.95667	27730
1.95733	27671
1.95800	27614
1.95867	27557
1.95933	27502
1.96000	27447
1.96067	27393
1.96133	27341
1.96200	27289
1.96267	27237
1.96333	27187
1.96400	27138
1.96467	27089
1.96533	27040
1.96600	26993
1.96667	26946
1.96733	26900
1.96800	26854
1.96867	26809
1.96933	26764
1.97000	26721
1.97067	26678
1.97133	26635
1.97200	26593
1.97267	26552
1.97333	26511
1.97400	26471
1.97467	26432
1.97533	26393
1.97600	26354
1.97667	26316
1.97733	26279
1.97800	26242
1.97867	26206
1.97933	26170
1.98000	26134
1.98067	26099
1.98133	26065
1.98200	26030
1.98267	25997
1.98333	25963
1.98400	25930
1.98467	25898
1.98533	25865
1.98600	25834
1.98667	25802
1.98733	25771
1.98800	25740
1.98867	25709
1.98933	25679
1.99000	25649
1.99067	25619
1.99133	25589
1.99200	25560
1.99267	25531
1.99333	25502
1.99400	25473
1.99467	25445
1.99533	25417
1.99600	25389
1.99667	25362
1.99733	25335
1.99800	25308
1.99867	25282
1.99933	25256
2.00000	25230
2.00067	25204
2.00133	25179
2.00200	25154
2.00267	25129
2.00333	25105
2.00400	25080
2.00467	25056
2.00533	25032
2.00600	25008
2.00667	24984
2.00733	24961
2.00800	24937
2.00867	24914
2.00933	24891
2.01000	24868
2.01067	24845
2.01133	24823
2.01200	24800
2.01267	24778
2.01333	24756
2.01400	24734
2.01467	24713
2.01533	24691
2.01600	24670
2.01667	24649
2.01733	24627
2.01800	24606
2.01867	24585
2.01933	24564
2.02000	24542
2.02067	24521
2.02133	24501
2.02200	24480
2.02267	24459
2.02333	24438
2.02400	24418
2.02467	24397
2.02533	24377
2.02600	24357
2.02667	24337
2.02733	24317
2.02800	24297
2.02867	24277
2.02933	24258
2.03000	24238
2.03067	24219
2.03133	24200
2.03200	24181
2.03267	24162
2.03333	24143
2.03400	24124
2.03467	24105
2.03533	24087
2.03600	24069
2.03667	24051
2.03733	24033
2.03800	24015
2.03867	23997
2.03933	23980
2.04000	23962
2.04067	23945
2.04133	23927
2.04200	23910
2.04267	23893
2.04333	23876
2.04400	23859
2.04467	23842
2.04533	23826
2.04600	23810
2.04667	23794
2.04733	23778
2.04800	23762
2.04867	23747
2.04933	23732
2.05000	23716
2.05067	23701
2.05133	23686
2.05200	23671
2.05267	23656
2.05333	23641
2.05400	23626
2.05467	23611
2.05533	23597
2.05600	23582
2.05667	23567
2.05733	23552
2.05800	23538
2.05867	23523
2.05933	23509
2.06000	23494
2.06067	23480
2.06133	23466
2.06200	23452
2.06267	23438
2.06333	23423
2.06400	23410
2.06467	23396
2.06533	23382
2.06600	23368
2.06667	23354
2.06733	23341
2.06800	23327
2.06867	23314
2.06933	23300
2.07000	23287
2.07067	23274
2.07133	23261
2.07200	23247
2.07267	23234
2.07333	23221
2.07400	23208
2.07467	23196
2.07533	23183
2.07600	23170
2.07667	23157
2.07733	23144
2.07800	23132
2.07867	23119
2.07933	23106
2.08000	23093
2.08067	23081
2.08133	23068
2.08200	23055
2.08267	23043
2.08333	23030
2.08400	23018
2.08467	23006
2.08533	22993
2.08600	22981
2.08667	22969
2.08733	22957
2.08800	22944
2.08867	22932
2.08933	22920
2.09000	22908
2.09067	22896
2.09133	22884
2.09200	22871
2.09267	22859
2.09333	22847
2.09400	22835
2.09467	22823
2.09533	22811
2.09600	22799
2.09667	22788
2.09733	22776
2.09800	22764
2.09867	22753
2.09933	22741
2.10000	22730
2.10067	22718
2.10133	22707
2.10200	22695
2.10267	22684
2.10333	22673
2.10400	22661
2.10467	22650
2.10533	22639
2.10600	22628
2.10667	22617
2.10733	22606
2.10800	22595
2.10867	22584
2.10933	22573
2.11000	22562
2.11067	22552
2.11133	22541
2.11200	22531
2.11267	22520
2.11333	22509
2.11400	22499
2.11467	22488
2.11533	22478
2.11600	22467
2.11667	22456
2.11733	22446
2.11800	22435
2.11867	22425
2.11933	22414
2.12000	22404
2.12067	22394
2.12133	22383
2.12200	22373
2.12267	22362
2.12333	22352
2.12400	22342
2.12467	22331
2.12533	22321
2.12600	22311
2.12667	22301
2.12733	22290
2.12800	22280
2.12867	22270
2.12933	22260
2.13000	22250
2.13067	22240
2.13133	22230
2.13200	22221
2.13267	22211
2.13333	22201
2.13400	22191
2.13467	22182
2.13533	22172
2.13600	22162
2.13667	22152
2.13733	22143
2.13800	22133
2.13867	22123
2.13933	22113
2.14000	22104
2.14067	22094
2.14133	22084
2.14200	22074
2.14267	22065
2.14333	22055
2.14400	22045
2.14467	22036
2.14533	22026
2.14600	22016
2.14667	22007
2.14733	21997
2.14800	21988
2.14867	21978
2.14933	21969
2.15000	21959
2.15067	21950
2.15133	21940
2.15200	21931
2.15267	21921
2.15333	21912
2.15400	21903
2.15467	21894
2.15533	21885
2.15600	21876
2.15667	21867
2.15733	21858
2.15800	21849
2.15867	21840
2.15933	21831
2.16000	21822
2.16067	21813
2.16133	21804
2.16200	21795
2.16267	21786
2.16333	21777
2.16400	21768
2.16467	21759
2.16533	21750
2.16600	21741
2.16667	21732
2.16733	21723
2.16800	21714
2.16867	21705
2.16933	21696
2.17000	21687
2.17067	21678
2.17133	21669
2.17200	21660
2.17267	21651
2.17333	21642
2.17400	21633
2.17467	21624
2.17533	21616
2.17600	21607
2.17667	21598
2.17733	21590
2.17800	21581
2.17867	21573
2.17933	21564
2.18000	21556
2.18067	21547
2.18133	21539
2.18200	21530
2.18267	21522
2.18333	21514
2.18400	21505
2.18467	21497
2.18533	21489
2.18600	21481
2.18667	21473
2.18733	21465
2.18800	21457
2.18867	21449
2.18933	21441
2.19000	21433
2.19067	21426
2.19133	21418
2.19200	21410
2.19267	21403
2.19333	21395
2.19400	21388
2.19467	21380
2.19533	21373
2.19600	21366
2.19667	21359
2.19733	21351
2.19800	21344
2.19867	21338
2.19933	21331
2.20000	21324
2.20067	21317
2.20133	21311
2.20200	21304
2.20267	21298
2.20333	21292
2.20400	21286
2.20467	21280
2.20533	21274
2.20600	21268
2.20667	21262
2.20733	21257
2.20800	21252
2.20867	21246
2.20933	21241
2.21000	21236
2.21067	21231
2.21133	21226
2.21200	21221
2.21267	21217
2.21333	21212
2.21400	21207
2.21467	21203
2.21533	21199
2.21600	21194
2.21667	21190
2.21733	21186
2.21800	21182
2.21867	21178
2.21933	21175
2.22000	21171
2.22067	21167
2.22133	21163
2.22200	21160
2.22267	21156
2.22333	21152
2.22400	21149
2.22467	21145
2.22533	21142
2.22600	21138
2.22667	21135
2.22733	21132
2.22800	21128
2.22867	21125
2.22933	21122
2.23000	21118
2.23067	21115
2.23133	21111
2.23200	21108
2.23267	21104
2.23333	21100
2.23400	21096
2.23467	21092
2.23533	21088
2.23600	21083
2.23667	21079
2.23733	21074
2.23800	21069
2.23867	21064
2.23933	21059
2.24000	21054
2.24067	21049
2.24133	21043
2.24200	21038
2.24267	21032
2.24333	21026
2.24400	21020
2.24467	21014
2.24533	21008
2.24600	21002
2.24667	20996
2.24733	20990
2.24800	20984
2.24867	20977
2.24933	20971
2.25000	20965
2.25067	20959
2.25133	20952
2.25200	20946
2.25267	20940
2.25333	20933
2.25400	20927
2.25467	20920
2.25533	20914
2.25600	20907
2.25667	20901
2.25733	20894
2.25800	20887
2.25867	20881
2.25933	20874
2.26000	20867
2.26067	20860
2.26133	20853
2.26200	20846
2.26267	20839
2.26333	20832
2.26400	20825
2.26467	20817
2.26533	20810
2.26600	20803
2.26667	20796
2.26733	20789
2.26800	20781
2.26867	20774
2.26933	20767
2.27000	20759
2.27067	20752
2.27133	20745
2.27200	20737
2.27267	20730
2.27333	20723
2.27400	20716
2.27467	20708
2.27533	20701
2.27600	20693
2.27667	20686
2.27733	20679
2.27800	20672
2.27867	20664
2.27933	20657
2.28000	20650
2.28067	20643
2.28133	20636
2.28200	20628
2.28267	20621
2.28333	20614
2.28400	20607
2.28467	20600
2.28533	20592
2.28600	20585
2.28667	20578
2.28733	20571
2.28800	20564
2.28867	20557
2.28933	20550
2.29000	20543
2.29067	20535
2.29133	20528
2.29200	20522
2.29267	20515
2.29333	20508
2.29400	20501
2.29467	20494
2.29533	20487
2.29600	20480
2.29667	20473
2.29733	20466
2.29800	20459
2.29867	20452
2.29933	20445
2.30000	20439
2.30067	20432
2.30133	20425
2.30200	20419
2.30267	20412
2.30333	20406
2.30400	20399
2.30467	20393
2.30533	20386
2.30600	20380
2.30667	20374
2.30733	20367
2.30800	20361
2.30867	20355
2.30933	20349
2.31000	20343
2.31067	20337
2.31133	20331
2.31200	20325
2.31267	20319
2.31333	20313
2.31400	20308
2.31467	20302
2.31533	20296
2.31600	20291
2.31667	20285
2.31733	20280
2.31800	20274
2.31867	20269
2.31933	20263
2.32000	20258
2.32067	20253
2.32133	20248
2.32200	20242
2.32267	20237
2.32333	20232
2.32400	20227
2.32467	20222
2.32533	20218
2.32600	20213
2.32667	20208
2.32733	20203
2.32800	20199
2.32867	20194
2.32933	20190
2.33000	20185
2.33067	20181
2.33133	20177
2.33200	20173
2.33267	20169
2.33333	20165
2.33400	20161
2.33467	20157
2.33533	20153
2.33600	20149
2.33667	20145
2.33733	20141
2.33800	20137
2.33867	20133
2.33933	20130
2.34000	20126
2.34067	20122
2.34133	20118
2.34200	20115
2.34267	20111
2.34333	20108
2.34400	20104
2.34467	20101
2.34533	20097
2.34600	20093
2.34667	20090
2.34733	20086
2.34800	20083
2.34867	20080
2.34933	20076
2.35000	20073
2.35067	20070
2.35133	20066
2.35200	20063
2.35267	20060
2.35333	20057
2.35400	20054
2.35467	20051
2.35533	20047
2.35600	20044
2.35667	20041
2.35733	20038
2.35800	20035
2.35867	20032
2.35933	20028
2.36000	20025
2.36067	20022
2.36133	20019
2.36200	20015
2.36267	20012
2.36333	20009
2.36400	20005
2.36467	20002
2.36533	19999
2.36600	19995
2.36667	19991
2.36733	19988
2.36800	19984
2.36867	19980
2.36933	19977
2.37000	19973
2.37067	19969
2.37133	19965
2.37200	19961
2.37267	19957
2.37333	19953
2.37400	19949
2.37467	19945
2.37533	19941
2.37600	19937
2.37667	19932
2.37733	19928
2.37800	19924
2.37867	19919
2.37933	19915
2.38000	19911
2.38067	19906
2.38133	19902
2.38200	19898
2.38267	19893
2.38333	19889
2.38400	19885
2.38467	19881
2.38533	19876
2.38600	19872
2.38667	19867
2.38733	19863
2.38800	19858
2.38867	19854
2.38933	19849
2.39000	19845
2.39067	19840
2.39133	19835
2.39200	19831
2.39267	19826
2.39333	19821
2.39400	19816
2.39467	19812
2.39533	19807
2.39600	19802
2.39667	19798
2.39733	19793
2.39800	19788
2.39867	19783
2.39933	19779
2.40000	19774
2.40067	19770
2.40133	19765
2.40200	19761
2.40267	19757
2.40333	19752
2.40400	19748
2.40467	19744
2.40533	19740
2.40600	19736
2.40667	19732
2.40733	19728
2.40800	19724
2.40867	19720
2.40933	19716
2.41000	19712
2.41067	19708
2.41133	19704
2.41200	19700
2.41267	19696
2.41333	19692
2.41400	19689
2.41467	19685
2.41533	19681
2.41600	19677
2.41667	19674
2.41733	19670
2.41800	19666
2.41867	19663
2.41933	19659
2.42000	19655
2.42067	19652
2.42133	19648
2.42200	19644
2.42267	19640
2.42333	19636
2.42400	19633
2.42467	19629
2.42533	19625
2.42600	19621
2.42667	19617
2.42733	19613
2.42800	19608
2.42867	19604
2.42933	19600
2.43000	19596
2.43067	19591
2.43133	19587
2.43200	19582
2.43267	19578
2.43333	19573
2.43400	19568
2.43467	19563
2.43533	19558
2.43600	19553
2.43667	19548
2.43733	19543
2.43800	19538
2.43867	19532
2.43933	19527
2.44000	19522
2.44067	19516
2.44133	19511
2.44200	19505
2.44267	19499
2.44333	19493
2.44400	19487
2.44467	19481
2.44533	19474
2.44600	19468
2.44667	19462
2.44733	19455
2.44800	19449
2.44867	19442
2.44933	19435
2.45000	19429
2.45067	19422
2.45133	19415
2.45200	19408
2.45267	19401
2.45333	19394
2.45400	19386
2.45467	19379
2.45533	19372
2.45600	19365
2.45667	19357
2.45733	19350
2.45800	19343
2.45867	19336
2.45933	19329
2.46000	19321
2.46067	19314
2.46133	19307
2.46200	19300
2.46267	19293
2.46333	19285
2.46400	19278
2.46467	19271
2.46533	19264
2.46600	19257
2.46667	19249
2.46733	19242
2.46800	19235
2.46867	19228
2.46933	19221
2.47000	19214
2.47067	19206
2.47133	19199
2.47200	19192
2.47267	19185
2.47333	19178
2.47400	19171
2.47467	19163
2.47533	19156
2.47600	19149
2.47667	19142
2.47733	19135
2.47800	19128
2.47867	19121
2.47933	19114
2.48000	19107
2.48067	19100
2.48133	19094
2.48200	19087
2.48267	19080
2.48333	19073
2.48400	19067
2.48467	19060
2.48533	19053
2.48600	19046
2.48667	19040
2.48733	19033
2.48800	19026
2.48867	19020
2.48933	19013
2.49000	19006
2.49067	19000
2.49133	18993
2.49200	18986
2.49267	18979
2.49333	18973
2.49400	18966
2.49467	18959
2.49533	18953
2.49600	18946
2.49667	18940
2.49733	18933
2.49800	18926
2.49867	18920
2.49933	18914
2.50000	18907
2.50067	18901
2.50133	18894
2.50200	18888
2.50267	18882
2.50333	18876
2.50400	18870
2.50467	18864
2.50533	18858
2.50600	18852
2.50667	18846
2.50733	18840
2.50800	18834
2.50867	18828
2.50933	18822
2.51000	18816
2.51067	18811
2.51133	18805
2.51200	18799
2.51267	18793
2.51333	18788
2.51400	18782
2.51467	18776
2.51533	18770
2.51600	18765
2.51667	18759
2.51733	18753
2.51800	18748
2.51867	18742
2.51933	18737
2.52000	18731
2.52067	18726
2.52133	18720
2.52200	18714
2.52267	18709
2.52333	18704
2.52400	18698
2.52467	18693
2.52533	18687
2.52600	18682
2.52667	18677
2.52733	18671
2.52800	18666
2.52867	18661
2.52933	18655
2.53000	18650
2.53067	18645
2.53133	18639
2.53200	18634
2.53267	18629
2.53333	18623
2.53400	18618
2.53467	18612
2.53533	18607
2.53600	18601
2.53667	18596
2.53733	18590
2.53800	18585
2.53867	18579
2.53933	18574
2.54000	18569
2.54067	18563
2.54133	18558
2.54200	18552
2.54267	18547
2.54333	18541
2.54400	18536
2.54467	18530
2.54533	18524
2.54600	18519
2.54667	18513
2.54733	18508
2.54800	18502
2.54867	18496
2.54933	18491
2.55000	18485
2.55067	18480
2.55133	18474
2.55200	18468
2.55267	18463
2.55333	18457
2.55400	18452
2.55467	18446
2.55533	18441
2.55600	18435
2.55667	18430
2.55733	18424
2.55800	18419
2.55867	18414
2.55933	18408
2.56000	18403
2.56067	18397
2.56133	18392
2.56200	18386
2.56267	18381
2.56333	18375
2.56400	18370
2.56467	18364
2.56533	18358
2.56600	18353
2.56667	18347
2.56733	18341
2.56800	18335
2.56867	18330
2.56933	18324
2.57000	18318
2.57067	18313
2.57133	18307
2.57200	18302
2.57267	18296
2.57333	18291
2.57400	18285
2.57467	18280
2.57533	18274
2.57600	18269
2.57667	18263
2.57733	18258
2.57800	18253
2.57867	18247
2.57933	18242
2.58000	18237
2.58067	18231
2.58133	18226
2.58200	18221
2.58267	18216
2.58333	18211
2.58400	18205
2.58467	18200
2.58533	18195
2.58600	18190
2.58667	18185
2.58733	18180
2.58800	18175
2.58867	18169
2.58933	18164
2.59000	18159
2.59067	18154
2.59133	18149
2.59200	18143
2.59267	18138
2.59333	18133
2.59400	18128
2.59467	18122
2.59533	18117
2.59600	18112
2.59667	18107
2.59733	18102
2.59800	18097
2.59867	18092
2.59933	18086
2.60000	18081
2.60067	18076
2.60133	18071
2.60200	18066
2.60267	18061
2.60333	18056
2.60400	18051
2.60467	18046
2.60533	18041
2.60600	18036
2.60667	18031
2.60733	18026
2.60800	18021
2.60867	18016
2.60933	18011
2.61000	18006
2.61067	18001
2.61133	17995
2.61200	17990
2.61267	17985
2.61333	17980
2.61400	17975
2.61467	17969
2.61533	17964
2.61600	17959
2.61667	17954
2.61733	17949
2.61800	17944
2.61867	17938
2.61933	17933
2.62000	17928
2.62067	17923
2.62133	17918
2.62200	17913
2.62267	17908
2.62333	17903
2.62400	17898
2.62467	17893
2.62533	17888
2.62600	17883
2.62667	17878
2.62733	17873
2.62800	17868
2.62867	17863
2.62933	17858
2.63000	17853
2.63067	17848
2.63133	17843
2.63200	17838
2.63267	17833
2.63333	17828
2.63400	17823
2.63467	17818
2.63533	17813
2.63600	17808
2.63667	17803
2.63733	17798
2.63800	17793
2.63867	17788
2.63933	17783
2.64000	17777
2.64067	17772
2.64133	17767
2.64200	17762
2.64267	17757
2.64333	17752
2.64400	17747
2.64467	17741
2.64533	17736
2.64600	17731
2.64667	17726
2.64733	17720
2.64800	17715
2.64867	17710
2.64933	17705
2.65000	17699
2.65067	17694
2.65133	17689
2.65200	17683
2.65267	17678
2.65333	17673
2.65400	17668
2.65467	17662
2.65533	17657
2.65600	17652
2.65667	17647
2.65733	17641
2.65800	17636
2.65867	17631
2.65933	17626
2.66000	17621
2.66067	17616
2.66133	17610
2.66200	17605
2.66267	17600
2.66333	17595
2.66400	17590
2.66467	17585
2.66533	17580
2.66600	17575
2.66667	17570
2.66733	17565
2.66800	17560
2.66867	17555
2.66933	17550
2.67000	17545
2.67067	17540
2.67133	17535
2.67200	17530
2.67267	17525
2.67333	17520
2.67400	17515
2.67467	17510
2.67533	17505
2.67600	17500
2.67667	17495
2.67733	17490
2.67800	17485
2.67867	17481
2.67933	17476
2.68000	17471
2.68067	17466
2.68133	17461
2.68200	17456
2.68267	17451
2.68333	17446
2.68400	17441
2.68467	17436
2.68533	17431
2.68600	17426
2.68667	17421
2.68733	17416
2.68800	17411
2.68867	17407
2.68933	17402
2.69000	17397
2.69067	17392
2.69133	17388
2.69200	17383
2.69267	17378
2.69333	17374
2.69400	17369
2.69467	17365
2.69533	17361
2.69600	17356
2.69667	17352
2.69733	17347
2.69800	17343
2.69867	17339
2.69933	17334
2.70000	17330
2.70067	17325
2.70133	17321
2.70200	17316
2.70267	17312
2.70333	17308
2.70400	17303
2.70467	17299
2.70533	17294
2.70600	17290
2.70667	17286
2.70733	17281
2.70800	17277
2.70867	17272
2.70933	17268
2.71000	17264
2.71067	17259
2.71133	17255
2.71200	17251
2.71267	17247
2.71333	17243
2.71400	17239
2.71467	17235
2.71533	17231
2.71600	17227
2.71667	17223
2.71733	17219
2.71800	17215
2.71867	17211
2.71933	17207
2.72000	17203
2.72067	17199
2.72133	17195
2.72200	17191
2.72267	17187
2.72333	17184
2.72400	17180
2.72467	17176
2.72533	17172
2.72600	17168
2.72667	17164
2.72733	17160
2.72800	17156
2.72867	17152
2.72933	17148
2.73000	17144
2.73067	17140
2.73133	17136
2.73200	17133
2.73267	17129
2.73333	17125
2.73400	17121
2.73467	17117
2.73533	17113
2.73600	17109
2.73667	17105
2.73733	17101
2.73800	17098
2.73867	17094
2.73933	17090
2.74000	17086
2.74067	17083
2.74133	17079
2.74200	17075
2.74267	17072
2.74333	17068
2.74400	17064
2.74467	17061
2.74533	17057
2.74600	17054
2.74667	17050
2.74733	17047
2.74800	17043
2.74867	17040
2.74933	17036
2.75000	17033
2.75067	17029
2.75133	17026
2.75200	17022
2.75267	17019
2.75333	17015
2.75400	17012
2.75467	17009
2.75533	17005
2.75600	17002
2.75667	16999
2.75733	16996
2.75800	16993
2.75867	16990
2.75933	16987
2.76000	16984
2.76067	16981
2.76133	16978
2.76200	16976
2.76267	16973
2.76333	16970
2.76400	16968
2.76467	16965
2.76533	16962
2.76600	16960
2.76667	16958
2.76733	16955
2.76800	16953
2.76867	16951
2.76933	16949
2.77000	16947
2.77067	16945
2.77133	16943
2.77200	16941
2.77267	16939
2.77333	16938
2.77400	16936
2.77467	16935
2.77533	16933
2.77600	16932
2.77667	16931
2.77733	16930
2.77800	16929
2.77867	16929
2.77933	16928
2.78000	16927
2.78067	16927
2.78133	16927
2.78200	16927
2.78267	16927
2.78333	16927
2.78400	16927
2.78467	16928
2.78533	16929
2.78600	16929
2.78667	16930
2.78733	16932
2.78800	16933
2.78867	16934
2.78933	16936
2.79000	16938
2.79067	16940
2.79133	16942
2.79200	16944
2.79267	16947
2.79333	16949
2.79400	16952
2.79467	16956
2.79533	16959
2.79600	16963
2.79667	16966
2.79733	16970
2.79800	16974
2.79867	16979
2.79933	16983
2.80000	16988
2.80067	16993
2.80133	16998
2.80200	17003
2.80267	17009
2.80333	17014
2.80400	17020
2.80467	17026
2.80533	17032
2.80600	17038
2.80667	17044
2.80733	17050
2.80800	17057
2.80867	17063
2.80933	17070
2.81000	17077
2.81067	17083
2.81133	17090
2.81200	17096
2.81267	17103
2.81333	17110
2.81400	17116
2.81467	17123
2.81533	17130
2.81600	17136
2.81667	17143
2.81733	17149
2.81800	17156
2.81867	17162
2.81933	17168
2.82000	17174
2.82067	17180
2.82133	17185
2.82200	17191
2.82267	17196
2.82333	17201
2.82400	17206
2.82467	17211
2.82533	17215
2.82600	17219
2.82667	17223
2.82733	17226
2.82800	17230
2.82867	17232
2.82933	17235
2.83000	17237
2.83067	17239
2.83133	17241
2.83200	17242
2.83267	17243
2.83333	17243
2.83400	17243
2.83467	17243
2.83533	17242
2.83600	17242
2.83667	17240
2.83733	17239
2.83800	17237
2.83867	17235
2.83933	17232
2.84000	17229
2.84067	17226
2.84133	17222
2.84200	17219
2.84267	17215
2.84333	17210
2.84400	17205
2.84467	17200
2.84533	17195
2.84600	17190
2.84667	17184
2.84733	17178
2.84800	17172
2.84867	17165
2.84933	17159
2.85000	17152
2.85067	17145
2.85133	17138
2.85200	17130
2.85267	17123
2.85333	17115
2.85400	17107
2.85467	17099
2.85533	17091
2.85600	17083
2.85667	17075
2.85733	17066
2.85800	17058
2.85867	17050
2.85933	17041
2.86000	17033
2.86067	17024
2.86133	17016
2.86200	17007
2.86267	16999
2.86333	16991
2.86400	16982
2.86467	16974
2.86533	16966
2.86600	16957
2.86667	16949
2.86733	16941
2.86800	16933
2.86867	16925
2.86933	16917
2.87000	16910
2.87067	16902
2.87133	16894
2.87200	16887
2.87267	16880
2.87333	16873
2.87400	16866
2.87467	16859
2.87533	16852
2.87600	16846
2.87667	16839
2.87733	16833
2.87800	16828
2.87867	16822
2.87933	16817
2.88000	16811
2.88067	16806
2.88133	16802
2.88200	16798
2.88267	16793
2.88333	16790
2.88400	16786
2.88467	16783
2.88533	16780
2.88600	16778
2.88667	16776
2.88733	16774
2.88800	16772
2.88867	16771
2.88933	16770
2.89000	16769
2.89067	16769
2.89133	16769
2.89200	16769
2.89267	16770
2.89333	16771
2.89400	16772
2.89467	16773
2.89533	16775
2.89600	16777
2.89667	16779
2.89733	16781
2.89800	16784
2.89867	16787
2.89933	16791
2.90000	16794
2.90067	16798
2.90133	16802
2.90200	16806
2.90267	16810
2.90333	16815
2.90400	16819
2.90467	16823
2.90533	16827
2.90600	16832
2.90667	16836
2.90733	16840
2.90800	16844
2.90867	16848
2.90933	16852
2.91000	16856
2.91067	16859
2.91133	16862
2.91200	16866
2.91267	16869
2.91333	16871
2.91400	16874
2.91467	16876
2.91533	16878
2.91600	16879
2.91667	16880
2.91733	16881
2.91800	16881
2.91867	16881
2.91933	16881
2.92000	16880
2.92067	16879
2.92133	16877
2.92200	16875
2.92267	16872
2.92333	16869
2.92400	16865
2.92467	16861
2.92533	16856
2.92600	16851
2.92667	16846
2.92733	16840
2.92800	16833
2.92867	16826
2.92933	16819
2.93000	16811
2.93067	16803
2.93133	16794
2.93200	16785
2.93267	16775
2.93333	16765
2.93400	16755
2.93467	16744
2.93533	16733
2.93600	16721
2.93667	16710
2.93733	16698
2.93800	16685
2.93867	16673
2.93933	16660
2.94000	16647
2.94067	16633
2.94133	16620
2.94200	16606
2.94267	16592
2.94333	16578
2.94400	16564
2.94467	16550
2.94533	16535
2.94600	16521
2.94667	16506
2.94733	16491
2.94800	16476
2.94867	16461
2.94933	16446
2.95000	16431
2.95067	16416
2.95133	16400
2.95200	16385
2.95267	16370
2.95333	16355
2.95400	16340
2.95467	16325
2.95533	16310
2.95600	16295
2.95667	16280
2.95733	16265
2.95800	16250
2.95867	16236
2.95933	16221
2.96000	16207
2.96067	16192
2.96133	16178
2.96200	16164
2.96267	16150
2.96333	16136
2.96400	16122
2.96467	16109
2.96533	16095
2.96600	16082
2.96667	16069
2.96733	16056
2.96800	16043
2.96867	16030
2.96933	16017
2.97000	16005
2.97067	15993
2.97133	15981
2.97200	15969
2.97267	15957
2.97333	15945
2.97400	15933
2.97467	15922
2.97533	15911
2.97600	15899
2.97667	15888
2.97733	15878
2.97800	15867
2.97867	15857
2.97933	15846
2.98000	15836
2.98067	15826
2.98133	15817
2.98200	15807
2.98267	15797
2.98333	15788
2.98400	15779
2.98467	15769
2.98533	15760
2.98600	15751
2.98667	15742
2.98733	15734
2.98800	15725
2.98867	15716
2.98933	15708
2.99000	15699
2.99067	15691
2.99133	15683
2.99200	15675
2.99267	15667
2.99333	15659
2.99400	15651
2.99467	15643
2.99533	15635
2.99600	15627
2.99667	15619
2.99733	15612
2.99800	15604
2.99867	15597
2.99933	15590
3.00000	15582
3.00067	15575
3.00133	15568
3.00200	15561
3.00267	15554
3.00333	15547
3.00400	15540
3.00467	15533
3.00533	15526
3.00600	15519
3.00667	15512
3.00733	15505
3.00800	15499
3.00867	15492
3.00933	15485
3.01000	15478
3.01067	15472
3.01133	15465
3.01200	15459
3.01267	15453
3.01333	15446
3.01400	15440
3.01467	15434
3.01533	15427
3.01600	15421
3.01667	15415
3.01733	15409
3.01800	15402
3.01867	15396
3.01933	15390
3.02000	15384
3.02067	15378
3.02133	15372
3.02200	15366
3.02267	15360
3.02333	15354
3.02400	15348
3.02467	15342
3.02533	15337
3.02600	15331
3.02667	15325
3.02733	15319
3.02800	15313
3.02867	15307
3.02933	15302
3.03000	15296
3.03067	15290
3.03133	15285
3.03200	15279
3.03267	15273
3.03333	15268
3.03400	15262
3.03467	15257
3.03533	15251
3.03600	15246
3.03667	15240
3.03733	15235
3.03800	15230
3.03867	15224
3.03933	15219
3.04000	15214
3.04067	15208
3.04133	15203
3.04200	15198
3.04267	15193
3.04333	15188
3.04400	15183
3.04467	15178
3.04533	15173
3.04600	15168
3.04667	15164
3.04733	15159
3.04800	15154
3.04867	15149
3.04933	15145
3.05000	15140
3.05067	15136
3.05133	15131
3.05200	15127
3.05267	15123
3.05333	15118
3.05400	15114
3.05467	15110
3.05533	15106
3.05600	15102
3.05667	15098
3.05733	15094
3.05800	15090
3.05867	15087
3.05933	15083
3.06000	15079
3.06067	15076
3.06133	15073
3.06200	15069
3.06267	15066
3.06333	15063
3.06400	15060
3.06467	15057
3.06533	15054
3.06600	15051
3.06667	15048
3.06733	15046
3.06800	15043
3.06867	15040
3.06933	15038
3.07000	15036
3.07067	15033
3.07133	15031
3.07200	15029
3.07267	15027
3.07333	15024
3.07400	15022
3.07467	15020
3.07533	15018
3.07600	15016
3.07667	15014
3.07733	15012
3.07800	15010
3.07867	15008
3.07933	15006
3.08000	15004
3.08067	15002
3.08133	15000
3.08200	14998
3.08267	14996
3.08333	14994
3.08400	14992
3.08467	14990
3.08533	14988
3.08600	14987
3.08667	14985
3.08733	14983
3.08800	14981
3.08867	14979
3.08933	14977
3.09000	14975
3.09067	14972
3.09133	14970
3.09200	14968
3.09267	14965
3.09333	14963
3.09400	14960
3.09467	14957
3.09533	14955
3.09600	14952
3.09667	14949
3.09733	14946
3.09800	14943
3.09867	14940
3.09933	14937
3.10000	14933
3.10067	14930
3.10133	14927
3.10200	14923
3.10267	14919
3.10333	14916
3.10400	14912
3.10467	14908
3.10533	14904
3.10600	14900
3.10667	14896
3.10733	14892
3.10800	14888
3.10867	14884
3.10933	14880
3.11000	14876
3.11067	14871
3.11133	14867
3.11200	14862
3.11267	14858
3.11333	14853
3.11400	14848
3.11467	14844
3.11533	14839
3.11600	14834
3.11667	14829
3.11733	14824
3.11800	14819
3.11867	14814
3.11933	14809
3.12000	14804
3.12067	14798
3.12133	14793
3.12200	14788
3.12267	14782
3.12333	14777
3.12400	14771
3.12467	14766
3.12533	14760
3.12600	14755
3.12667	14749
3.12733	14744
3.12800	14738
3.12867	14733
3.12933	14727
3.13000	14722
3.13067	14716
3.13133	14711
3.13200	14705
3.13267	14700
3.13333	14694
3.13400	14688
3.13467	14683
3.13533	14677
3.13600	14672
3.13667	14666
3.13733	14660
3.13800	14655
3.13867	14649
3.13933	14644
3.14000	14638
3.14067	14633
3.14133	14628
3.14200	14622
3.14267	14617
3.14333	14612
3.14400	14607
3.14467	14601
3.14533	14596
3.14600	14591
3.14667	14586
3.14733	14581
3.14800	14576
3.14867	14571
3.14933	14566
3.15000	14562
3.15067	14557
3.15133	14552
3.15200	14547
3.15267	14542
3.15333	14537
3.15400	14533
3.15467	14528
3.15533	14523
3.15600	14519
3.15667	14514
3.15733	14510
3.15800	14505
3.15867	14501
3.15933	14497
3.16000	14492
3.16067	14488
3.16133	14484
3.16200	14480
3.16267	14475
3.16333	14471
3.16400	14467
3.16467	14463
3.16533	14459
3.16600	14455
3.16667	14450
3.16733	14446
3.16800	14442
3.16867	14438
3.16933	14434
3.17000	14430
3.17067	14426
3.17133	14422
3.17200	14418
3.17267	14414
3.17333	14410
3.17400	14406
3.17467	14402
3.17533	14398
3.17600	14394
3.17667	14390
3.17733	14386
3.17800	14382
3.17867	14378
3.17933	14374
3.18000	14370
3.18067	14366
3.18133	14362
3.18200	14358
3.18267	14354
3.18333	14350
3.18400	14346
3.18467	14342
3.18533	14339
3.18600	14335
3.18667	14331
3.18733	14327
3.18800	14323
3.18867	14319
3.18933	14315
3.19000	14311
3.19067	14308
3.19133	14304
3.19200	14300
3.19267	14296
3.19333	14292
3.19400	14288
3.19467	14284
3.19533	14280
3.19600	14276
3.19667	14272
3.19733	14268
3.19800	14264
3.19867	14260
3.19933	14256
3.20000	14252
3.20067	14248
3.20133	14244
3.20200	14240
3.20267	14236
3.20333	14232
3.20400	14228
3.20467	14225
3.20533	14221
3.20600	14217
3.20667	14213
3.20733	14209
3.20800	14205
3.20867	14201
3.20933	14197
3.21000	14194
3.21067	14190
3.21133	14186
3.21200	14183
3.21267	14179
3.21333	14176
3.21400	14172
3.21467	14168
3.21533	14165
3.21600	14161
3.21667	14158
3.21733	14154
3.21800	14150
3.21867	14147
3.21933	14143
3.22000	14140
3.22067	14136
3.22133	14132
3.22200	14129
3.22267	14125
3.22333	14122
3.22400	14119
3.22467	14115
3.22533	14112
3.22600	14108
3.22667	14105
3.22733	14102
3.22800	14099
3.22867	14096
3.22933	14092
3.23000	14089
3.23067	14086
3.23133	14083
3.23200	14080
3.23267	14077
3.23333	14074
3.23400	14070
3.23467	14067
3.23533	14064
3.23600	14061
3.23667	14058
3.23733	14055
3.23800	14053
3.23867	14050
3.23933	14047
3.24000	14044
3.24067	14041
3.24133	14038
3.24200	14035
3.24267	14033
3.24333	14030
3.24400	14027
3.24467	14024
3.24533	14021
3.24600	14018
3.24667	14015
3.24733	14012
3.24800	14009
3.24867	14006
3.24933	14003
3.25000	14000
3.25067	13997
3.25133	13994
3.25200	13991
3.25267	13988
3.25333	13985
3.25400	13982
3.25467	13979
3.25533	13977
3.25600	13974
3.25667	13971
3.25733	13968
3.25800	13965
3.25867	13962
3.25933	13960
3.26000	13957
3.26067	13954
3.26133	13951
3.26200	13949
3.26267	13946
3.26333	13943
3.26400	13941
3.26467	13938
3.26533	13935
3.26600	13932
3.26667	13930
3.26733	13927
3.26800	13924
3.26867	13922
3.26933	13919
3.27000	13916
3.27067	13913
3.27133	13911
3.27200	13908
3.27267	13905
3.27333	13903
3.27400	13900
3.27467	13897
3.27533	13894
3.27600	13892
3.27667	13889
3.27733	13886
3.27800	13884
3.27867	13881
3.27933	13878
3.28000	13875
3.28067	13873
3.28133	13870
3.28200	13867
3.28267	13864
3.28333	13862
3.28400	13859
3.28467	13856
3.28533	13853
3.28600	13851
3.28667	13848
3.28733	13845
3.28800	13843
3.28867	13840
3.28933	13837
3.29000	13834
3.29067	13832
3.29133	13829
3.29200	13826
3.29267	13823
3.29333	13820
3.29400	13817
3.29467	13814
3.29533	13811
3.29600	13808
3.29667	13805
3.29733	13802
3.29800	13799
3.29867	13796
3.29933	13793
3.30000	13790
3.30067	13787
3.30133	13784
3.30200	13781
3.30267	13777
3.30333	13774
3.30400	13771
3.30467	13768
3.30533	13765
3.30600	13762
3.30667	13759
3.30733	13756
3.30800	13753
3.30867	13750
3.30933	13747
3.31000	13744
3.31067	13741
3.31133	13738
3.31200	13735
3.31267	13732
3.31333	13729
3.31400	13726
3.31467	13723
3.31533	13720
3.31600	13717
3.31667	13714
3.31733	13711
3.31800	13708
3.31867	13705
3.31933	13702
3.32000	13699
3.32067	13696
3.32133	13694
3.32200	13691
3.32267	13688
3.32333	13685
3.32400	13682
3.32467	13679
3.32533	13676
3.32600	13673
3.32667	13670
3.32733	13667
3.32800	13664
3.32867	13661
3.32933	13658
3.33000	13655
3.33067	13652
3.33133	13649
3.33200	13646
3.33267	13643
3.33333	13640
3.33400	13637
3.33467	13634
3.33533	13631
3.33600	13628
3.33667	13625
3.33733	13622
3.33800	13619
3.33867	13616
3.33933	13613
3.34000	13610
3.34067	13606
3.34133	13603
3.34200	13600
3.34267	13597
3.34333	13594
3.34400	13591
3.34467	13588
3.34533	13585
3.34600	13582
3.34667	13579
3.34733	13576
3.34800	13573
3.34867	13571
3.34933	13567
3.35000	13564
3.35067	13561
3.35133	13558
3.35200	13555
3.35267	13552
3.35333	13549
3.35400	13545
3.35467	13542
3.35533	13539
3.35600	13536
3.35667	13533
3.35733	13529
3.35800	13526
3.35867	13523
3.35933	13520
3.36000	13516
3.36067	13513
3.36133	13510
3.36200	13507
3.36267	13504
3.36333	13500
3.36400	13497
3.36467	13494
3.36533	13491
3.36600	13488
3.36667	13485
3.36733	13482
3.36800	13479
3.36867	13476
3.36933	13473
3.37000	13470
3.37067	13467
3.37133	13464
3.37200	13461
3.37267	13459
3.37333	13456
3.37400	13453
3.37467	13450
3.37533	13447
3.37600	13445
3.37667	13442
3.37733	13439
3.37800	13436
3.37867	13434
3.37933	13431
3.38000	13428
3.38067	13426
3.38133	13423
3.38200	13420
3.38267	13418
3.38333	13416
3.38400	13413
3.38467	13411
3.38533	13409
3.38600	13407
3.38667	13405
3.38733	13402
3.38800	13400
3.38867	13399
3.38933	13397
3.39000	13395
3.39067	13393
3.39133	13391
3.39200	13389
3.39267	13387
3.39333	13385
3.39400	13384
3.39467	13382
3.39533	13380
3.39600	13378
3.39667	13377
3.39733	13375
3.39800	13374
3.39867	13372
3.39933	13370
3.40000	13369
3.40067	13367
3.40133	13365
3.40200	13364
3.40267	13362
3.40333	13361
3.40400	13359
3.40467	13358
3.40533	13356
3.40600	13355
3.40667	13353
3.40733	13352
3.40800	13351
3.40867	13350
3.40933	13349
3.41000	13348
3.41067	13347
3.41133	13346
3.41200	13345
3.41267	13344
3.41333	13343
3.41400	13342
3.41467	13342
3.41533	13341
3.41600	13340
3.41667	13340
3.41733	13339
3.41800	13338
3.41867	13338
3.41933	13337
3.42000	13337
3.42067	13336
3.42133	13336
3.42200	13336
3.42267	13336
3.42333	13336
3.42400	13336
3.42467	13336
3.42533	13336
3.42600	13336
3.42667	13336
3.42733	13337
3.42800	13337
3.42867	13338
3.42933	13338
3.43000	13339
3.43067	13339
3.43133	13340
3.43200	13341
3.43267	13342
3.43333	13343
3.43400	13344
3.43467	13345
3.43533	13346
3.43600	13348
3.43667	13349
3.43733	13351
3.43800	13352
3.43867	13354
3.43933	13356
3.44000	13358
3.44067	13360
3.44133	13362
3.44200	13365
3.44267	13367
3.44333	13370
3.44400	13372
3.44467	13375
3.44533	13378
3.44600	13381
3.44667	13385
3.44733	13388
3.44800	13392
3.44867	13395
3.44933	13399
3.45000	13403
3.45067	13407
3.45133	13412
3.45200	13416
3.45267	13421
3.45333	13426
3.45400	13430
3.45467	13435
3.45533	13440
3.45600	13445
3.45667	13451
3.45733	13456
3.45800	13462
3.45867	13467
3.45933	13473
3.46000	13479
3.46067	13485
3.46133	13491
3.46200	13497
3.46267	13504
3.46333	13510
3.46400	13517
3.46467	13524
3.46533	13531
3.46600	13538
3.46667	13545
3.46733	13552
3.46800	13560
3.46867	13567
3.46933	13575
3.47000	13582
3.47067	13590
3.47133	13598
3.47200	13606
3.47267	13614
3.47333	13622
3.47400	13630
3.47467	13638
3.47533	13647
3.47600	13655
3.47667	13663
3.47733	13672
3.47800	13680
3.47867	13689
3.47933	13697
3.48000	13706
3.48067	13715
3.48133	13724
3.48200	13732
3.48267	13741
3.48333	13751
3.48400	13760
3.48467	13769
3.48533	13778
3.48600	13788
3.48667	13797
3.48733	13807
3.48800	13817
3.48867	13827
3.48933	13837
3.49000	13847
3.49067	13858
3.49133	13868
3.49200	13879
3.49267	13889
3.49333	13900
3.49400	13912
3.49467	13923
3.49533	13934
3.49600	13946
3.49667	13958
3.49733	13970
3.49800	13982
3.49867	13995
3.49933	14008
3.50000	14021
3.50067	14035
3.50133	14049
3.50200	14063
3.50267	14078
3.50333	14093
3.50400	14109
3.50467	14125
3.50533	14142
3.50600	14159
3.50667	14176
3.50733	14194
3.50800	14213
3.50867	14232
3.50933	14252
3.51000	14273
3.51067	14295
3.51133	14317
3.51200	14340
3.51267	14363
3.51333	14388
3.51400	14414
3.51467	14440
3.51533	14468
3.51600	14496
3.51667	14526
3.51733	14557
3.51800	14588
3.51867	14621
3.51933	14656
3.52000	14691
3.52067	14727
3.52133	14765
3.52200	14805
3.52267	14845
3.52333	14887
3.52400	14931
3.52467	14975
3.52533	15021
3.52600	15069
3.52667	15118
3.52733	15168
3.52800	15220
3.52867	15273
3.52933	15327
3.53000	15383
3.53067	15441
3.53133	15500
3.53200	15560
3.53267	15622
3.53333	15686
3.53400	15751
3.53467	15817
3.53533	15885
3.53600	15954
3.53667	16024
3.53733	16096
3.53800	16169
3.53867	16243
3.53933	16318
3.54000	16395
3.54067	16472
3.54133	16551
3.54200	16630
3.54267	16711
3.54333	16792
3.54400	16874
3.54467	16957
3.54533	17040
3.54600	17124
3.54667	17209
3.54733	17294
3.54800	17380
3.54867	17465
3.54933	17552
3.55000	17638
3.55067	17724
3.55133	17811
3.55200	17897
3.55267	17983
3.55333	18069
3.55400	18155
3.55467	18240
3.55533	18325
3.55600	18409
3.55667	18492
3.55733	18575
3.55800	18656
3.55867	18737
3.55933	18817
3.56000	18895
3.56067	18973
3.56133	19049
3.56200	19123
3.56267	19197
3.56333	19268
3.56400	19338
3.56467	19407
3.56533	19473
3.56600	19538
3.56667	19601
3.56733	19662
3.56800	19721
3.56867	19778
3.56933	19833
3.57000	19885
3.57067	19936
3.57133	19984
3.57200	20030
3.57267	20074
3.57333	20115
3.57400	20155
3.57467	20191
3.57533	20226
3.57600	20258
3.57667	20289
3.57733	20316
3.57800	20342
3.57867	20365
3.57933	20386
3.58000	20405
3.58067	20422
3.58133	20436
3.58200	20449
3.58267	20459
3.58333	20468
3.58400	20474
3.58467	20479
3.58533	20481
3.58600	20482
3.58667	20481
3.58733	20478
3.58800	20473
3.58867	20466
3.58933	20458
3.59000	20448
3.59067	20437
3.59133	20424
3.59200	20410
3.59267	20394
3.59333	20378
3.59400	20360
3.59467	20341
3.59533	20321
3.59600	20300
3.59667	20278
3.59733	20255
3.59800	20231
3.59867	20206
3.59933	20181
3.60000	20154
3.60067	20128
3.60133	20100
3.60200	20072
3.60267	20043
3.60333	20014
3.60400	19984
3.60467	19954
3.60533	19923
3.60600	19892
3.60667	19861
3.60733	19830
3.60800	19799
3.60867	19767
3.60933	19736
3.61000	19704
3.61067	19672
3.61133	19640
3.61200	19607
3.61267	19575
3.61333	19542
3.61400	19510
3.61467	19477
3.61533	19444
3.61600	19411
3.61667	19378
3.61733	19344
3.61800	19311
3.61867	19277
3.61933	19243
3.62000	19209
3.62067	19174
3.62133	19139
3.62200	19104
3.62267	19069
3.62333	19033
3.62400	18998
3.62467	18962
3.62533	18925
3.62600	18889
3.62667	18852
3.62733	18815
3.62800	18777
3.62867	18739
3.62933	18701
3.63000	18662
3.63067	18624
3.63133	18584
3.63200	18545
3.63267	18505
3.63333	18464
3.63400	18423
3.63467	18382
3.63533	18340
3.63600	18298
3.63667	18256
3.63733	18213
3.63800	18170
3.63867	18126
3.63933	18081
3.64000	18037
3.64067	17992
3.64133	17946
3.64200	17900
3.64267	17854
3.64333	17808
3.64400	17760
3.64467	17713
3.64533	17665
3.64600	17617
3.64667	17569
3.64733	17521
3.64800	17472
3.64867	17423
3.64933	17373
3.65000	17324
3.65067	17274
3.65133	17224
3.65200	17174
3.65267	17123
3.65333	17073
3.65400	17022
3.65467	16971
3.65533	16920
3.65600	16869
3.65667	16818
3.65733	16766
3.65800	16715
3.65867	16663
3.65933	16612
3.66000	16560
3.66067	16509
3.66133	16458
3.66200	16406
3.66267	16355
3.66333	16304
3.66400	16253
3.66467	16202
3.66533	16152
3.66600	16101
3.66667	16051
3.66733	16001
3.66800	15951
3.66867	15901
3.66933	15852
3.67000	15803
3.67067	15754
3.67133	15705
3.67200	15657
3.67267	15609
3.67333	15561
3.67400	15514
3.67467	15467
3.67533	15420
3.67600	15374
3.67667	15328
3.67733	15283
3.67800	15238
3.67867	15193
3.67933	15149
3.68000	15105
3.68067	15062
3.68133	15020
3.68200	14977
3.68267	14935
3.68333	14894
3.68400	14853
3.68467	14813
3.68533	14773
3.68600	14734
3.68667	14695
3.68733	14656
3.68800	14618
3.68867	14581
3.68933	14544
3.69000	14507
3.69067	14471
3.69133	14436
3.69200	14401
3.69267	14366
3.69333	14332
3.69400	14299
3.69467	14266
3.69533	14233
3.69600	14201
3.69667	14170
3.69733	14139
3.69800	14108
3.69867	14078
3.69933	14049
3.70000	14019
3.70067	13991
3.70133	13962
3.70200	13935
3.70267	13907
3.70333	13880
3.70400	13854
3.70467	13827
3.70533	13802
3.70600	13776
3.70667	13751
3.70733	13727
3.70800	13703
3.70867	13679
3.70933	13656
3.71000	13633
3.71067	13611
3.71133	13589
3.71200	13567
3.71267	13545
3.71333	13524
3.71400	13504
3.71467	13483
3.71533	13463
3.71600	13443
3.71667	13424
3.71733	13405
3.71800	13386
3.71867	13367
3.71933	13349
3.72000	13331
3.72067	13313
3.72133	13295
3.72200	13278
3.72267	13261
3.72333	13244
3.72400	13228
3.72467	13212
3.72533	13196
3.72600	13180
3.72667	13165
3.72733	13149
3.72800	13135
3.72867	13120
3.72933	13105
3.73000	13091
3.73067	13077
3.73133	13063
3.73200	13050
3.73267	13037
3.73333	13024
3.73400	13011
3.73467	12998
3.73533	12986
3.73600	12973
3.73667	12961
3.73733	12949
3.73800	12938
3.73867	12926
3.73933	12915
3.74000	12904
3.74067	12893
3.74133	12882
3.74200	12871
3.74267	12861
3.74333	12850
3.74400	12840
3.74467	12830
3.74533	12820
3.74600	12810
3.74667	12801
3.74733	12791
3.74800	12782
3.74867	12772
3.74933	12763
3.75000	12754
3.75067	12746
3.75133	12737
3.75200	12728
3.75267	12720
3.75333	12712
3.75400	12703
3.75467	12695
3.75533	12687
3.75600	12679
3.75667	12672
3.75733	12664
3.75800	12657
3.75867	12649
3.75933	12642
3.76000	12635
3.76067	12627
3.76133	12620
3.76200	12614
3.76267	12607
3.76333	12600
3.76400	12593
3.76467	12587
3.76533	12580
3.76600	12573
3.76667	12567
3.76733	12561
3.76800	12554
3.76867	12548
3.76933	12542
3.77000	12536
3.77067	12529
3.77133	12523
3.77200	12517
3.77267	12511
3.77333	12506
3.77400	12500
3.77467	12494
3.77533	12488
3.77600	12483
3.77667	12477
3.77733	12471
3.77800	12466
3.77867	12460
3.77933	12455
3.78000	12449
3.78067	12444
3.78133	12439
3.78200	12433
3.78267	12428
3.78333	12423
3.78400	12417
3.78467	12412
3.78533	12407
3.78600	12401
3.78667	12396
3.78733	12391
3.78800	12386
3.78867	12381
3.78933	12375
3.79000	12370
3.79067	12365
3.79133	12361
3.79200	12356
3.79267	12351
3.79333	12346
3.79400	12341
3.79467	12336
3.79533	12332
3.79600	12327
3.79667	12322
3.79733	12318
3.79800	12313
3.79867	12309
3.79933	12304
3.80000	12300
3.80067	12296
3.80133	12291
3.80200	12287
3.80267	12282
3.80333	12278
3.80400	12273
3.80467	12269
3.80533	12264
3.80600	12260
3.80667	12256
3.80733	12251
3.80800	12247
3.80867	12243
3.80933	12238
3.81000	12234
3.81067	12230
3.81133	12226
3.81200	12221
3.81267	12217
3.81333	12213
3.81400	12209
3.81467	12205
3.81533	12200
3.81600	12196
3.81667	12192
3.81733	12188
3.81800	12184
3.81867	12180
3.81933	12176
3.82000	12172
3.82067	12168
3.82133	12164
3.82200	12160
3.82267	12156
3.82333	12152
3.82400	12148
3.82467	12144
3.82533	12141
3.82600	12137
3.82667	12133
3.82733	12129
3.82800	12125
3.82867	12122
3.82933	12118
3.83000	12114
3.83067	12110
3.83133	12106
3.83200	12103
3.83267	12099
3.83333	12095
3.83400	12091
3.83467	12087
3.83533	12084
3.83600	12080
3.83667	12076
3.83733	12073
3.83800	12069
3.83867	12065
3.83933	12062
3.84000	12058
3.84067	12054
3.84133	12051
3.84200	12047
3.84267	12044
3.84333	12040
3.84400	12037
3.84467	12033
3.84533	12030
3.84600	12026
3.84667	12023
3.84733	12019
3.84800	12016
3.84867	12013
3.84933	12009
3.85000	12006
3.85067	12002
3.85133	11999
3.85200	11996
3.85267	11992
3.85333	11989
3.85400	11986
3.85467	11982
3.85533	11979
3.85600	11976
3.85667	11973
3.85733	11969
3.85800	11966
3.85867	11963
3.85933	11959
3.86000	11956
3.86067	11953
3.86133	11950
3.86200	11947
3.86267	11944
3.86333	11941
3.86400	11938
3.86467	11935
3.86533	11932
3.86600	11929
3.86667	11926
3.86733	11923
3.86800	11920
3.86867	11917
3.86933	11915
3.87000	11912
3.87067	11909
3.87133	11907
3.87200	11904
3.87267	11902
3.87333	11899
3.87400	11896
3.87467	11894
3.87533	11891
3.87600	11889
3.87667	11887
3.87733	11884
3.87800	11882
3.87867	11879
3.87933	11877
3.88000	11874
3.88067	11872
3.88133	11870
3.88200	11867
3.88267	11865
3.88333	11863
3.88400	11861
3.88467	11858
3.88533	11856
3.88600	11854
3.88667	11851
3.88733	11849
3.88800	11847
3.88867	11845
3.88933	11843
3.89000	11840
3.89067	11838
3.89133	11836
3.89200	11834
3.89267	11832
3.89333	11830
3.89400	11828
3.89467	11826
3.89533	11824
3.89600	11822
3.89667	11820
3.89733	11818
3.89800	11816
3.89867	11814
3.89933	11812
3.90000	11810
3.90067	11808
3.90133	11806
3.90200	11804
3.90267	11803
3.90333	11801
3.90400	11799
3.90467	11797
3.90533	11795
3.90600	11794
3.90667	11792
3.90733	11790
3.90800	11788
3.90867	11786
3.90933	11784
3.91000	11782
3.91067	11781
3.91133	11779
3.91200	11777
3.91267	11775
3.91333	11773
3.91400	11771
3.91467	11770
3.91533	11768
3.91600	11766
3.91667	11764
3.91733	11762
3.91800	11761
3.91867	11759
3.91933	11757
3.92000	11755
3.92067	11753
3.92133	11751
3.92200	11749
3.92267	11747
3.92333	11745
3.92400	11743
3.92467	11741
3.92533	11739
3.92600	11737
3.92667	11735
3.92733	11733
3.92800	11731
3.92867	11729
3.92933	11727
3.93000	11725
3.93067	11723
3.93133	11721
3.93200	11719
3.93267	11717
3.93333	11716
3.93400	11714
3.93467	11712
3.93533	11710
3.93600	11709
3.93667	11707
3.93733	11705
3.93800	11704
3.93867	11702
3.93933	11700
3.94000	11698
3.94067	11697
3.94133	11695
3.94200	11693
3.94267	11691
3.94333	11690
3.94400	11688
3.94467	11686
3.94533	11684
3.94600	11682
3.94667	11680
3.94733	11678
3.94800	11676
3.94867	11674
3.94933	11672
3.95000	11670
3.95067	11668
3.95133	11666
3.95200	11664
3.95267	11662
3.95333	11659
3.95400	11657
3.95467	11655
3.95533	11653
3.95600	11651
3.95667	11649
3.95733	11646
3.95800	11644
3.95867	11642
3.95933	11640
3.96000	11638
3.96067	11636
3.96133	11634
3.96200	11631
3.96267	11629
3.96333	11627
3.96400	11625
3.96467	11623
3.96533	11621
3.96600	11618
3.96667	11616
3.96733	11614
3.96800	11612
3.96867	11610
3.96933	11608
3.97000	11605
3.97067	11603
3.97133	11601
3.97200	11599
3.97267	11597
3.97333	11595
3.97400	11592
3.97467	11590
3.97533	11588
3.97600	11586
3.97667	11584
3.97733	11582
3.97800	11580
3.97867	11577
3.97933	11575
3.98000	11573
3.98067	11571
3.98133	11569
3.98200	11567
3.98267	11565
3.98333	11563
3.98400	11562
3.98467	11560
3.98533	11558
3.98600	11557
3.98667	11555
3.98733	11553
3.98800	11552
3.98867	11551
3.98933	11549
3.99000	11548
3.99067	11547
3.99133	11546
3.99200	11545
3.99267	11544
3.99333	11544
3.99400	11543
3.99467	11542
3.99533	11542
3.99600	11541
3.99667	11541
3.99733	11540
3.99800	11540
3.99867	11539
3.99933	11539
4.00000	11539
4.00067	11539
4.00133	11539
4.00200	11539
4.00267	11539
4.00333	11539
4.00400	11540
4.00467	11540
4.00533	11541
4.00600	11542
4.00667	11542
4.00733	11543
4.00800	11544
4.00867	11545
4.00933	11546
4.01000	11548
4.01067	11549
4.01133	11551
4.01200	11553
4.01267	11554
4.01333	11556
4.01400	11559
4.01467	11561
4.01533	11563
4.01600	11566
4.01667	11569
4.01733	11572
4.01800	11575
4.01867	11578
4.01933	11582
4.02000	11585
4.02067	11589
4.02133	11593
4.02200	11598
4.02267	11602
4.02333	11607
4.02400	11612
4.02467	11617
4.02533	11622
4.02600	11627
4.02667	11633
4.02733	11639
4.02800	11645
4.02867	11651
4.02933	11657
4.03000	11664
4.03067	11671
4.03133	11678
4.03200	11685
4.03267	11692
4.03333	11699
4.03400	11707
4.03467	11715
4.03533	11723
4.03600	11731
4.03667	11740
4.03733	11748
4.03800	11757
4.03867	11766
4.03933	11775
4.04000	11785
4.04067	11794
4.04133	11804
4.04200	11814
4.04267	11824
4.04333	11834
4.04400	11844
4.04467	11855
4.04533	11866
4.04600	11877
4.04667	11888
4.04733	11899
4.04800	11910
4.04867	11922
4.04933	11933
4.05000	11945
4.05067	11957
4.05133	11969
4.05200	11981
4.05267	11993
4.05333	12005
4.05400	12018
4.05467	12030
4.05533	12043
4.05600	12055
4.05667	12068
4.05733	12081
4.05800	12093
4.05867	12106
4.05933	12119
4.06000	12132
4.06067	12145
4.06133	12158
4.06200	12171
4.06267	12184
4.06333	12197
4.06400	12209
4.06467	12222
4.06533	12235
4.06600	12248
4.06667	12260
4.06733	12273
4.06800	12286
4.06867	12298
4.06933	12310
4.07000	12323
4.07067	12335
4.07133	12347
4.07200	12359
4.07267	12371
4.07333	12382
4.07400	12394
4.07467	12405
4.07533	12417
4.07600	12428
4.07667	12439
4.07733	12450
4.07800	12460
4.07867	12471
4.07933	12481
4.08000	12491
4.08067	12501
4.08133	12511
4.08200	12520
4.08267	12529
4.08333	12538
4.08400	12547
4.08467	12556
4.08533	12564
4.08600	12572
4.08667	12580
4.08733	12588
4.08800	12595
4.08867	12602
4.08933	12609
4.09000	12616
4.09067	12623
4.09133	12629
4.09200	12635
4.09267	12640
4.09333	12645
4.09400	12650
4.09467	12655
4.09533	12660
4.09600	12664
4.09667	12668
4.09733	12672
4.09800	12675
4.09867	12678
4.09933	12681
4.10000	12684
4.10067	12686
4.10133	12689
4.10200	12690
4.10267	12692
4.10333	12694
4.10400	12695
4.10467	12696
4.10533	12697
4.10600	12697
4.10667	12697
4.10733	12697
4.10800	12697
4.10867	12697
4.10933	12696
4.11000	12696
4.11067	12695
4.11133	12694
4.11200	12693
4.11267	12691
4.11333	12690
4.11400	12688
4.11467	12686
4.11533	12684
4.11600	12682
4.11667	12680
4.11733	12678
4.11800	12675
4.11867	12672
4.11933	12670
4.12000	12667
4.12067	12664
4.12133	12661
4.12200	12658
4.12267	12654
4.12333	12651
4.12400	12648
4.12467	12644
4.12533	12641
4.12600	12638
4.12667	12634
4.12733	12631
4.12800	12627
4.12867	12624
4.12933	12620
4.13000	12617
4.13067	12613
4.13133	12610
4.13200	12606
4.13267	12603
4.13333	12599
4.13400	12596
4.13467	12592
4.13533	12589
4.13600	12585
4.13667	12582
4.13733	12578
4.13800	12575
4.13867	12572
4.13933	12568
4.14000	12565
4.14067	12562
4.14133	12559
4.14200	12556
4.14267	12553
4.14333	12550
4.14400	12547
4.14467	12544
4.14533	12542
4.14600	12539
4.14667	12537
4.14733	12534
4.14800	12532
4.14867	12530
4.14933	12527
4.15000	12525
4.15067	12523
4.15133	12522
4.15200	12520
4.15267	12518
4.15333	12516
4.15400	12515
4.15467	12514
4.15533	12512
4.15600	12511
4.15667	12510
4.15733	12509
4.15800	12508
4.15867	12507
4.15933	12507
4.16000	12506
4.16067	12506
4.16133	12505
4.16200	12505
4.16267	12504
4.16333	12504
4.16400	12504
4.16467	12504
4.16533	12504
4.16600	12504
4.16667	12504
4.16733	12505
4.16800	12505
4.16867	12505
4.16933	12506
4.17000	12506
4.17067	12507
4.17133	12507
4.17200	12508
4.17267	12509
4.17333	12510
4.17400	12511
4.17467	12512
4.17533	12513
4.17600	12515
4.17667	12516
4.17733	12518
4.17800	12519
4.17867	12521
4.17933	12523
4.18000	12525
4.18067	12527
4.18133	12529
4.18200	12532
4.18267	12534
4.18333	12537
4.18400	12540
4.18467	12543
4.18533	12546
4.18600	12549
4.18667	12553
4.18733	12556
4.18800	12560
4.18867	12563
4.18933	12567
4.19000	12571
4.19067	12575
4.19133	12580
4.19200	12584
4.19267	12589
4.19333	12593
4.19400	12598
4.19467	12603
4.19533	12609
4.19600	12614
4.19667	12620
4.19733	12625
4.19800	12631
4.19867	12637
4.19933	12644
4.20000	12650
4.20067	12657
4.20133	12664
4.20200	12671
4.20267	12678
4.20333	12685
4.20400	12693
4.20467	12701
4.20533	12709
4.20600	12718
4.20667	12727
4.20733	12736
4.20800	12745
4.20867	12755
4.20933	12765
4.21000	12775
4.21067	12786
4.21133	12797
4.21200	12808
4.21267	12820
4.21333	12832
4.21400	12844
4.21467	12857
4.21533	12870
4.21600	12884
4.21667	12898
4.21733	12913
4.21800	12928
4.21867	12944
4.21933	12960
4.22000	12977
4.22067	12994
4.22133	13012
4.22200	13030
4.22267	13049
4.22333	13069
4.22400	13089
4.22467	13110
4.22533	13132
4.22600	13154
4.22667	13177
4.22733	13201
4.22800	13226
4.22867	13251
4.22933	13277
4.23000	13304
4.23067	13332
4.23133	13361
4.23200	13391
4.23267	13421
4.23333	13453
4.23400	13486
4.23467	13520
4.23533	13555
4.23600	13592
4.23667	13629
4.23733	13668
4.23800	13708
4.23867	13750
4.23933	13793
4.24000	13838
4.24067	13884
4.24133	13932
4.24200	13982
4.24267	14034
4.24333	14087
4.24400	14142
4.24467	14200
4.24533	14259
4.24600	14321
4.24667	14384
4.24733	14451
4.24800	14519
4.24867	14590
4.24933	14664
4.25000	14741
4.25067	14820
4.25133	14902
4.25200	14988
4.25267	15077
4.25333	15169
4.25400	15265
4.25467	15364
4.25533	15467
4.25600	15574
4.25667	15685
4.25733	15800
4.25800	15920
4.25867	16044
4.25933	16174
4.26000	16308
4.26067	16448
4.26133	16593
4.26200	16743
4.26267	16899
4.26333	17062
4.26400	17230
4.26467	17405
4.26533	17586
4.26600	17775
4.26667	17971
4.26733	18174
4.26800	18385
4.26867	18603
4.26933	18830
4.27000	19066
4.27067	19310
4.27133	19563
4.27200	19825
4.27267	20096
4.27333	20377
4.27400	20669
4.27467	20970
4.27533	21282
4.27600	21605
4.27667	21940
4.27733	22285
4.27800	22642
4.27867	23011
4.27933	23392
4.28000	23785
4.28067	24191
4.28133	24610
4.28200	25043
4.28267	25489
4.28333	25950
4.28400	26424
4.28467	26914
4.28533	27418
4.28600	27938
4.28667	28474
4.28733	29026
4.28800	29594
4.28867	30180
4.28933	30783
4.29000	31403
4.29067	32042
4.29133	32700
4.29200	33377
4.29267	34073
4.29333	34790
4.29400	35527
4.29467	36284
4.29533	37063
4.29600	37864
4.29667	38687
4.29733	39533
4.29800	40402
4.29867	41295
4.29933	42211
4.30000	43151
4.30067	44116
4.30133	45105
4.30200	46118
4.30267	47157
4.30333	48220
4.30400	49310
4.30467	50424
4.30533	51565
4.30600	52732
4.30667	53925
4.30733	55145
4.30800	56391
4.30867	57664
4.30933	58964
4.31000	60291
4.31067	61646
4.31133	63029
4.31200	64440
4.31267	65879
4.31333	67346
4.31400	68840
4.31467	70363
4.31533	71913
4.31600	73491
4.31667	75096
4.31733	76728
4.31800	78388
4.31867	80075
4.31933	81789
4.32000	83532
4.32067	85303
4.32133	87102
4.32200	88930
4.32267	90787
4.32333	92673
4.32400	94589
4.32467	96534
4.32533	98507
4.32600	100509
4.32667	102540
4.32733	104600
4.32800	106687
4.32867	108804
4.32933	110948
4.33000	113121
4.33067	115323
4.33133	117555
4.33200	119816
4.33267	122108
4.33333	124431
4.33400	126785
4.33467	129170
4.33533	131586
4.33600	134034
4.33667	136513
4.33733	139023
4.33800	141564
4.33867	144135
4.33933	146736
4.34000	149368
4.34067	152028
4.34133	154718
4.34200	157435
4.34267	160180
4.34333	162951
4.34400	165747
4.34467	168568
4.34533	171411
4.34600	174277
4.34667	177165
4.34733	180074
4.34800	183004
4.34867	185956
4.34933	188929
4.35000	191922
4.35067	194936
4.35133	197970
4.35200	201022
4.35267	204093
4.35333	207180
4.35400	210284
4.35467	213402
4.35533	216533
4.35600	219678
4.35667	222833
4.35733	225999
4.35800	229174
4.35867	232356
4.35933	235544
4.36000	238736
4.36067	241932
4.36133	245131
4.36200	248331
4.36267	251533
4.36333	254736
4.36400	257941
4.36467	261146
4.36533	264351
4.36600	267555
4.36667	270758
4.36733	273957
4.36800	277154
4.36867	280345
4.36933	283532
4.37000	286712
4.37067	289885
4.37133	293049
4.37200	296204
4.37267	299347
4.37333	302477
4.37400	305590
4.37467	308684
4.37533	311754
4.37600	314799
4.37667	317816
4.37733	320801
4.37800	323753
4.37867	326669
4.37933	329549
4.38000	332388
4.38067	335186
4.38133	337940
4.38200	340648
4.38267	343308
4.38333	345917
4.38400	348473
4.38467	350974
4.38533	353416
4.38600	355797
4.38667	358114
4.38733	360362
4.38800	362538
4.38867	364639
4.38933	366662
4.39000	368602
4.39067	370456
4.39133	372220
4.39200	373890
4.39267	375464
4.39333	376939
4.39400	378311
4.39467	379579
4.39533	380740
4.39600	381792
4.39667	382734
4.39733	383563
4.39800	384279
4.39867	384880
4.39933	385365
4.40000	385732
4.40067	385981
4.40133	386112
4.40200	386123
4.40267	386014
4.40333	385785
4.40400	385435
4.40467	384965
4.40533	384374
4.40600	383664
4.40667	382834
4.40733	381887
4.40800	380823
4.40867	379645
4.40933	378353
4.41000	376951
4.41067	375439
4.41133	373819
4.41200	372095
4.41267	370267
4.41333	368340
4.41400	366315
4.41467	364197
4.41533	361987
4.41600	359690
4.41667	357307
4.41733	354843
4.41800	352299
4.41867	349681
4.41933	346991
4.42000	344233
4.42067	341411
4.42133	338527
4.42200	335586
4.42267	332592
4.42333	329547
4.42400	326456
4.42467	323323
4.42533	320150
4.42600	316942
4.42667	313703
4.42733	310435
4.42800	307141
4.42867	303826
4.42933	300493
4.43000	297144
4.43067	293783
4.43133	290413
4.43200	287037
4.43267	283658
4.43333	280278
4.43400	276901
4.43467	273529
4.43533	270165
4.43600	266811
4.43667	263469
4.43733	260143
4.43800	256833
4.43867	253543
4.43933	250274
4.44000	247028
4.44067	243806
4.44133	240610
4.44200	237442
4.44267	234303
4.44333	231193
4.44400	228114
4.44467	225066
4.44533	222051
4.44600	219070
4.44667	216123
4.44733	213211
4.44800	210334
4.44867	207493
4.44933	204689
4.45000	201922
4.45067	199192
4.45133	196500
4.45200	193845
4.45267	191228
4.45333	188648
4.45400	186106
4.45467	183602
4.45533	181135
4.45600	178706
4.45667	176314
4.45733	173959
4.45800	171641
4.45867	169360
4.45933	167115
4.46000	164906
4.46067	162733
4.46133	160595
4.46200	158492
4.46267	156424
4.46333	154389
4.46400	152388
4.46467	150419
4.46533	148483
4.46600	146580
4.46667	144708
4.46733	142866
4.46800	141056
4.46867	139275
4.46933	137524
4.47000	135802
4.47067	134108
4.47133	132443
4.47200	130806
4.47267	129196
4.47333	127612
4.47400	126055
4.47467	124523
4.47533	123017
4.47600	121535
4.47667	120078
4.47733	118644
4.47800	117233
4.47867	115845
4.47933	114479
4.48000	113134
4.48067	111811
4.48133	110508
4.48200	109225
4.48267	107963
4.48333	106720
4.48400	105497
4.48467	104293
4.48533	103107
4.48600	101939
4.48667	100790
4.48733	99657
4.48800	98542
4.48867	97443
4.48933	96360
4.49000	95294
4.49067	94243
4.49133	93208
4.49200	92187
4.49267	91181
4.49333	90190
4.49400	89213
4.49467	88250
4.49533	87300
4.49600	86364
4.49667	85440
4.49733	84530
4.49800	83632
4.49867	82747
4.49933	81874
4.50000	81013
4.50067	80164
4.50133	79326
4.50200	78500
4.50267	77685
4.50333	76882
4.50400	76089
4.50467	75307
4.50533	74535
4.50600	73774
4.50667	73023
4.50733	72283
4.50800	71552
4.50867	70831
4.50933	70120
4.51000	69419
4.51067	68727
4.51133	68045
4.51200	67372
4.51267	66708
4.51333	66054
4.51400	65408
4.51467	64771
4.51533	64143
4.51600	63524
4.51667	62914
4.51733	62313
4.51800	61720
4.51867	61136
4.51933	60561
4.52000	59993
4.52067	59434
4.52133	58884
4.52200	58341
4.52267	57807
4.52333	57280
4.52400	56761
4.52467	56250
4.52533	55747
4.52600	55251
4.52667	54763
4.52733	54283
4.52800	53810
4.52867	53344
4.52933	52885
4.53000	52434
4.53067	51990
4.53133	51553
4.53200	51123
4.53267	50701
4.53333	50285
4.53400	49876
4.53467	49473
4.53533	49078
4.53600	48689
4.53667	48307
4.53733	47931
4.53800	47562
4.53867	47199
4.53933	46843
4.54000	46492
4.54067	46148
4.54133	45810
4.54200	45478
4.54267	45152
4.54333	44832
4.54400	44518
4.54467	44210
4.54533	43907
4.54600	43610
4.54667	43319
4.54733	43033
4.54800	42753
4.54867	42479
4.54933	42210
4.55000	41946
4.55067	41688
4.55133	41435
4.55200	41187
4.55267	40944
4.55333	40707
4.55400	40474
4.55467	40246
4.55533	40023
4.55600	39805
4.55667	39592
4.55733	39383
4.55800	39179
4.55867	38979
4.55933	38784
4.56000	38593
4.56067	38406
4.56133	38223
4.56200	38045
4.56267	37871
4.56333	37700
4.56400	37534
4.56467	37371
4.56533	37212
4.56600	37057
4.56667	36905
4.56733	36757
4.56800	36612
4.56867	36470
4.56933	36332
4.57000	36197
4.57067	36065
4.57133	35936
4.57200	35811
4.57267	35688
4.57333	35568
4.57400	35452
4.57467	35338
4.57533	35227
4.57600	35118
4.57667	35012
4.57733	34909
4.57800	34808
4.57867	34710
4.57933	34614
4.58000	34520
4.58067	34428
4.58133	34338
4.58200	34251
4.58267	34165
4.58333	34082
4.58400	34001
4.58467	33922
4.58533	33844
4.58600	33769
4.58667	33695
4.58733	33623
4.58800	33554
4.58867	33485
4.58933	33419
4.59000	33354
4.59067	33291
4.59133	33229
4.59200	33169
4.59267	33110
4.59333	33052
4.59400	32996
4.59467	32941
4.59533	32887
4.59600	32834
4.59667	32782
4.59733	32731
4.59800	32681
4.59867	32632
4.59933	32584
4.60000	32536
4.60067	32490
4.60133	32444
4.60200	32398
4.60267	32353
4.60333	32309
4.60400	32265
4.60467	32222
4.60533	32179
4.60600	32136
4.60667	32094
4.60733	32053
4.60800	32012
4.60867	31971
4.60933	31930
4.61000	31890
4.61067	31849
4.61133	31809
4.61200	31769
4.61267	31728
4.61333	31688
4.61400	31647
4.61467	31607
4.61533	31566
4.61600	31526
4.61667	31485
4.61733	31444
4.61800	31402
4.61867	31361
4.61933	31319
4.62000	31277
4.62067	31235
4.62133	31193
4.62200	31151
4.62267	31108
4.62333	31065
4.62400	31022
4.62467	30979
4.62533	30936
4.62600	30893
4.62667	30849
4.62733	30805
4.62800	30761
4.62867	30717
4.62933	30673
4.63000	30628
4.63067	30583
4.63133	30538
4.63200	30492
4.63267	30446
4.63333	30400
4.63400	30353
4.63467	30307
4.63533	30260
4.63600	30212
4.63667	30165
4.63733	30117
4.63800	30069
4.63867	30020
4.63933	29971
4.64000	29923
4.64067	29873
4.64133	29824
4.64200	29774
4.64267	29724
4.64333	29674
4.64400	29623
4.64467	29572
4.64533	29521
4.64600	29470
4.64667	29418
4.64733	29366
4.64800	29314
4.64867	29262
4.64933	29210
4.65000	29158
4.65067	29106
4.65133	29054
4.65200	29001
4.65267	28949
4.65333	28897
4.65400	28845
4.65467	28792
4.65533	28740
4.65600	28688
4.65667	28635
4.65733	28583
4.65800	28531
4.65867	28479
4.65933	28427
4.66000	28376
4.66067	28324
4.66133	28273
4.66200	28222
4.66267	28170
4.66333	28120
4.66400	28069
4.66467	28019
4.66533	27968
4.66600	27919
4.66667	27869
4.66733	27819
4.66800	27770
4.66867	27721
4.66933	27672
4.67000	27624
4.67067	27575
4.67133	27527
4.67200	27479
4.67267	27431
4.67333	27383
4.67400	27336
4.67467	27289
4.67533	27242
4.67600	27195
4.67667	27149
4.67733	27103
4.67800	27057
4.67867	27011
4.67933	26966
4.68000	26921
4.68067	26876
4.68133	26831
4.68200	26786
4.68267	26742
4.68333	26697
4.68400	26653
4.68467	26608
4.68533	26564
4.68600	26520
4.68667	26476
4.68733	26433
4.68800	26389
4.68867	26346
4.68933	26302
4.69000	26259
4.69067	26216
4.69133	26173
4.69200	26131
4.69267	26088
4.69333	26046
4.69400	26004
4.69467	25962
4.69533	25921
4.69600	25879
4.69667	25838
4.69733	25798
4.69800	25757
4.69867	25717
4.69933	25677
4.70000	25638
4.70067	25599
4.70133	25560
4.70200	25521
4.70267	25482
4.70333	25444
4.70400	25406
4.70467	25368
4.70533	25330
4.70600	25292
4.70667	25255
4.70733	25217
4.70800	25180
4.70867	25143
4.70933	25106
4.71000	25069
4.71067	25032
4.71133	24996
4.71200	24960
4.71267	24924
4.71333	24888
4.71400	24852
4.71467	24817
4.71533	24781
4.71600	24746
4.71667	24711
4.71733	24676
4.71800	24641
4.71867	24606
4.71933	24571
4.72000	24537
4.72067	24502
4.72133	24468
4.72200	24434
4.72267	24400
4.72333	24366
4.72400	24333
4.72467	24299
4.72533	24266
4.72600	24233
4.72667	24200
4.72733	24168
4.72800	24135
4.72867	24103
4.72933	24071
4.73000	24040
4.73067	24008
4.73133	23977
4.73200	23946
4.73267	23916
4.73333	23885
4.73400	23855
4.73467	23826
4.73533	23797
4.73600	23768
4.73667	23739
4.73733	23711
4.73800	23683
4.73867	23655
4.73933	23627
4.74000	23600
4.74067	23572
4.74133	23545
4.74200	23518
4.74267	23491
4.74333	23465
4.74400	23439
4.74467	23413
4.74533	23387
4.74600	23362
4.74667	23337
4.74733	23312
4.74800	23287
4.74867	23263
4.74933	23239
4.75000	23216
4.75067	23192
4.75133	23169
4.75200	23146
4.75267	23124
4.75333	23102
4.75400	23080
4.75467	23058
4.75533	23036
4.75600	23015
4.75667	22993
4.75733	22972
4.75800	22951
4.75867	22931
4.75933	22910
4.76000	22889
4.76067	22869
4.76133	22849
4.76200	22828
4.76267	22808
4.76333	22788
4.76400	22768
4.76467	22748
4.76533	22729
4.76600	22709
4.76667	22689
4.76733	22670
4.76800	22651
4.76867	22632
4.76933	22613
4.77000	22594
4.77067	22576
4.77133	22558
4.77200	22539
4.77267	22521
4.77333	22503
4.77400	22486
4.77467	22468
4.77533	22450
4.77600	22432
4.77667	22415
4.77733	22397
4.77800	22379
4.77867	22362
4.77933	22344
4.78000	22326
4.78067	22309
4.78133	22291
4.78200	22273
4.78267	22255
4.78333	22238
4.78400	22220
4.78467	22203
4.78533	22185
4.78600	22168
4.78667	22151
4.78733	22134
4.78800	22117
4.78867	22100
4.78933	22083
4.79000	22066
4.79067	22050
4.79133	22033
4.79200	22017
4.79267	22001
4.79333	21985
4.79400	21969
4.79467	21953
4.79533	21937
4.79600	21921
4.79667	21905
4.79733	21890
4.79800	21875
4.79867	21859
4.79933	21844
4.80000	21829
4.80067	21814
4.80133	21800
4.80200	21785
4.80267	21770
4.80333	21755
4.80400	21741
4.80467	21727
4.80533	21712
4.80600	21698
4.80667	21684
4.80733	21670
4.80800	21657
4.80867	21643
4.80933	21630
4.81000	21617
4.81067	21605
4.81133	21592
4.81200	21580
4.81267	21568
4.81333	21556
4.81400	21545
4.81467	21533
4.81533	21522
4.81600	21511
4.81667	21500
4.81733	21489
4.81800	21479
4.81867	21468
4.81933	21457
4.82000	21447
4.82067	21436
4.82133	21426
4.82200	21416
4.82267	21406
4.82333	21396
4.82400	21386
4.82467	21376
4.82533	21367
4.82600	21357
4.82667	21348
4.82733	21338
4.82800	21329
4.82867	21320
4.82933	21310
4.83000	21301
4.83067	21292
4.83133	21283
4.83200	21274
4.83267	21264
4.83333	21255
4.83400	21246
4.83467	21237
4.83533	21227
4.83600	21218
4.83667	21208
4.83733	21199
4.83800	21189
4.83867	21180
4.83933	21171
4.84000	21161
4.84067	21151
4.84133	21142
4.84200	21132
4.84267	21123
4.84333	21113
4.84400	21103
4.84467	21093
4.84533	21083
4.84600	21073
4.84667	21062
4.84733	21052
4.84800	21042
4.84867	21031
4.84933	21021
4.85000	21011
4.85067	21000
4.85133	20990
4.85200	20979
4.85267	20968
4.85333	20958
4.85400	20947
4.85467	20937
4.85533	20926
4.85600	20915
4.85667	20905
4.85733	20894
4.85800	20884
4.85867	20874
4.85933	20864
4.86000	20853
4.86067	20843
4.86133	20833
4.86200	20823
4.86267	20812
4.86333	20802
4.86400	20792
4.86467	20782
4.86533	20771
4.86600	20761
4.86667	20751
4.86733	20741
4.86800	20730
4.86867	20720
4.86933	20709
4.87000	20699
4.87067	20689
4.87133	20678
4.87200	20668
4.87267	20657
4.87333	20647
4.87400	20637
4.87467	20626
4.87533	20616
4.87600	20606
4.87667	20596
4.87733	20585
4.87800	20575
4.87867	20565
4.87933	20555
4.88000	20545
4.88067	20535
4.88133	20526
4.88200	20516
4.88267	20506
4.88333	20496
4.88400	20486
4.88467	20477
4.88533	20467
4.88600	20457
4.88667	20447
4.88733	20438
4.88800	20428
4.88867	20418
4.88933	20409
4.89000	20399
4.89067	20390
4.89133	20380
4.89200	20371
4.89267	20362
4.89333	20353
4.89400	20344
4.89467	20335
4.89533	20327
4.89600	20318
4.89667	20310
4.89733	20301
4.89800	20293
4.89867	20285
4.89933	20276
4.90000	20268
4.90067	20260
4.90133	20252
4.90200	20244
4.90267	20236
4.90333	20228
4.90400	20220
4.90467	20212
4.90533	20204
4.90600	20196
4.90667	20188
4.90733	20180
4.90800	20172
4.90867	20163
4.90933	20155
4.91000	20147
4.91067	20138
4.91133	20130
4.91200	20121
4.91267	20112
4.91333	20103
4.91400	20095
4.91467	20086
4.91533	20077
4.91600	20068
4.91667	20059
4.91733	20050
4.91800	20041
4.91867	20032
4.91933	20024
4.92000	20015
4.92067	20006
4.92133	19997
4.92200	19988
4.92267	19979
4.92333	19970
4.92400	19961
4.92467	19951
4.92533	19942
4.92600	19933
4.92667	19924
4.92733	19915
4.92800	19907
4.92867	19898
4.92933	19889
4.93000	19880
4.93067	19871
4.93133	19862
4.93200	19854
4.93267	19845
4.93333	19836
4.93400	19827
4.93467	19819
4.93533	19810
4.93600	19801
4.93667	19793
4.93733	19784
4.93800	19776
4.93867	19767
4.93933	19759
4.94000	19750
4.94067	19742
4.94133	19734
4.94200	19725
4.94267	19717
4.94333	19709
4.94400	19701
4.94467	19692
4.94533	19684
4.94600	19676
4.94667	19668
4.94733	19660
4.94800	19652
4.94867	19643
4.94933	19635
4.95000	19627
4.95067	19619
4.95133	19611
4.95200	19602
4.95267	19594
4.95333	19586
4.95400	19577
4.95467	19569
4.95533	19561
4.95600	19553
4.95667	19545
4.95733	19537
4.95800	19529
4.95867	19521
4.95933	19513
4.96000	19505
4.96067	19498
4.96133	19490
4.96200	19482
4.96267	19475
4.96333	19467
4.96400	19460
4.96467	19452
4.96533	19444
4.96600	19436
4.96667	19429
4.96733	19421
4.96800	19412
4.96867	19404
4.96933	19396
4.97000	19388
4.97067	19380
4.97133	19371
4.97200	19363
4.97267	19355
4.97333	19346
4.97400	19338
4.97467	19330
4.97533	19321
4.97600	19313
4.97667	19305
4.97733	19296
4.97800	19288
4.97867	19280
4.97933	19272
4.98000	19263
4.98067	19255
4.98133	19247
4.98200	19238
4.98267	19230
4.98333	19221
4.98400	19213
4.98467	19204
4.98533	19196
4.98600	19187
4.98667	19179
4.98733	19170
4.98800	19161
4.98867	19153
4.98933	19145
4.99000	19136
4.99067	19128
4.99133	19120
4.99200	19112
4.99267	19103
4.99333	19095
4.99400	19088
4.99467	19080
4.99533	19072
4.99600	19064
4.99667	19056
4.99733	19049
4.99800	19041
4.99867	19034
4.99933	19026
5.00000	19018
5.00067	19011
5.00133	19003
5.00200	18995
5.00267	18988
5.00333	18980
5.00400	18972
5.00467	18964
5.00533	18956
5.00600	18949
5.00667	18941
5.00733	18933
5.00800	18925
5.00867	18917
5.00933	18909
5.01000	18901
5.01067	18893
5.01133	18885
5.01200	18877
5.01267	18869
5.01333	18861
5.01400	18853
5.01467	18845
5.01533	18837
5.01600	18829
5.01667	18821
5.01733	18813
5.01800	18805
5.01867	18797
5.01933	18789
5.02000	18782
5.02067	18774
5.02133	18766
5.02200	18758
5.02267	18751
5.02333	18743
5.02400	18735
5.02467	18727
5.02533	18719
5.02600	18712
5.02667	18704
5.02733	18696
5.02800	18688
5.02867	18680
5.02933	18672
5.03000	18664
5.03067	18656
5.03133	18648
5.03200	18640
5.03267	18632
5.03333	18624
5.03400	18616
5.03467	18608
5.03533	18599
5.03600	18591
5.03667	18583
5.03733	18575
5.03800	18566
5.03867	18558
5.03933	18549
5.04000	18541
5.04067	18533
5.04133	18524
5.04200	18516
5.04267	18507
5.04333	18499
5.04400	18490
5.04467	18482
5.04533	18474
5.04600	18465
5.04667	18457
5.04733	18449
5.04800	18441
5.04867	18433
5.04933	18425
5.05000	18417
5.05067	18409
5.05133	18401
5.05200	18393
5.05267	18385
5.05333	18378
5.05400	18370
5.05467	18362
5.05533	18354
5.05600	18347
5.05667	18339
5.05733	18331
5.05800	18323
5.05867	18316
5.05933	18308
5.06000	18300
5.06067	18292
5.06133	18284
5.06200	18276
5.06267	18268
5.06333	18261
5.06400	18253
5.06467	18245
5.06533	18237
5.06600	18229
5.06667	18221
5.06733	18213
5.06800	18206
5.06867	18198
5.06933	18190
5.07000	18182
5.07067	18175
5.07133	18167
5.07200	18159
5.07267	18152
5.07333	18144
5.07400	18137
5.07467	18130
5.07533	18123
5.07600	18115
5.07667	18108
5.07733	18101
5.07800	18094
5.07867	18087
5.07933	18080
5.08000	18073
5.08067	18066
5.08133	18059
5.08200	18053
5.08267	18046
5.08333	18039
5.08400	18032
5.08467	18026
5.08533	18019
5.08600	18013
5.08667	18006
5.08733	18000
5.08800	17993
5.08867	17987
5.08933	17981
5.09000	17975
5.09067	17969
5.09133	17963
5.09200	17958
5.09267	17952
5.09333	17946
5.09400	17940
5.09467	17935
5.09533	17929
5.09600	17923
5.09667	17918
5.09733	17912
5.09800	17906
5.09867	17901
5.09933	17895
5.10000	17890
5.10067	17885
5.10133	17879
5.10200	17874
5.10267	17869
5.10333	17864
5.10400	17860
5.10467	17855
5.10533	17850
5.10600	17846
5.10667	17841
5.10733	17837
5.10800	17833
5.10867	17828
5.10933	17824
5.11000	17820
5.11067	17816
5.11133	17812
5.11200	17808
5.11267	17804
5.11333	17800
5.11400	17796
5.11467	17792
5.11533	17788
5.11600	17784
5.11667	17780
5.11733	17776
5.11800	17773
5.11867	17769
5.11933	17765
5.12000	17762
5.12067	17758
5.12133	17755
5.12200	17752
5.12267	17748
5.12333	17745
5.12400	17742
5.12467	17740
5.12533	17737
5.12600	17734
5.12667	17732
5.12733	17730
5.12800	17728
5.12867	17726
5.12933	17724
5.13000	17723
5.13067	17722
5.13133	17720
5.13200	17719
5.13267	17718
5.13333	17718
5.13400	17717
5.13467	17717
5.13533	17717
5.13600	17717
5.13667	17717
5.13733	17717
5.13800	17718
5.13867	17719
5.13933	17720
5.14000	17721
5.14067	17722
5.14133	17724
5.14200	17726
5.14267	17728
5.14333	17730
5.14400	17733
5.14467	17736
5.14533	17739
5.14600	17742
5.14667	17746
5.14733	17750
5.14800	17754
5.14867	17758
5.14933	17763
5.15000	17768
5.15067	17773
5.15133	17779
5.15200	17784
5.15267	17790
5.15333	17797
5.15400	17804
5.15467	17811
5.15533	17818
5.15600	17826
5.15667	17835
5.15733	17843
5.15800	17852
5.15867	17862
5.15933	17871
5.16000	17881
5.16067	17892
5.16133	17903
5.16200	17914
5.16267	17925
5.16333	17937
5.16400	17949
5.16467	17962
5.16533	17975
5.16600	17988
5.16667	18002
5.16733	18016
5.16800	18030
5.16867	18045
5.16933	18060
5.17000	18076
5.17067	18092
5.17133	18109
5.17200	18125
5.17267	18143
5.17333	18160
5.17400	18179
5.17467	18197
5.17533	18216
5.17600	18236
5.17667	18256
5.17733	18276
5.17800	18297
5.17867	18318
5.17933	18340
5.18000	18362
5.18067	18384
5.18133	18407
5.18200	18430
5.18267	18453
5.18333	18477
5.18400	18500
5.18467	18524
5.18533	18549
5.18600	18573
5.18667	18598
5.18733	18623
5.18800	18648
5.18867	18673
5.18933	18699
5.19000	18724
5.19067	18750
5.19133	18777
5.19200	18803
5.19267	18830
5.19333	18857
5.19400	18884
5.19467	18911
5.19533	18939
5.19600	18966
5.19667	18994
5.19733	19022
5.19800	19050
5.19867	19078
5.19933	19106
5.20000	19134
5.20067	19163
5.20133	19191
5.20200	19220
5.20267	19248
5.20333	19277
5.20400	19305
5.20467	19334
5.20533	19362
5.20600	19390
5.20667	19419
5.20733	19447
5.20800	19475
5.20867	19503
5.20933	19531
5.21000	19559
5.21067	19587
5.21133	19614
5.21200	19642
5.21267	19669
5.21333	19696
5.21400	19723
5.21467	19749
5.21533	19775
5.21600	19801
5.21667	19826
5.21733	19851
5.21800	19876
5.21867	19900
5.21933	19924
5.22000	19948
5.22067	19971
5.22133	19993
5.22200	20015
5.22267	20037
5.22333	20058
5.22400	20079
5.22467	20099
5.22533	20118
5.22600	20137
5.22667	20155
5.22733	20173
5.22800	20190
5.22867	20207
5.22933	20223
5.23000	20239
5.23067	20253
5.23133	20268
5.23200	20281
5.23267	20294
5.23333	20306
5.23400	20318
5.23467	20329
5.23533	20339
5.23600	20349
5.23667	20358
5.23733	20367
5.23800	20374
5.23867	20382
5.23933	20388
5.24000	20394
5.24067	20399
5.24133	20404
5.24200	20408
5.24267	20411
5.24333	20414
5.24400	20416
5.24467	20418
5.24533	20419
5.24600	20419
5.24667	20418
5.24733	20417
5.24800	20416
5.24867	20413
5.24933	20410
5.25000	20407
5.25067	20402
5.25133	20398
5.25200	20392
5.25267	20386
5.25333	20379
5.25400	20372
5.25467	20364
5.25533	20355
5.25600	20346
5.25667	20336
5.25733	20326
5.25800	20315
5.25867	20304
5.25933	20292
5.26000	20280
5.26067	20267
5.26133	20254
5.26200	20241
5.26267	20227
5.26333	20212
5.26400	20197
5.26467	20182
5.26533	20166
5.26600	20150
5.26667	20134
5.26733	20117
5.26800	20100
5.26867	20083
5.26933	20065
5.27000	20048
5.27067	20029
5.27133	20011
5.27200	19992
5.27267	19973
5.27333	19954
5.27400	19934
5.27467	19914
5.27533	19894
5.27600	19874
5.27667	19853
5.27733	19832
5.27800	19811
5.27867	19790
5.27933	19768
5.28000	19746
5.28067	19725
5.28133	19702
5.28200	19680
5.28267	19658
5.28333	19635
5.28400	19613
5.28467	19590
5.28533	19567
5.28600	19544
5.28667	19521
5.28733	19498
5.28800	19475
5.28867	19452
5.28933	19428
5.29000	19405
5.29067	19382
5.29133	19358
5.29200	19335
5.29267	19311
5.29333	19287
5.29400	19264
5.29467	19240
5.29533	19217
5.29600	19193
5.29667	19170
5.29733	19146
5.29800	19123
5.29867	19100
5.29933	19076
5.30000	19053
5.30067	19030
5.30133	19007
5.30200	18984
5.30267	18961
5.30333	18939
5.30400	18916
5.30467	18893
5.30533	18871
5.30600	18848
5.30667	18826
5.30733	18804
5.30800	18781
5.30867	18759
5.30933	18737
5.31000	18716
5.31067	18694
5.31133	18673
5.31200	18651
5.31267	18630
5.31333	18609
5.31400	18588
5.31467	18567
5.31533	18547
5.31600	18527
5.31667	18506
5.31733	18487
5.31800	18467
5.31867	18447
5.31933	18428
5.32000	18409
5.32067	18390
5.32133	18371
5.32200	18353
5.32267	18335
5.32333	18317
5.32400	18299
5.32467	18281
5.32533	18264
5.32600	18247
5.32667	18230
5.32733	18213
5.32800	18196
5.32867	18180
5.32933	18163
5.33000	18147
5.33067	18131
5.33133	18115
5.33200	18099
5.33267	18083
5.33333	18068
5.33400	18052
5.33467	18037
5.33533	18022
5.33600	18006
5.33667	17991
5.33733	17976
5.33800	17962
5.33867	17947
5.33933	17932
5.34000	17918
5.34067	17903
5.34133	17889
5.34200	17875
5.34267	17861
5.34333	17847
5.34400	17833
5.34467	17819
5.34533	17805
5.34600	17791
5.34667	17777
5.34733	17764
5.34800	17750
5.34867	17737
5.34933	17724
5.35000	17710
5.35067	17697
5.35133	17684
5.35200	17671
5.35267	17658
5.35333	17645
5.35400	17632
5.35467	17619
5.35533	17606
5.35600	17594
5.35667	17581
5.35733	17569
5.35800	17557
5.35867	17545
5.35933	17533
5.36000	17521
5.36067	17509
5.36133	17498
5.36200	17486
5.36267	17475
5.36333	17463
5.36400	17452
5.36467	17440
5.36533	17429
5.36600	17418
5.36667	17406
5.36733	17395
5.36800	17384
5.36867	17372
5.36933	17361
5.37000	17350
5.37067	17339
5.37133	17327
5.37200	17316
5.37267	17305
5.37333	17294
5.37400	17283
5.37467	17272
5.37533	17261
5.37600	17250
5.37667	17239
5.37733	17228
5.37800	17217
5.37867	17206
5.37933	17195
5.38000	17184
5.38067	17174
5.38133	17163
5.38200	17153
5.38267	17142
5.38333	17132
5.38400	17121
5.38467	17111
5.38533	17101
5.38600	17090
5.38667	17080
5.38733	17070
5.38800	17060
5.38867	17050
5.38933	17040
5.39000	17030
5.39067	17020
5.39133	17010
5.39200	17000
5.39267	16990
5.39333	16980
5.39400	16971
5.39467	16961
5.39533	16951
5.39600	16942
5.39667	16933
5.39733	16923
5.39800	16914
5.39867	16905
5.39933	16896
5.40000	16887
5.40067	16878
5.40133	16869
5.40200	16860
5.40267	16851
5.40333	16842
5.40400	16833
5.40467	16825
5.40533	16816
5.40600	16807
5.40667	16799
5.40733	16790
5.40800	16782
5.40867	16774
5.40933	16765
5.41000	16757
5.41067	16749
5.41133	16740
5.41200	16732
5.41267	16724
5.41333	16716
5.41400	16708
5.41467	16699
5.41533	16691
5.41600	16683
5.41667	16675
5.41733	16667
5.41800	16659
5.41867	16651
5.41933	16643
5.42000	16635
5.42067	16627
5.42133	16618
5.42200	16610
5.42267	16602
5.42333	16594
5.42400	16586
5.42467	16578
5.42533	16570
5.42600	16563
5.42667	16555
5.42733	16547
5.42800	16539
5.42867	16531
5.42933	16523
5.43000	16515
5.43067	16507
5.43133	16500
5.43200	16492
5.43267	16484
5.43333	16476
5.43400	16468
5.43467	16460
5.43533	16452
5.43600	16444
5.43667	16436
5.43733	16428
5.43800	16420
5.43867	16412
5.43933	16404
5.44000	16396
5.44067	16388
5.44133	16381
5.44200	16373
5.44267	16365
5.44333	16357
5.44400	16350
5.44467	16342
5.44533	16335
5.44600	16327
5.44667	16320
5.44733	16312
5.44800	16305
5.44867	16297
5.44933	16290
5.45000	16283
5.45067	16276
5.45133	16268
5.45200	16261
5.45267	16254
5.45333	16247
5.45400	16240
5.45467	16233
5.45533	16226
5.45600	16219
5.45667	16212
5.45733	16205
5.45800	16199
5.45867	16192
5.45933	16185
5.46000	16178
5.46067	16171
5.46133	16164
5.46200	16157
5.46267	16151
5.46333	16144
5.46400	16137
5.46467	16130
5.46533	16123
5.46600	16115
5.46667	16108
5.46733	16101
5.46800	16094
5.46867	16087
5.46933	16079
5.47000	16072
5.47067	16065
5.47133	16057
5.47200	16050
5.47267	16043
5.47333	16036
5.47400	16029
5.47467	16021
5.47533	16014
5.47600	16007
5.47667	16000
5.47733	15993
5.47800	15986
5.47867	15979
5.47933	15972
5.48000	15965
5.48067	15958
5.48133	15952
5.48200	15945
5.48267	15938
5.48333	15931
5.48400	15925
5.48467	15918
5.48533	15911
5.48600	15905
5.48667	15898
5.48733	15892
5.48800	15885
5.48867	15879
5.48933	15873
5.49000	15866
5.49067	15860
5.49133	15854
5.49200	15847
5.49267	15841
5.49333	15834
5.49400	15828
5.49467	15821
5.49533	15815
5.49600	15808
5.49667	15802
5.49733	15795
5.49800	15789
5.49867	15782
5.49933	15776
5.50000	15769
5.50067	15763
5.50133	15756
5.50200	15749
5.50267	15743
5.50333	15736
5.50400	15730
5.50467	15723
5.50533	15717
5.50600	15710
5.50667	15704
5.50733	15698
5.50800	15692
5.50867	15686
5.50933	15680
5.51000	15674
5.51067	15668
5.51133	15662
5.51200	15656
5.51267	15650
5.51333	15644
5.51400	15638
5.51467	15632
5.51533	15627
5.51600	15621
5.51667	15615
5.51733	15610
5.51800	15604
5.51867	15599
5.51933	15593
5.52000	15588
5.52067	15582
5.52133	15577
5.52200	15571
5.52267	15566
5.52333	15560
5.52400	15555
5.52467	15550
5.52533	15544
5.52600	15539
5.52667	15533
5.52733	15528
5.52800	15522
5.52867	15517
5.52933	15512
5.53000	15506
5.53067	15501
5.53133	15496
5.53200	15490
5.53267	15485
5.53333	15480
5.53400	15474
5.53467	15469
5.53533	15464
5.53600	15458
5.53667	15453
5.53733	15448
5.53800	15442
5.53867	15437
5.53933	15432
5.54000	15427
5.54067	15422
5.54133	15417
5.54200	15411
5.54267	15406
5.54333	15401
5.54400	15396
5.54467	15392
5.54533	15387
5.54600	15382
5.54667	15377
5.54733	15373
5.54800	15368
5.54867	15363
5.54933	15359
5.55000	15354
5.55067	15349
5.55133	15345
5.55200	15340
5.55267	15335
5.55333	15331
5.55400	15326
5.55467	15321
5.55533	15317
5.55600	15312
5.55667	15307
5.55733	15303
5.55800	15298
5.55867	15294
5.55933	15290
5.56000	15285
5.56067	15281
5.56133	15277
5.56200	15272
5.56267	15268
5.56333	15264
5.56400	15260
5.56467	15256
5.56533	15252
5.56600	15248
5.56667	15244
5.56733	15240
5.56800	15236
5.56867	15232
5.56933	15228
5.57000	15224
5.57067	15221
5.57133	15217
5.57200	15213
5.57267	15209
5.57333	15206
5.57400	15202
5.57467	15199
5.57533	15195
5.57600	15191
5.57667	15188
5.57733	15184
5.57800	15181
5.57867	15177
5.57933	15174
5.58000	15170
5.58067	15167
5.58133	15163
5.58200	15160
5.58267	15156
5.58333	15153
5.58400	15149
5.58467	15145
5.58533	15142
5.58600	15138
5.58667	15134
5.58733	15130
5.58800	15126
5.58867	15122
5.58933	15118
5.59000	15114
5.59067	15110
5.59133	15106
5.59200	15102
5.59267	15098
5.59333	15094
5.59400	15090
5.59467	15086
5.59533	15082
5.59600	15078
5.59667	15074
5.59733	15069
5.59800	15065
5.59867	15061
5.59933	15057
5.60000	15053
5.60067	15049
5.60133	15045
5.60200	15041
5.60267	15037
5.60333	15033
5.60400	15029
5.60467	15026
5.60533	15022
5.60600	15018
5.60667	15014
5.60733	15010
5.60800	15006
5.60867	15002
5.60933	14999
5.61000	14995
5.61067	14991
5.61133	14987
5.61200	14983
5.61267	14979
5.61333	14976
5.61400	14972
5.61467	14968
5.61533	14964
5.61600	14960
5.61667	14956
5.61733	14952
5.61800	14949
5.61867	14945
5.61933	14941
5.62000	14937
5.62067	14933
5.62133	14929
5.62200	14925
5.62267	14922
5.62333	14918
5.62400	14914
5.62467	14910
5.62533	14906
5.62600	14902
5.62667	14899
5.62733	14895
5.62800	14891
5.62867	14887
5.62933	14883
5.63000	14880
5.63067	14876
5.63133	14872
5.63200	14869
5.63267	14865
5.63333	14861
5.63400	14858
5.63467	14854
5.63533	14851
5.63600	14847
5.63667	14843
5.63733	14840
5.63800	14836
5.63867	14832
5.63933	14829
5.64000	14825
5.64067	14821
5.64133	14818
5.64200	14814
5.64267	14810
5.64333	14806
5.64400	14802
5.64467	14798
5.64533	14794
5.64600	14791
5.64667	14787
5.64733	14783
5.64800	14779
5.64867	14775
5.64933	14771
5.65000	14767
5.65067	14763
5.65133	14759
5.65200	14755
5.65267	14751
5.65333	14748
5.65400	14744
5.65467	14740
5.65533	14736
5.65600	14732
5.65667	14729
5.65733	14725
5.65800	14721
5.65867	14717
5.65933	14714
5.66000	14710
5.66067	14706
5.66133	14703
5.66200	14699
5.66267	14695
5.66333	14691
5.66400	14688
5.66467	14684
5.66533	14680
5.66600	14676
5.66667	14672
5.66733	14668
5.66800	14664
5.66867	14660
5.66933	14656
5.67000	14652
5.67067	14648
5.67133	14644
5.67200	14640
5.67267	14636
5.67333	14633
5.67400	14629
5.67467	14625
5.67533	14621
5.67600	14617
5.67667	14613
5.67733	14609
5.67800	14605
5.67867	14602
5.67933	14598
5.68000	14594
5.68067	14590
5.68133	14586
5.68200	14583
5.68267	14579
5.68333	14575
5.68400	14571
5.68467	14567
5.68533	14564
5.68600	14560
5.68667	14556
5.68733	14553
5.68800	14549
5.68867	14546
5.68933	14543
5.69000	14539
5.69067	14536
5.69133	14533
5.69200	14530
5.69267	14527
5.69333	14524
5.69400	14521
5.69467	14518
5.69533	14516
5.69600	14513
5.69667	14510
5.69733	14507
5.69800	14504
5.69867	14502
5.69933	14499
5.70000	14496
5.70067	14493
5.70133	14490
5.70200	14487
5.70267	14485
5.70333	14482
5.70400	14479
5.70467	14476
5.70533	14473
5.70600	14470
5.70667	14467
5.70733	14464
5.70800	14461
5.70867	14458
5.70933	14455
5.71000	14452
5.71067	14448
5.71133	14445
5.71200	14442
5.71267	14439
5.71333	14436
5.71400	14432
5.71467	14429
5.71533	14426
5.71600	14423
5.71667	14419
5.71733	14416
5.71800	14413
5.71867	14410
5.71933	14407
5.72000	14403
5.72067	14400
5.72133	14397
5.72200	14394
5.72267	14391
5.72333	14388
5.72400	14385
5.72467	14382
5.72533	14379
5.72600	14376
5.72667	14374
5.72733	14371
5.72800	14368
5.72867	14365
5.72933	14363
5.73000	14360
5.73067	14357
5.73133	14354
5.73200	14352
5.73267	14349
5.73333	14347
5.73400	14344
5.73467	14342
5.73533	14339
5.73600	14337
5.73667	14334
5.73733	14332
5.73800	14330
5.73867	14327
5.73933	14325
5.74000	14323
5.74067	14321
5.74133	14319
5.74200	14316
5.74267	14314
5.74333	14312
5.74400	14310
5.74467	14308
5.74533	14306
5.74600	14304
5.74667	14302
5.74733	14300
5.74800	14299
5.74867	14297
5.74933	14295
5.75000	14293
5.75067	14292
5.75133	14290
5.75200	14289
5.75267	14287
5.75333	14286
5.75400	14284
5.75467	14283
5.75533	14282
5.75600	14281
5.75667	14279
5.75733	14278
5.75800	14277
5.75867	14276
5.75933	14275
5.76000	14274
5.76067	14273
5.76133	14272
5.76200	14272
5.76267	14271
5.76333	14270
5.76400	14269
5.76467	14269
5.76533	14268
5.76600	14267
5.76667	14267
5.76733	14266
5.76800	14266
5.76867	14265
5.76933	14265
5.77000	14265
5.77067	14264
5.77133	14264
5.77200	14264
5.77267	14264
5.77333	14264
5.77400	14265
5.77467	14265
5.77533	14265
5.77600	14266
5.77667	14266
5.77733	14267
5.77800	14267
5.77867	14268
5.77933	14269
5.78000	14270
5.78067	14271
5.78133	14272
5.78200	14273
5.78267	14274
5.78333	14275
5.78400	14276
5.78467	14277
5.78533	14278
5.78600	14279
5.78667	14281
5.78733	14282
5.78800	14283
5.78867	14285
5.78933	14286
5.79000	14287
5.79067	14289
5.79133	14291
5.79200	14292
5.79267	14294
5.79333	14296
5.79400	14298
5.79467	14300
5.79533	14302
5.79600	14304
5.79667	14306
5.79733	14308
5.79800	14310
5.79867	14312
5.79933	14315
5.80000	14317
5.80067	14319
5.80133	14322
5.80200	14324
5.80267	14326
5.80333	14329
5.80400	14331
5.80467	14334
5.80533	14336
5.80600	14339
5.80667	14342
5.80733	14345
5.80800	14348
5.80867	14351
5.80933	14354
5.81000	14357
5.81067	14361
5.81133	14364
5.81200	14367
5.81267	14371
5.81333	14374
5.81400	14378
5.81467	14382
5.81533	14386
5.81600	14389
5.81667	14393
5.81733	14397
5.81800	14401
5.81867	14405
5.81933	14410
5.82000	14414
5.82067	14418
5.82133	14423
5.82200	14427
5.82267	14431
5.82333	14436
5.82400	14441
5.82467	14445
5.82533	14450
5.82600	14455
5.82667	14460
5.82733	14464
5.82800	14469
5.82867	14474
5.82933	14478
5.83000	14483
5.83067	14488
5.83133	14492
5.83200	14497
5.83267	14501
5.83333	14505
5.83400	14510
5.83467	14514
5.83533	14518
5.83600	14523
5.83667	14527
5.83733	14531
5.83800	14535
5.83867	14539
5.83933	14544
5.84000	14548
5.84067	14552
5.84133	14556
5.84200	14560
5.84267	14564
5.84333	14569
5.84400	14573
5.84467	14577
5.84533	14581
5.84600	14585
5.84667	14589
5.84733	14593
5.84800	14596
5.84867	14600
5.84933	14604
5.85000	14607
5.85067	14611
5.85133	14614
5.85200	14618
5.85267	14621
5.85333	14624
5.85400	14627
5.85467	14630
5.85533	14633
5.85600	14636
5.85667	14639
5.85733	14642
5.85800	14645
5.85867	14647
5.85933	14650
5.86000	14653
5.86067	14655
5.86133	14658
5.86200	14660
5.86267	14662
5.86333	14664
5.86400	14666
5.86467	14669
5.86533	14671
5.86600	14673
5.86667	14674
5.86733	14676
5.86800	14678
5.86867	14680
5.86933	14681
5.87000	14683
5.87067	14684
5.87133	14685
5.87200	14686
5.87267	14688
5.87333	14689
5.87400	14689
5.87467	14690
5.87533	14691
5.87600	14692
5.87667	14692
5.87733	14693
5.87800	14693
5.87867	14694
5.87933	14694
5.88000	14694
5.88067	14694
5.88133	14694
5.88200	14693
5.88267	14693
5.88333	14693
5.88400	14692
5.88467	14692
5.88533	14691
5.88600	14691
5.88667	14690
5.88733	14689
5.88800	14689
5.88867	14688
5.88933	14687
5.89000	14686
5.89067	14685
5.89133	14684
5.89200	14682
5.89267	14681
5.89333	14679
5.89400	14678
5.89467	14676
5.89533	14674
5.89600	14672
5.89667	14670
5.89733	14668
5.89800	14666
5.89867	14664
5.89933	14661
5.90000	14659
5.90067	14656
5.90133	14653
5.90200	14651
5.90267	14648
5.90333	14645
5.90400	14642
5.90467	14638
5.90533	14635
5.90600	14632
5.90667	14628
5.90733	14625
5.90800	14621
5.90867	14617
5.90933	14613
5.91000	14609
5.91067	14606
5.91133	14601
5.91200	14597
5.91267	14593
5.91333	14589
5.91400	14585
5.91467	14581
5.91533	14576
5.91600	14572
5.91667	14568
5.91733	14563
5.91800	14559
5.91867	14554
5.91933	14550
5.92000	14545
5.92067	14540
5.92133	14536
5.92200	14531
5.92267	14526
5.92333	14522
5.92400	14517
5.92467	14512
5.92533	14507
5.92600	14503
5.92667	14498
5.92733	14493
5.92800	14488
5.92867	14484
5.92933	14479
5.93000	14474
5.93067	14469
5.93133	14464
5.93200	14459
5.93267	14454
5.93333	14450
5.93400	14445
5.93467	14440
5.93533	14436
5.93600	14432
5.93667	14427
5.93733	14423
5.93800	14418
5.93867	14414
5.93933	14409
5.94000	14405
5.94067	14400
5.94133	14396
5.94200	14392
5.94267	14387
5.94333	14383
5.94400	14379
5.94467	14375
5.94533	14371
5.94600	14366
5.94667	14362
5.94733	14358
5.94800	14354
5.94867	14350
5.94933	14346
5.95000	14342
5.95067	14338
5.95133	14334
5.95200	14331
5.95267	14327
5.95333	14323
5.95400	14319
5.95467	14315
5.95533	14311
5.95600	14307
5.95667	14304
5.95733	14300
5.95800	14296
5.95867	14292
5.95933	14289
5.96000	14285
5.96067	14281
5.96133	14278
5.96200	14274
5.96267	14270
5.96333	14267
5.96400	14263
5.96467	14259
5.96533	14256
5.96600	14252
5.96667	14249
5.96733	14245
5.96800	14242
5.96867	14239
5.96933	14235
5.97000	14232
5.97067	14228
5.97133	14225
5.97200	14222
5.97267	14218
5.97333	14215
5.97400	14212
5.97467	14208
5.97533	14205
5.97600	14202
5.97667	14199
5.97733	14196
5.97800	14193
5.97867	14190
5.97933	14187
5.98000	14184
5.98067	14181
5.98133	14178
5.98200	14176
5.98267	14173
5.98333	14170
5.98400	14168
5.98467	14165
5.98533	14163
5.98600	14160
5.98667	14158
5.98733	14156
5.98800	14153
5.98867	14151
5.98933	14149
5.99000	14147
5.99067	14145
5.99133	14142
5.99200	14140
5.99267	14138
5.99333	14136
5.99400	14134
5.99467	14132
5.99533	14130
5.99600	14128
5.99667	14126
5.99733	14123
5.99800	14121
5.99867	14119
5.99933	14118
6.00000	14116
6.00067	14114
6.00133	14112
6.00200	14110
6.00267	14108
6.00333	14107
6.00400	14105
6.00467	14103
6.00533	14102
6.00600	14100
6.00667	14099
6.00733	14097
6.00800	14095
6.00867	14094
6.00933	14092
6.01000	14091
6.01067	14089
6.01133	14088
6.01200	14087
6.01267	14085
6.01333	14084
6.01400	14082
6.01467	14081
6.01533	14080
6.01600	14079
6.01667	14077
6.01733	14076
6.01800	14075
6.01867	14074
6.01933	14073
6.02000	14072
6.02067	14071
6.02133	14070
6.02200	14069
6.02267	14067
6.02333	14066
6.02400	14065
6.02467	14064
6.02533	14063
6.02600	14062
6.02667	14061
6.02733	14060
6.02800	14059
6.02867	14058
6.02933	14057
6.03000	14056
6.03067	14055
6.03133	14054
6.03200	14053
6.03267	14052
6.03333	14051
6.03400	14049
6.03467	14048
6.03533	14047
6.03600	14047
6.03667	14046
6.03733	14045
6.03800	14044
6.03867	14043
6.03933	14042
6.04000	14041
6.04067	14041
6.04133	14040
6.04200	14039
6.04267	14038
6.04333	14037
6.04400	14037
6.04467	14036
6.04533	14035
6.04600	14034
6.04667	14034
6.04733	14033
6.04800	14032
6.04867	14032
6.04933	14031
6.05000	14031
6.05067	14030
6.05133	14029
6.05200	14029
6.05267	14028
6.05333	14027
6.05400	14027
6.05467	14026
6.05533	14026
6.05600	14025
6.05667	14024
6.05733	14023
6.05800	14023
6.05867	14022
6.05933	14021
6.06000	14021
6.06067	14020
6.06133	14019
6.06200	14018
6.06267	14018
6.06333	14017
6.06400	14016
6.06467	14015
6.06533	14015
6.06600	14014
6.06667	14013
6.06733	14013
6.06800	14012
6.06867	14011
6.06933	14011
6.07000	14010
6.07067	14009
6.07133	14009
6.07200	14008
6.07267	14007
6.07333	14007
6.07400	14006
6.07467	14005
6.07533	14005
6.07600	14004
6.07667	14003
6.07733	14002
6.07800	14001
6.07867	14001
6.07933	14000
6.08000	13999
6.08067	13999
6.08133	13998
6.08200	13997
6.08267	13997
6.08333	13996
6.08400	13995
6.08467	13995
6.08533	13994
6.08600	13993
6.08667	13993
6.08733	13992
6.08800	13991
6.08867	13991
6.08933	13990
6.09000	13989
6.09067	13989
6.09133	13988
6.09200	13987
6.09267	13987
6.09333	13986
6.09400	13985
6.09467	13985
6.09533	13984
6.09600	13984
6.09667	13983
6.09733	13982
6.09800	13982
6.09867	13981
6.09933	13980
6.10000	13980
6.10067	13979
6.10133	13979
6.10200	13978
6.10267	13978
6.10333	13977
6.10400	13977
6.10467	13976
6.10533	13976
6.10600	13975
6.10667	13975
6.10733	13974
6.10800	13974
6.10867	13974
6.10933	13973
6.11000	13973
6.11067	13973
6.11133	13973
6.11200	13973
6.11267	13973
6.11333	13973
6.11400	13972
6.11467	13972
6.11533	13972
6.11600	13972
6.11667	13972
6.11733	13972
6.11800	13972
6.11867	13971
6.11933	13971
6.12000	13971
6.12067	13971
6.12133	13971
6.12200	13971
6.12267	13971
6.12333	13971
6.12400	13971
6.12467	13971
6.12533	13971
6.12600	13971
6.12667	13971
6.12733	13971
6.12800	13971
6.12867	13971
6.12933	13970
6.13000	13970
6.13067	13970
6.13133	13970
6.13200	13970
6.13267	13970
6.13333	13969
6.13400	13969
6.13467	13969
6.13533	13969
6.13600	13969
6.13667	13968
6.13733	13968
6.13800	13968
6.13867	13968
6.13933	13968
6.14000	13968
6.14067	13967
6.14133	13967
6.14200	13967
6.14267	13967
6.14333	13966
6.14400	13966
6.14467	13966
6.14533	13965
6.14600	13965
6.14667	13964
6.14733	13964
6.14800	13963
6.14867	13963
6.14933	13962
6.15000	13962
6.15067	13961
6.15133	13961
6.15200	13960
6.15267	13960
6.15333	13959
6.15400	13959
6.15467	13958
6.15533	13957
6.15600	13957
6.15667	13956
6.15733	13955
6.15800	13954
6.15867	13954
6.15933	13953
6.16000	13952
6.16067	13951
6.16133	13950
6.16200	13950
6.16267	13949
6.16333	13948
6.16400	13947
6.16467	13946
6.16533	13945
6.16600	13944
6.16667	13943
6.16733	13942
6.16800	13941
6.16867	13940
6.16933	13939
6.17000	13938
6.17067	13937
6.17133	13937
6.17200	13936
6.17267	13935
6.17333	13934
6.17400	13933
6.17467	13932
6.17533	13932
6.17600	13931
6.17667	13930
6.17733	13929
6.17800	13928
6.17867	13928
6.17933	13927
6.18000	13926
6.18067	13925
6.18133	13925
6.18200	13924
6.18267	13923
6.18333	13922
6.18400	13921
6.18467	13920
6.18533	13919
6.18600	13919
6.18667	13918
6.18733	13917
6.18800	13916
6.18867	13915
6.18933	13914
6.19000	13914
6.19067	13913
6.19133	13912
6.19200	13911
6.19267	13910
6.19333	13910
6.19400	13909
6.19467	13908
6.19533	13907
6.19600	13906
6.19667	13905
6.19733	13904
6.19800	13903
6.19867	13902
6.19933	13901
6.20000	13900
6.20067	13900
6.20133	13899
6.20200	13898
6.20267	13897
6.20333	13896
6.20400	13895
6.20467	13894
6.20533	13894
6.20600	13893
6.20667	13892
6.20733	13891
6.20800	13890
6.20867	13890
6.20933	13889
6.21000	13888
6.21067	13887
6.21133	13887
6.21200	13886
6.21267	13885
6.21333	13884
6.21400	13883
6.21467	13883
6.21533	13882
6.21600	13881
6.21667	13881
6.21733	13880
6.21800	13879
6.21867	13878
6.21933	13878
6.22000	13877
6.22067	13876
6.22133	13876
6.22200	13875
6.22267	13875
6.22333	13874
6.22400	13873
6.22467	13873
6.22533	13872
6.22600	13872
6.22667	13871
6.22733	13871
6.22800	13870
6.22867	13870
6.22933	13869
6.23000	13869
6.23067	13868
6.23133	13868
6.23200	13867
6.23267	13867
6.23333	13866
6.23400	13866
6.23467	13866
6.23533	13865
6.23600	13865
6.23667	13865
6.23733	13865
6.23800	13864
6.23867	13864
6.23933	13864
6.24000	13864
6.24067	13864
6.24133	13864
6.24200	13865
6.24267	13865
6.24333	13865
6.24400	13865
6.24467	13865
6.24533	13865
6.24600	13865
6.24667	13866
6.24733	13866
6.24800	13866
6.24867	13866
6.24933	13866
6.25000	13866
6.25067	13866
6.25133	13866
6.25200	13867
6.25267	13867
6.25333	13867
6.25400	13867
6.25467	13867
6.25533	13867
6.25600	13867
6.25667	13868
6.25733	13868
6.25800	13868
6.25867	13868
6.25933	13868
6.26000	13868
6.26067	13868
6.26133	13868
6.26200	13868
6.26267	13868
6.26333	13868
6.26400	13868
6.26467	13868
6.26533	13868
6.26600	13868
6.26667	13868
6.26733	13868
6.26800	13868
6.26867	13868
6.26933	13869
6.27000	13869
6.27067	13869
6.27133	13869
6.27200	13870
6.27267	13870
6.27333	13870
6.27400	13870
6.27467	13870
6.27533	13871
6.27600	13871
6.27667	13871
6.27733	13871
6.27800	13871
6.27867	13872
6.27933	13872
6.28000	13872
6.28067	13872
6.28133	13872
6.28200	13872
6.28267	13872
6.28333	13873
6.28400	13873
6.28467	13873
6.28533	13873
6.28600	13874
6.28667	13874
6.28733	13874
6.28800	13875
6.28867	13875
6.28933	13875
6.29000	13876
6.29067	13876
6.29133	13876
6.29200	13877
6.29267	13877
6.29333	13877
6.29400	13878
6.29467	13878
6.29533	13878
6.29600	13878
6.29667	13879
6.29733	13879
6.29800	13879
6.29867	13879
6.29933	13879
6.30000	13879
6.30067	13880
6.30133	13880
6.30200	13880
6.30267	13880
6.30333	13880
6.30400	13880
6.30467	13880
6.30533	13880
6.30600	13880
6.30667	13880
6.30733	13880
6.30800	13880
6.30867	13880
6.30933	13879
6.31000	13879
6.31067	13879
6.31133	13879
6.31200	13879
6.31267	13879
6.31333	13878
6.31400	13878
6.31467	13878
6.31533	13878
6.31600	13877
6.31667	13877
6.31733	13877
6.31800	13877
6.31867	13876
6.31933	13876
6.32000	13876
6.32067	13875
6.32133	13875
6.32200	13874
6.32267	13874
6.32333	13874
6.32400	13873
6.32467	13873
6.32533	13872
6.32600	13872
6.32667	13871
6.32733	13871
6.32800	13871
6.32867	13870
6.32933	13870
6.33000	13869
6.33067	13869
6.33133	13869
6.33200	13868
6.33267	13868
6.33333	13868
6.33400	13867
6.33467	13867
6.33533	13867
6.33600	13866
6.33667	13866
6.33733	13866
6.33800	13866
6.33867	13865
6.33933	13865
6.34000	13865
6.34067	13865
6.34133	13865
6.34200	13865
6.34267	13865
6.34333	13865
6.34400	13865
6.34467	13865
6.34533	13865
6.34600	13865
6.34667	13865
6.34733	13865
6.34800	13865
6.34867	13865
6.34933	13865
6.35000	13865
6.35067	13865
6.35133	13865
6.35200	13865
6.35267	13865
6.35333	13865
6.35400	13865
6.35467	13865
6.35533	13865
6.35600	13865
6.35667	13865
6.35733	13865
6.35800	13865
6.35867	13866
6.35933	13866
6.36000	13866
6.36067	13866
6.36133	13866
6.36200	13866
6.36267	13867
6.36333	13867
6.36400	13867
6.36467	13867
6.36533	13867
6.36600	13867
6.36667	13867
6.36733	13867
6.36800	13866
6.36867	13866
6.36933	13866
6.37000	13866
6.37067	13865
6.37133	13865
6.37200	13865
6.37267	13864
6.37333	13864
6.37400	13863
6.37467	13863
6.37533	13862
6.37600	13862
6.37667	13861
6.37733	13861
6.37800	13860
6.37867	13860
6.37933	13859
6.38000	13859
6.38067	13858
6.38133	13858
6.38200	13857
6.38267	13857
6.38333	13856
6.38400	13856
6.38467	13855
6.38533	13855
6.38600	13854
6.38667	13854
6.38733	13853
6.38800	13853
6.38867	13853
6.38933	13852
6.39000	13852
6.39067	13851
6.39133	13851
6.39200	13851
6.39267	13850
6.39333	13850
6.39400	13849
6.39467	13849
6.39533	13849
6.39600	13848
6.39667	13848
6.39733	13847
6.39800	13846
6.39867	13846
6.39933	13846

