[Header]
Application Name	LabSolutions
Version	5.73
Data File Name	C:\LabSolutions\Data\Project1\stephen\2016-01-04\6.gcd
Output Date	1/5/2016
Output Time	4:51:29 PM

[Configuration]
Instrument Name	WEISSTA-PC-Instrument1
Instrument #	1
Line #	1
# of Detectors	1
Detector ID	DET#2
Detector Name	DFID1
# of Channels	1

[Chromatogram (Ch1)]
Interval(msec)	40
# of Points	9599
Start Time(min)	0.001
End Time(min)	6.399
R.Time (min)	Intensity
0.00067	-2
0.00133	-2
0.00200	-2
0.00267	-1
0.00333	-1
0.00400	-1
0.00467	-1
0.00533	-0
0.00600	0
0.00667	1
0.00733	1
0.00800	2
0.00867	3
0.00933	4
0.01000	6
0.01067	7
0.01133	9
0.01200	10
0.01267	12
0.01333	14
0.01400	17
0.01467	19
0.01533	21
0.01600	24
0.01667	26
0.01733	29
0.01800	31
0.01867	34
0.01933	36
0.02000	38
0.02067	41
0.02133	43
0.02200	45
0.02267	46
0.02333	48
0.02400	49
0.02467	51
0.02533	52
0.02600	53
0.02667	54
0.02733	54
0.02800	55
0.02867	56
0.02933	56
0.03000	56
0.03067	57
0.03133	57
0.03200	57
0.03267	57
0.03333	57
0.03400	57
0.03467	57
0.03533	56
0.03600	56
0.03667	56
0.03733	55
0.03800	55
0.03867	55
0.03933	54
0.04000	54
0.04067	53
0.04133	53
0.04200	52
0.04267	52
0.04333	51
0.04400	51
0.04467	50
0.04533	50
0.04600	49
0.04667	48
0.04733	48
0.04800	47
0.04867	47
0.04933	46
0.05000	46
0.05067	45
0.05133	45
0.05200	44
0.05267	44
0.05333	43
0.05400	43
0.05467	42
0.05533	42
0.05600	41
0.05667	41
0.05733	40
0.05800	40
0.05867	39
0.05933	39
0.06000	38
0.06067	38
0.06133	38
0.06200	37
0.06267	37
0.06333	36
0.06400	36
0.06467	36
0.06533	35
0.06600	35
0.06667	35
0.06733	34
0.06800	34
0.06867	34
0.06933	34
0.07000	34
0.07067	33
0.07133	33
0.07200	33
0.07267	33
0.07333	33
0.07400	33
0.07467	34
0.07533	34
0.07600	34
0.07667	34
0.07733	34
0.07800	34
0.07867	34
0.07933	34
0.08000	34
0.08067	34
0.08133	35
0.08200	35
0.08267	35
0.08333	35
0.08400	35
0.08467	37
0.08533	39
0.08600	45
0.08667	59
0.08733	81
0.08800	115
0.08867	167
0.08933	240
0.09000	328
0.09067	426
0.09133	538
0.09200	680
0.09267	877
0.09333	1116
0.09400	1395
0.09467	1729
0.09533	2095
0.09600	2511
0.09667	2989
0.09733	3511
0.09800	4049
0.09867	4599
0.09933	5192
0.10000	5793
0.10067	6448
0.10133	7142
0.10200	7856
0.10267	8613
0.10333	9355
0.10400	10066
0.10467	10787
0.10533	11485
0.10600	12216
0.10667	13004
0.10733	13852
0.10800	14686
0.10867	15476
0.10933	16244
0.11000	17037
0.11067	17795
0.11133	18520
0.11200	19216
0.11267	19865
0.11333	20478
0.11400	21065
0.11467	21630
0.11533	22145
0.11600	22602
0.11667	23009
0.11733	23387
0.11800	23741
0.11867	24069
0.11933	24389
0.12000	24696
0.12067	25004
0.12133	25320
0.12200	25624
0.12267	25892
0.12333	26123
0.12400	26327
0.12467	26500
0.12533	26647
0.12600	26767
0.12667	26845
0.12733	26883
0.12800	26901
0.12867	26923
0.12933	26917
0.13000	26884
0.13067	26877
0.13133	27151
0.13200	28596
0.13267	33563
0.13333	47613
0.13400	81371
0.13467	154117
0.13533	294485
0.13600	539287
0.13667	926474
0.13733	1493352
0.13800	2271159
0.13867	3285852
0.13933	4555297
0.14000	6091682
0.14067	7900717
0.14133	9984049
0.14200	12340053
0.14267	14965953
0.14333	17858168
0.14400	21011655
0.14467	24418141
0.14533	28066143
0.14600	31942674
0.14667	36036549
0.14733	40337276
0.14800	44831627
0.14867	49503152
0.14933	54332935
0.15000	59300716
0.15067	64386146
0.15133	69569551
0.15200	74832491
0.15267	80157524
0.15333	85528089
0.15400	90928532
0.15467	96344138
0.15533	101760989
0.15600	107166077
0.15667	112546730
0.15733	117891456
0.15800	123189486
0.15867	128430837
0.15933	133606119
0.16000	138706180
0.16067	143722611
0.16133	148647773
0.16200	153474729
0.16267	158196965
0.16333	162808295
0.16400	167302768
0.16467	171675114
0.16533	175920187
0.16600	180033135
0.16667	184009056
0.16733	187843450
0.16800	191531845
0.16867	195070368
0.16933	198454433
0.17000	201679633
0.17067	204741684
0.17133	207636861
0.17200	210361668
0.17267	212912963
0.17333	215287760
0.17400	217483694
0.17467	219498856
0.17533	221332068
0.17600	222982983
0.17667	224451932
0.17733	225740050
0.17800	226848977
0.17867	227780811
0.17933	228537867
0.18000	229123029
0.18067	229539395
0.18133	229790705
0.18200	229880747
0.18267	229813733
0.18333	229593932
0.18400	229225901
0.18467	228714118
0.18533	228063312
0.18600	227278037
0.18667	226362966
0.18733	225322797
0.18800	224162405
0.18867	222886737
0.18933	221500814
0.19000	220009621
0.19067	218418143
0.19133	216731410
0.19200	214954493
0.19267	213092483
0.19333	211150404
0.19400	209133301
0.19467	207046141
0.19533	204893948
0.19600	202681657
0.19667	200414280
0.19733	198096749
0.19800	195733981
0.19867	193330770
0.19933	190891811
0.20000	188421494
0.20067	185924025
0.20133	183403397
0.20200	180863441
0.20267	178307804
0.20333	175740153
0.20400	173164370
0.20467	170584451
0.20533	168003988
0.20600	165425793
0.20667	162851999
0.20733	160284314
0.20800	157724300
0.20867	155173459
0.20933	152633282
0.21000	150105324
0.21067	147591212
0.21133	145092564
0.21200	142611021
0.21267	140148153
0.21333	137705461
0.21400	135284372
0.21467	132886247
0.21533	130512350
0.21600	128163871
0.21667	125841911
0.21733	123547498
0.21800	121281573
0.21867	119045007
0.21933	116838587
0.22000	114663016
0.22067	112518912
0.22133	110406815
0.22200	108327179
0.22267	106280364
0.22333	104266651
0.22400	102286260
0.22467	100339352
0.22533	98426035
0.22600	96546380
0.22667	94700415
0.22733	92888105
0.22800	91109358
0.22867	89364043
0.22933	87651998
0.23000	85973035
0.23067	84326923
0.23133	82713392
0.23200	81132118
0.23267	79582746
0.23333	78064903
0.23400	76578227
0.23467	75122328
0.23533	73696765
0.23600	72301066
0.23667	70934765
0.23733	69597408
0.23800	68288527
0.23867	67007638
0.23933	65754258
0.24000	64527900
0.24067	63328075
0.24133	62154272
0.24200	61005966
0.24267	59882632
0.24333	58783744
0.24400	57708786
0.24467	56657235
0.24533	55628578
0.24600	54622296
0.24667	53637871
0.24733	52674775
0.24800	51732504
0.24867	50810546
0.24933	49908408
0.25000	49025602
0.25067	48161637
0.25133	47316032
0.25200	46488313
0.25267	45678012
0.25333	44884661
0.25400	44107804
0.25467	43346994
0.25533	42601788
0.25600	41871754
0.25667	41156474
0.25733	40455533
0.25800	39768544
0.25867	39095120
0.25933	38434893
0.26000	37787510
0.26067	37152629
0.26133	36529909
0.26200	35919024
0.26267	35319654
0.26333	34731499
0.26400	34154252
0.26467	33587622
0.26533	33031322
0.26600	32485088
0.26667	31948659
0.26733	31421771
0.26800	30904165
0.26867	30395595
0.26933	29895829
0.27000	29404649
0.27067	28921841
0.27133	28447191
0.27200	27980506
0.27267	27521592
0.27333	27070262
0.27400	26626330
0.27467	26189629
0.27533	25759999
0.27600	25337297
0.27667	24921381
0.27733	24512117
0.27800	24109373
0.27867	23713023
0.27933	23322945
0.28000	22939023
0.28067	22561144
0.28133	22189194
0.28200	21823064
0.28267	21462649
0.28333	21107848
0.28400	20758555
0.28467	20414675
0.28533	20076112
0.28600	19742777
0.28667	19414579
0.28733	19091427
0.28800	18773230
0.28867	18459902
0.28933	18151357
0.29000	17847518
0.29067	17548307
0.29133	17253656
0.29200	16963503
0.29267	16677800
0.29333	16396511
0.29400	16119617
0.29467	15847106
0.29533	15578987
0.29600	15315277
0.29667	15056006
0.29733	14801200
0.29800	14550886
0.29867	14305085
0.29933	14063816
0.30000	13827088
0.30067	13594902
0.30133	13367246
0.30200	13144098
0.30267	12925428
0.30333	12711201
0.30400	12501375
0.30467	12295904
0.30533	12094739
0.30600	11897825
0.30667	11705102
0.30733	11516503
0.30800	11331960
0.30867	11151397
0.30933	10974729
0.31000	10801863
0.31067	10632700
0.31133	10467139
0.31200	10305080
0.31267	10146422
0.31333	9991064
0.31400	9838904
0.31467	9689844
0.31533	9543784
0.31600	9400634
0.31667	9260311
0.31733	9122735
0.31800	8987830
0.31867	8855526
0.31933	8725760
0.32000	8598470
0.32067	8473605
0.32133	8351110
0.32200	8230933
0.32267	8113019
0.32333	7997309
0.32400	7883737
0.32467	7772230
0.32533	7662713
0.32600	7555109
0.32667	7449342
0.32733	7345341
0.32800	7243031
0.32867	7142339
0.32933	7043186
0.33000	6945485
0.33067	6849151
0.33133	6754093
0.33200	6660221
0.33267	6567444
0.33333	6475670
0.33400	6384803
0.33467	6294752
0.33533	6205422
0.33600	6116723
0.33667	6028562
0.33733	5940852
0.33800	5853506
0.33867	5766445
0.33933	5679595
0.34000	5592895
0.34067	5506295
0.34133	5419760
0.34200	5333268
0.34267	5246817
0.34333	5160415
0.34400	5074087
0.34467	4987868
0.34533	4901802
0.34600	4815941
0.34667	4730342
0.34733	4645065
0.34800	4560170
0.34867	4475722
0.34933	4391779
0.35000	4308403
0.35067	4225649
0.35133	4143573
0.35200	4062227
0.35267	3981659
0.35333	3901917
0.35400	3823042
0.35467	3745073
0.35533	3668046
0.35600	3591992
0.35667	3516940
0.35733	3442916
0.35800	3369943
0.35867	3298040
0.35933	3227224
0.36000	3157510
0.36067	3088910
0.36133	3021434
0.36200	2955090
0.36267	2889883
0.36333	2825816
0.36400	2762892
0.36467	2701110
0.36533	2640469
0.36600	2580965
0.36667	2522594
0.36733	2465351
0.36800	2409232
0.36867	2354232
0.36933	2300344
0.37000	2247561
0.37067	2195875
0.37133	2145275
0.37200	2095749
0.37267	2047287
0.37333	1999874
0.37400	1953498
0.37467	1908145
0.37533	1863801
0.37600	1820452
0.37667	1778082
0.37733	1736677
0.37800	1696221
0.37867	1656699
0.37933	1618095
0.38000	1580394
0.38067	1543579
0.38133	1507634
0.38200	1472544
0.38267	1438291
0.38333	1404857
0.38400	1372224
0.38467	1340376
0.38533	1309301
0.38600	1278984
0.38667	1249413
0.38733	1220577
0.38800	1192464
0.38867	1165061
0.38933	1138355
0.39000	1112334
0.39067	1086985
0.39133	1062296
0.39200	1038254
0.39267	1014850
0.39333	992073
0.39400	969913
0.39467	948361
0.39533	927411
0.39600	907055
0.39667	887285
0.39733	868092
0.39800	849465
0.39867	831390
0.39933	813849
0.40000	796829
0.40067	780318
0.40133	764300
0.40200	748763
0.40267	733691
0.40333	719070
0.40400	704886
0.40467	691126
0.40533	677775
0.40600	664822
0.40667	652252
0.40733	640055
0.40800	628217
0.40867	616728
0.40933	605575
0.41000	594750
0.41067	584240
0.41133	574035
0.41200	564127
0.41267	554504
0.41333	545160
0.41400	536083
0.41467	527266
0.41533	518700
0.41600	510377
0.41667	502289
0.41733	494429
0.41800	486789
0.41867	479362
0.41933	472142
0.42000	465121
0.42067	458293
0.42133	451652
0.42200	445191
0.42267	438905
0.42333	432787
0.42400	426832
0.42467	421034
0.42533	415388
0.42600	409889
0.42667	404532
0.42733	399312
0.42800	394225
0.42867	389267
0.42933	384432
0.43000	379717
0.43067	375117
0.43133	370630
0.43200	366250
0.43267	361976
0.43333	357802
0.43400	353726
0.43467	349745
0.43533	345856
0.43600	342055
0.43667	338339
0.43733	334707
0.43800	331155
0.43867	327681
0.43933	324281
0.44000	320954
0.44067	317698
0.44133	314510
0.44200	311387
0.44267	308329
0.44333	305333
0.44400	302396
0.44467	299517
0.44533	296695
0.44600	293927
0.44667	291211
0.44733	288547
0.44800	285932
0.44867	283364
0.44933	280843
0.45000	278366
0.45067	275932
0.45133	273539
0.45200	271187
0.45267	268875
0.45333	266600
0.45400	264362
0.45467	262160
0.45533	259993
0.45600	257859
0.45667	255758
0.45733	253689
0.45800	251651
0.45867	249644
0.45933	247665
0.46000	245716
0.46067	243794
0.46133	241900
0.46200	240032
0.46267	238191
0.46333	236376
0.46400	234586
0.46467	232820
0.46533	231080
0.46600	229363
0.46667	227670
0.46733	226000
0.46800	224353
0.46867	222728
0.46933	221125
0.47000	219544
0.47067	217984
0.47133	216444
0.47200	214925
0.47267	213425
0.47333	211945
0.47400	210484
0.47467	209041
0.47533	207616
0.47600	206209
0.47667	204819
0.47733	203446
0.47800	202090
0.47867	200749
0.47933	199424
0.48000	198115
0.48067	196821
0.48133	195541
0.48200	194276
0.48267	193025
0.48333	191787
0.48400	190563
0.48467	189353
0.48533	188155
0.48600	186970
0.48667	185797
0.48733	184636
0.48800	183487
0.48867	182350
0.48933	181224
0.49000	180109
0.49067	179005
0.49133	177913
0.49200	176831
0.49267	175759
0.49333	174697
0.49400	173645
0.49467	172603
0.49533	171571
0.49600	170549
0.49667	169536
0.49733	168533
0.49800	167539
0.49867	166553
0.49933	165577
0.50000	164609
0.50067	163650
0.50133	162700
0.50200	161757
0.50267	160823
0.50333	159898
0.50400	158980
0.50467	158070
0.50533	157168
0.50600	156274
0.50667	155387
0.50733	154508
0.50800	153637
0.50867	152773
0.50933	151917
0.51000	151069
0.51067	150227
0.51133	149393
0.51200	148566
0.51267	147747
0.51333	146934
0.51400	146129
0.51467	145330
0.51533	144539
0.51600	143754
0.51667	142976
0.51733	142205
0.51800	141440
0.51867	140682
0.51933	139930
0.52000	139184
0.52067	138444
0.52133	137710
0.52200	136981
0.52267	136259
0.52333	135542
0.52400	134831
0.52467	134125
0.52533	133424
0.52600	132730
0.52667	132040
0.52733	131356
0.52800	130677
0.52867	130003
0.52933	129334
0.53000	128671
0.53067	128012
0.53133	127359
0.53200	126711
0.53267	126067
0.53333	125429
0.53400	124795
0.53467	124166
0.53533	123542
0.53600	122922
0.53667	122307
0.53733	121697
0.53800	121091
0.53867	120490
0.53933	119894
0.54000	119302
0.54067	118714
0.54133	118131
0.54200	117553
0.54267	116978
0.54333	116409
0.54400	115843
0.54467	115282
0.54533	114725
0.54600	114172
0.54667	113624
0.54733	113079
0.54800	112539
0.54867	112003
0.54933	111471
0.55000	110943
0.55067	110419
0.55133	109899
0.55200	109382
0.55267	108870
0.55333	108362
0.55400	107857
0.55467	107356
0.55533	106859
0.55600	106366
0.55667	105876
0.55733	105390
0.55800	104908
0.55867	104429
0.55933	103954
0.56000	103483
0.56067	103015
0.56133	102551
0.56200	102090
0.56267	101633
0.56333	101179
0.56400	100728
0.56467	100282
0.56533	99839
0.56600	99399
0.56667	98963
0.56733	98530
0.56800	98101
0.56867	97676
0.56933	97254
0.57000	96835
0.57067	96420
0.57133	96008
0.57200	95600
0.57267	95195
0.57333	94794
0.57400	94396
0.57467	94001
0.57533	93609
0.57600	93221
0.57667	92836
0.57733	92453
0.57800	92074
0.57867	91699
0.57933	91326
0.58000	90956
0.58067	90588
0.58133	90224
0.58200	89863
0.58267	89504
0.58333	89147
0.58400	88794
0.58467	88443
0.58533	88094
0.58600	87748
0.58667	87405
0.58733	87064
0.58800	86725
0.58867	86388
0.58933	86054
0.59000	85722
0.59067	85393
0.59133	85065
0.59200	84740
0.59267	84417
0.59333	84096
0.59400	83777
0.59467	83460
0.59533	83145
0.59600	82832
0.59667	82520
0.59733	82211
0.59800	81903
0.59867	81597
0.59933	81293
0.60000	80991
0.60067	80691
0.60133	80392
0.60200	80095
0.60267	79800
0.60333	79507
0.60400	79215
0.60467	78925
0.60533	78637
0.60600	78351
0.60667	78066
0.60733	77783
0.60800	77502
0.60867	77223
0.60933	76945
0.61000	76668
0.61067	76393
0.61133	76120
0.61200	75848
0.61267	75578
0.61333	75309
0.61400	75042
0.61467	74776
0.61533	74511
0.61600	74248
0.61667	73987
0.61733	73726
0.61800	73468
0.61867	73210
0.61933	72954
0.62000	72699
0.62067	72445
0.62133	72194
0.62200	71943
0.62267	71694
0.62333	71447
0.62400	71201
0.62467	70956
0.62533	70714
0.62600	70472
0.62667	70233
0.62733	69994
0.62800	69758
0.62867	69523
0.62933	69290
0.63000	69059
0.63067	68830
0.63133	68602
0.63200	68376
0.63267	68151
0.63333	67929
0.63400	67708
0.63467	67489
0.63533	67271
0.63600	67056
0.63667	66841
0.63733	66629
0.63800	66419
0.63867	66210
0.63933	66004
0.64000	65799
0.64067	65596
0.64133	65395
0.64200	65195
0.64267	64998
0.64333	64802
0.64400	64608
0.64467	64415
0.64533	64224
0.64600	64035
0.64667	63847
0.64733	63661
0.64800	63477
0.64867	63295
0.64933	63114
0.65000	62934
0.65067	62756
0.65133	62580
0.65200	62405
0.65267	62232
0.65333	62061
0.65400	61890
0.65467	61721
0.65533	61554
0.65600	61388
0.65667	61223
0.65733	61059
0.65800	60897
0.65867	60735
0.65933	60575
0.66000	60415
0.66067	60256
0.66133	60098
0.66200	59941
0.66267	59784
0.66333	59628
0.66400	59472
0.66467	59317
0.66533	59163
0.66600	59008
0.66667	58855
0.66733	58701
0.66800	58548
0.66867	58396
0.66933	58243
0.67000	58091
0.67067	57940
0.67133	57788
0.67200	57637
0.67267	57487
0.67333	57337
0.67400	57187
0.67467	57037
0.67533	56888
0.67600	56740
0.67667	56592
0.67733	56445
0.67800	56298
0.67867	56151
0.67933	56005
0.68000	55860
0.68067	55715
0.68133	55571
0.68200	55428
0.68267	55285
0.68333	55143
0.68400	55002
0.68467	54862
0.68533	54722
0.68600	54584
0.68667	54446
0.68733	54310
0.68800	54174
0.68867	54040
0.68933	53907
0.69000	53776
0.69067	53646
0.69133	53518
0.69200	53392
0.69267	53267
0.69333	53145
0.69400	53026
0.69467	52909
0.69533	52794
0.69600	52683
0.69667	52575
0.69733	52471
0.69800	52370
0.69867	52273
0.69933	52180
0.70000	52092
0.70067	52007
0.70133	51927
0.70200	51851
0.70267	51779
0.70333	51710
0.70400	51645
0.70467	51583
0.70533	51524
0.70600	51467
0.70667	51412
0.70733	51359
0.70800	51306
0.70867	51254
0.70933	51202
0.71000	51149
0.71067	51095
0.71133	51040
0.71200	50984
0.71267	50925
0.71333	50864
0.71400	50801
0.71467	50735
0.71533	50667
0.71600	50596
0.71667	50523
0.71733	50446
0.71800	50367
0.71867	50286
0.71933	50201
0.72000	50115
0.72067	50026
0.72133	49935
0.72200	49842
0.72267	49747
0.72333	49650
0.72400	49552
0.72467	49452
0.72533	49351
0.72600	49248
0.72667	49145
0.72733	49040
0.72800	48935
0.72867	48829
0.72933	48722
0.73000	48614
0.73067	48506
0.73133	48397
0.73200	48288
0.73267	48179
0.73333	48070
0.73400	47960
0.73467	47850
0.73533	47740
0.73600	47630
0.73667	47520
0.73733	47411
0.73800	47301
0.73867	47191
0.73933	47082
0.74000	46973
0.74067	46864
0.74133	46755
0.74200	46646
0.74267	46537
0.74333	46429
0.74400	46321
0.74467	46214
0.74533	46107
0.74600	46000
0.74667	45893
0.74733	45787
0.74800	45682
0.74867	45576
0.74933	45471
0.75000	45367
0.75067	45263
0.75133	45159
0.75200	45056
0.75267	44953
0.75333	44850
0.75400	44748
0.75467	44647
0.75533	44546
0.75600	44446
0.75667	44346
0.75733	44247
0.75800	44149
0.75867	44051
0.75933	43953
0.76000	43856
0.76067	43760
0.76133	43664
0.76200	43569
0.76267	43475
0.76333	43381
0.76400	43288
0.76467	43196
0.76533	43104
0.76600	43013
0.76667	42922
0.76733	42832
0.76800	42743
0.76867	42654
0.76933	42566
0.77000	42479
0.77067	42392
0.77133	42306
0.77200	42220
0.77267	42136
0.77333	42051
0.77400	41968
0.77467	41885
0.77533	41803
0.77600	41721
0.77667	41640
0.77733	41560
0.77800	41480
0.77867	41400
0.77933	41322
0.78000	41244
0.78067	41166
0.78133	41089
0.78200	41013
0.78267	40937
0.78333	40862
0.78400	40787
0.78467	40713
0.78533	40639
0.78600	40566
0.78667	40494
0.78733	40422
0.78800	40350
0.78867	40280
0.78933	40209
0.79000	40140
0.79067	40070
0.79133	40002
0.79200	39933
0.79267	39866
0.79333	39799
0.79400	39732
0.79467	39666
0.79533	39600
0.79600	39535
0.79667	39470
0.79733	39406
0.79800	39343
0.79867	39280
0.79933	39217
0.80000	39155
0.80067	39093
0.80133	39032
0.80200	38971
0.80267	38910
0.80333	38850
0.80400	38790
0.80467	38731
0.80533	38672
0.80600	38613
0.80667	38555
0.80733	38497
0.80800	38439
0.80867	38382
0.80933	38324
0.81000	38267
0.81067	38211
0.81133	38154
0.81200	38098
0.81267	38042
0.81333	37987
0.81400	37931
0.81467	37876
0.81533	37821
0.81600	37766
0.81667	37712
0.81733	37657
0.81800	37603
0.81867	37549
0.81933	37495
0.82000	37442
0.82067	37388
0.82133	37335
0.82200	37283
0.82267	37230
0.82333	37178
0.82400	37126
0.82467	37074
0.82533	37022
0.82600	36971
0.82667	36920
0.82733	36870
0.82800	36819
0.82867	36769
0.82933	36719
0.83000	36670
0.83067	36620
0.83133	36571
0.83200	36522
0.83267	36473
0.83333	36425
0.83400	36377
0.83467	36329
0.83533	36281
0.83600	36234
0.83667	36187
0.83733	36140
0.83800	36094
0.83867	36048
0.83933	36002
0.84000	35956
0.84067	35911
0.84133	35866
0.84200	35821
0.84267	35776
0.84333	35732
0.84400	35688
0.84467	35644
0.84533	35601
0.84600	35558
0.84667	35515
0.84733	35472
0.84800	35430
0.84867	35387
0.84933	35345
0.85000	35304
0.85067	35262
0.85133	35221
0.85200	35180
0.85267	35139
0.85333	35098
0.85400	35058
0.85467	35017
0.85533	34977
0.85600	34937
0.85667	34897
0.85733	34858
0.85800	34818
0.85867	34778
0.85933	34739
0.86000	34699
0.86067	34660
0.86133	34621
0.86200	34582
0.86267	34543
0.86333	34504
0.86400	34465
0.86467	34427
0.86533	34388
0.86600	34350
0.86667	34312
0.86733	34273
0.86800	34235
0.86867	34197
0.86933	34159
0.87000	34121
0.87067	34083
0.87133	34045
0.87200	34008
0.87267	33970
0.87333	33933
0.87400	33896
0.87467	33859
0.87533	33822
0.87600	33785
0.87667	33748
0.87733	33712
0.87800	33675
0.87867	33639
0.87933	33602
0.88000	33566
0.88067	33530
0.88133	33494
0.88200	33458
0.88267	33422
0.88333	33387
0.88400	33351
0.88467	33316
0.88533	33281
0.88600	33246
0.88667	33211
0.88733	33176
0.88800	33141
0.88867	33107
0.88933	33072
0.89000	33038
0.89067	33004
0.89133	32970
0.89200	32936
0.89267	32902
0.89333	32868
0.89400	32835
0.89467	32801
0.89533	32768
0.89600	32735
0.89667	32702
0.89733	32669
0.89800	32636
0.89867	32604
0.89933	32571
0.90000	32539
0.90067	32507
0.90133	32475
0.90200	32443
0.90267	32411
0.90333	32379
0.90400	32347
0.90467	32316
0.90533	32284
0.90600	32253
0.90667	32222
0.90733	32191
0.90800	32160
0.90867	32129
0.90933	32099
0.91000	32068
0.91067	32037
0.91133	32007
0.91200	31977
0.91267	31947
0.91333	31917
0.91400	31887
0.91467	31857
0.91533	31828
0.91600	31799
0.91667	31770
0.91733	31741
0.91800	31712
0.91867	31683
0.91933	31655
0.92000	31627
0.92067	31599
0.92133	31571
0.92200	31543
0.92267	31516
0.92333	31488
0.92400	31461
0.92467	31434
0.92533	31407
0.92600	31381
0.92667	31354
0.92733	31328
0.92800	31302
0.92867	31276
0.92933	31250
0.93000	31225
0.93067	31199
0.93133	31174
0.93200	31149
0.93267	31125
0.93333	31100
0.93400	31076
0.93467	31052
0.93533	31028
0.93600	31004
0.93667	30980
0.93733	30956
0.93800	30933
0.93867	30909
0.93933	30886
0.94000	30863
0.94067	30840
0.94133	30817
0.94200	30794
0.94267	30771
0.94333	30748
0.94400	30725
0.94467	30703
0.94533	30680
0.94600	30658
0.94667	30635
0.94733	30613
0.94800	30590
0.94867	30568
0.94933	30546
0.95000	30523
0.95067	30501
0.95133	30479
0.95200	30457
0.95267	30435
0.95333	30413
0.95400	30392
0.95467	30370
0.95533	30349
0.95600	30328
0.95667	30307
0.95733	30287
0.95800	30266
0.95867	30246
0.95933	30226
0.96000	30207
0.96067	30187
0.96133	30168
0.96200	30149
0.96267	30130
0.96333	30111
0.96400	30093
0.96467	30075
0.96533	30057
0.96600	30039
0.96667	30022
0.96733	30004
0.96800	29987
0.96867	29970
0.96933	29953
0.97000	29936
0.97067	29919
0.97133	29902
0.97200	29885
0.97267	29868
0.97333	29851
0.97400	29834
0.97467	29817
0.97533	29800
0.97600	29782
0.97667	29765
0.97733	29747
0.97800	29729
0.97867	29710
0.97933	29692
0.98000	29673
0.98067	29654
0.98133	29635
0.98200	29616
0.98267	29597
0.98333	29577
0.98400	29557
0.98467	29538
0.98533	29518
0.98600	29497
0.98667	29477
0.98733	29457
0.98800	29436
0.98867	29415
0.98933	29395
0.99000	29374
0.99067	29353
0.99133	29332
0.99200	29311
0.99267	29290
0.99333	29268
0.99400	29247
0.99467	29226
0.99533	29205
0.99600	29184
0.99667	29163
0.99733	29142
0.99800	29121
0.99867	29100
0.99933	29079
1.00000	29058
1.00067	29037
1.00133	29016
1.00200	28995
1.00267	28974
1.00333	28954
1.00400	28933
1.00467	28913
1.00533	28892
1.00600	28872
1.00667	28851
1.00733	28831
1.00800	28811
1.00867	28791
1.00933	28771
1.01000	28751
1.01067	28731
1.01133	28711
1.01200	28692
1.01267	28672
1.01333	28653
1.01400	28635
1.01467	28616
1.01533	28597
1.01600	28579
1.01667	28561
1.01733	28543
1.01800	28525
1.01867	28508
1.01933	28491
1.02000	28474
1.02067	28457
1.02133	28440
1.02200	28424
1.02267	28408
1.02333	28392
1.02400	28376
1.02467	28361
1.02533	28346
1.02600	28330
1.02667	28316
1.02733	28301
1.02800	28286
1.02867	28272
1.02933	28258
1.03000	28244
1.03067	28230
1.03133	28216
1.03200	28202
1.03267	28188
1.03333	28174
1.03400	28160
1.03467	28146
1.03533	28133
1.03600	28119
1.03667	28105
1.03733	28091
1.03800	28077
1.03867	28063
1.03933	28049
1.04000	28035
1.04067	28021
1.04133	28006
1.04200	27992
1.04267	27978
1.04333	27963
1.04400	27949
1.04467	27934
1.04533	27920
1.04600	27905
1.04667	27890
1.04733	27876
1.04800	27861
1.04867	27847
1.04933	27832
1.05000	27817
1.05067	27803
1.05133	27788
1.05200	27773
1.05267	27758
1.05333	27744
1.05400	27729
1.05467	27714
1.05533	27699
1.05600	27685
1.05667	27670
1.05733	27656
1.05800	27641
1.05867	27626
1.05933	27612
1.06000	27597
1.06067	27583
1.06133	27568
1.06200	27554
1.06267	27539
1.06333	27525
1.06400	27510
1.06467	27496
1.06533	27481
1.06600	27467
1.06667	27453
1.06733	27439
1.06800	27424
1.06867	27410
1.06933	27396
1.07000	27382
1.07067	27368
1.07133	27354
1.07200	27340
1.07267	27326
1.07333	27312
1.07400	27299
1.07467	27285
1.07533	27272
1.07600	27258
1.07667	27245
1.07733	27231
1.07800	27218
1.07867	27205
1.07933	27192
1.08000	27179
1.08067	27166
1.08133	27153
1.08200	27140
1.08267	27127
1.08333	27115
1.08400	27102
1.08467	27090
1.08533	27077
1.08600	27065
1.08667	27053
1.08733	27040
1.08800	27028
1.08867	27016
1.08933	27004
1.09000	26992
1.09067	26980
1.09133	26969
1.09200	26957
1.09267	26945
1.09333	26933
1.09400	26922
1.09467	26910
1.09533	26899
1.09600	26887
1.09667	26876
1.09733	26865
1.09800	26854
1.09867	26843
1.09933	26832
1.10000	26821
1.10067	26810
1.10133	26799
1.10200	26788
1.10267	26778
1.10333	26767
1.10400	26757
1.10467	26746
1.10533	26736
1.10600	26726
1.10667	26717
1.10733	26707
1.10800	26698
1.10867	26689
1.10933	26680
1.11000	26671
1.11067	26663
1.11133	26655
1.11200	26647
1.11267	26639
1.11333	26631
1.11400	26624
1.11467	26617
1.11533	26610
1.11600	26603
1.11667	26597
1.11733	26590
1.11800	26584
1.11867	26578
1.11933	26572
1.12000	26566
1.12067	26560
1.12133	26554
1.12200	26548
1.12267	26542
1.12333	26536
1.12400	26530
1.12467	26524
1.12533	26518
1.12600	26512
1.12667	26506
1.12733	26500
1.12800	26494
1.12867	26488
1.12933	26481
1.13000	26475
1.13067	26468
1.13133	26462
1.13200	26455
1.13267	26448
1.13333	26442
1.13400	26435
1.13467	26428
1.13533	26421
1.13600	26414
1.13667	26407
1.13733	26399
1.13800	26392
1.13867	26385
1.13933	26377
1.14000	26370
1.14067	26362
1.14133	26354
1.14200	26346
1.14267	26338
1.14333	26331
1.14400	26322
1.14467	26314
1.14533	26306
1.14600	26298
1.14667	26289
1.14733	26281
1.14800	26272
1.14867	26264
1.14933	26255
1.15000	26246
1.15067	26238
1.15133	26229
1.15200	26220
1.15267	26211
1.15333	26202
1.15400	26193
1.15467	26184
1.15533	26175
1.15600	26166
1.15667	26157
1.15733	26148
1.15800	26139
1.15867	26130
1.15933	26121
1.16000	26112
1.16067	26103
1.16133	26095
1.16200	26086
1.16267	26077
1.16333	26068
1.16400	26059
1.16467	26050
1.16533	26042
1.16600	26033
1.16667	26024
1.16733	26015
1.16800	26007
1.16867	25998
1.16933	25989
1.17000	25981
1.17067	25972
1.17133	25964
1.17200	25955
1.17267	25947
1.17333	25938
1.17400	25930
1.17467	25921
1.17533	25913
1.17600	25904
1.17667	25896
1.17733	25888
1.17800	25880
1.17867	25871
1.17933	25863
1.18000	25855
1.18067	25847
1.18133	25839
1.18200	25831
1.18267	25824
1.18333	25816
1.18400	25808
1.18467	25800
1.18533	25792
1.18600	25785
1.18667	25777
1.18733	25769
1.18800	25762
1.18867	25754
1.18933	25747
1.19000	25739
1.19067	25732
1.19133	25725
1.19200	25717
1.19267	25710
1.19333	25703
1.19400	25696
1.19467	25689
1.19533	25683
1.19600	25676
1.19667	25669
1.19733	25663
1.19800	25656
1.19867	25650
1.19933	25644
1.20000	25638
1.20067	25632
1.20133	25626
1.20200	25620
1.20267	25615
1.20333	25609
1.20400	25604
1.20467	25599
1.20533	25594
1.20600	25589
1.20667	25584
1.20733	25579
1.20800	25574
1.20867	25570
1.20933	25566
1.21000	25561
1.21067	25557
1.21133	25553
1.21200	25549
1.21267	25545
1.21333	25541
1.21400	25537
1.21467	25533
1.21533	25530
1.21600	25526
1.21667	25523
1.21733	25519
1.21800	25516
1.21867	25513
1.21933	25509
1.22000	25506
1.22067	25503
1.22133	25501
1.22200	25498
1.22267	25495
1.22333	25493
1.22400	25491
1.22467	25488
1.22533	25486
1.22600	25484
1.22667	25482
1.22733	25481
1.22800	25479
1.22867	25477
1.22933	25475
1.23000	25474
1.23067	25472
1.23133	25471
1.23200	25470
1.23267	25468
1.23333	25467
1.23400	25466
1.23467	25465
1.23533	25464
1.23600	25463
1.23667	25462
1.23733	25461
1.23800	25461
1.23867	25460
1.23933	25460
1.24000	25459
1.24067	25459
1.24133	25459
1.24200	25459
1.24267	25458
1.24333	25458
1.24400	25459
1.24467	25459
1.24533	25459
1.24600	25459
1.24667	25460
1.24733	25460
1.24800	25461
1.24867	25462
1.24933	25463
1.25000	25464
1.25067	25466
1.25133	25468
1.25200	25470
1.25267	25473
1.25333	25476
1.25400	25479
1.25467	25482
1.25533	25486
1.25600	25490
1.25667	25495
1.25733	25500
1.25800	25505
1.25867	25511
1.25933	25517
1.26000	25523
1.26067	25530
1.26133	25537
1.26200	25545
1.26267	25552
1.26333	25560
1.26400	25568
1.26467	25577
1.26533	25585
1.26600	25594
1.26667	25602
1.26733	25611
1.26800	25619
1.26867	25628
1.26933	25636
1.27000	25644
1.27067	25652
1.27133	25660
1.27200	25668
1.27267	25675
1.27333	25682
1.27400	25689
1.27467	25695
1.27533	25701
1.27600	25707
1.27667	25712
1.27733	25717
1.27800	25722
1.27867	25726
1.27933	25729
1.28000	25732
1.28067	25735
1.28133	25737
1.28200	25739
1.28267	25741
1.28333	25741
1.28400	25742
1.28467	25742
1.28533	25741
1.28600	25741
1.28667	25739
1.28733	25737
1.28800	25735
1.28867	25733
1.28933	25730
1.29000	25727
1.29067	25723
1.29133	25719
1.29200	25715
1.29267	25711
1.29333	25706
1.29400	25701
1.29467	25695
1.29533	25689
1.29600	25683
1.29667	25677
1.29733	25671
1.29800	25664
1.29867	25657
1.29933	25650
1.30000	25642
1.30067	25634
1.30133	25626
1.30200	25618
1.30267	25610
1.30333	25602
1.30400	25593
1.30467	25584
1.30533	25575
1.30600	25566
1.30667	25557
1.30733	25548
1.30800	25538
1.30867	25529
1.30933	25519
1.31000	25509
1.31067	25499
1.31133	25489
1.31200	25479
1.31267	25468
1.31333	25458
1.31400	25448
1.31467	25437
1.31533	25427
1.31600	25416
1.31667	25405
1.31733	25394
1.31800	25384
1.31867	25373
1.31933	25362
1.32000	25351
1.32067	25340
1.32133	25328
1.32200	25317
1.32267	25306
1.32333	25295
1.32400	25283
1.32467	25272
1.32533	25261
1.32600	25249
1.32667	25238
1.32733	25227
1.32800	25215
1.32867	25204
1.32933	25193
1.33000	25181
1.33067	25170
1.33133	25158
1.33200	25147
1.33267	25136
1.33333	25125
1.33400	25113
1.33467	25102
1.33533	25091
1.33600	25080
1.33667	25069
1.33733	25058
1.33800	25047
1.33867	25036
1.33933	25025
1.34000	25015
1.34067	25004
1.34133	24993
1.34200	24983
1.34267	24972
1.34333	24962
1.34400	24952
1.34467	24941
1.34533	24931
1.34600	24921
1.34667	24911
1.34733	24901
1.34800	24891
1.34867	24881
1.34933	24872
1.35000	24862
1.35067	24852
1.35133	24843
1.35200	24833
1.35267	24824
1.35333	24815
1.35400	24806
1.35467	24796
1.35533	24787
1.35600	24778
1.35667	24770
1.35733	24761
1.35800	24752
1.35867	24743
1.35933	24735
1.36000	24726
1.36067	24718
1.36133	24709
1.36200	24701
1.36267	24693
1.36333	24684
1.36400	24676
1.36467	24668
1.36533	24660
1.36600	24652
1.36667	24644
1.36733	24636
1.36800	24629
1.36867	24621
1.36933	24613
1.37000	24606
1.37067	24598
1.37133	24591
1.37200	24584
1.37267	24576
1.37333	24569
1.37400	24562
1.37467	24555
1.37533	24547
1.37600	24540
1.37667	24533
1.37733	24526
1.37800	24519
1.37867	24512
1.37933	24506
1.38000	24499
1.38067	24492
1.38133	24486
1.38200	24479
1.38267	24472
1.38333	24466
1.38400	24459
1.38467	24453
1.38533	24447
1.38600	24440
1.38667	24434
1.38733	24428
1.38800	24422
1.38867	24416
1.38933	24410
1.39000	24404
1.39067	24399
1.39133	24393
1.39200	24387
1.39267	24381
1.39333	24376
1.39400	24370
1.39467	24364
1.39533	24359
1.39600	24353
1.39667	24348
1.39733	24342
1.39800	24337
1.39867	24331
1.39933	24326
1.40000	24321
1.40067	24315
1.40133	24310
1.40200	24305
1.40267	24299
1.40333	24294
1.40400	24289
1.40467	24283
1.40533	24278
1.40600	24273
1.40667	24267
1.40733	24262
1.40800	24257
1.40867	24251
1.40933	24246
1.41000	24241
1.41067	24235
1.41133	24230
1.41200	24224
1.41267	24219
1.41333	24213
1.41400	24207
1.41467	24202
1.41533	24196
1.41600	24190
1.41667	24185
1.41733	24179
1.41800	24173
1.41867	24167
1.41933	24161
1.42000	24155
1.42067	24149
1.42133	24143
1.42200	24137
1.42267	24131
1.42333	24125
1.42400	24119
1.42467	24113
1.42533	24107
1.42600	24100
1.42667	24094
1.42733	24088
1.42800	24082
1.42867	24076
1.42933	24070
1.43000	24064
1.43067	24058
1.43133	24052
1.43200	24046
1.43267	24041
1.43333	24035
1.43400	24029
1.43467	24024
1.43533	24018
1.43600	24013
1.43667	24008
1.43733	24003
1.43800	23997
1.43867	23992
1.43933	23987
1.44000	23982
1.44067	23977
1.44133	23972
1.44200	23967
1.44267	23963
1.44333	23958
1.44400	23953
1.44467	23949
1.44533	23944
1.44600	23940
1.44667	23935
1.44733	23931
1.44800	23927
1.44867	23923
1.44933	23919
1.45000	23915
1.45067	23911
1.45133	23907
1.45200	23903
1.45267	23899
1.45333	23895
1.45400	23892
1.45467	23888
1.45533	23884
1.45600	23880
1.45667	23877
1.45733	23873
1.45800	23869
1.45867	23865
1.45933	23862
1.46000	23858
1.46067	23854
1.46133	23850
1.46200	23847
1.46267	23843
1.46333	23839
1.46400	23835
1.46467	23831
1.46533	23827
1.46600	23823
1.46667	23819
1.46733	23815
1.46800	23811
1.46867	23807
1.46933	23803
1.47000	23799
1.47067	23795
1.47133	23790
1.47200	23786
1.47267	23782
1.47333	23777
1.47400	23773
1.47467	23769
1.47533	23764
1.47600	23760
1.47667	23755
1.47733	23751
1.47800	23746
1.47867	23742
1.47933	23737
1.48000	23733
1.48067	23728
1.48133	23723
1.48200	23718
1.48267	23714
1.48333	23709
1.48400	23704
1.48467	23699
1.48533	23694
1.48600	23689
1.48667	23684
1.48733	23679
1.48800	23675
1.48867	23670
1.48933	23665
1.49000	23660
1.49067	23656
1.49133	23651
1.49200	23646
1.49267	23642
1.49333	23637
1.49400	23632
1.49467	23628
1.49533	23623
1.49600	23619
1.49667	23614
1.49733	23610
1.49800	23605
1.49867	23601
1.49933	23597
1.50000	23593
1.50067	23588
1.50133	23584
1.50200	23580
1.50267	23576
1.50333	23572
1.50400	23568
1.50467	23564
1.50533	23560
1.50600	23556
1.50667	23552
1.50733	23548
1.50800	23544
1.50867	23540
1.50933	23536
1.51000	23532
1.51067	23528
1.51133	23524
1.51200	23520
1.51267	23517
1.51333	23513
1.51400	23509
1.51467	23505
1.51533	23501
1.51600	23498
1.51667	23494
1.51733	23490
1.51800	23486
1.51867	23482
1.51933	23479
1.52000	23475
1.52067	23471
1.52133	23467
1.52200	23463
1.52267	23460
1.52333	23456
1.52400	23452
1.52467	23448
1.52533	23444
1.52600	23440
1.52667	23436
1.52733	23432
1.52800	23428
1.52867	23424
1.52933	23420
1.53000	23416
1.53067	23412
1.53133	23408
1.53200	23405
1.53267	23401
1.53333	23397
1.53400	23393
1.53467	23389
1.53533	23385
1.53600	23381
1.53667	23377
1.53733	23373
1.53800	23369
1.53867	23365
1.53933	23361
1.54000	23357
1.54067	23353
1.54133	23350
1.54200	23346
1.54267	23342
1.54333	23337
1.54400	23333
1.54467	23329
1.54533	23325
1.54600	23321
1.54667	23317
1.54733	23313
1.54800	23309
1.54867	23305
1.54933	23301
1.55000	23297
1.55067	23293
1.55133	23289
1.55200	23285
1.55267	23281
1.55333	23276
1.55400	23272
1.55467	23269
1.55533	23265
1.55600	23261
1.55667	23257
1.55733	23253
1.55800	23249
1.55867	23245
1.55933	23241
1.56000	23237
1.56067	23233
1.56133	23228
1.56200	23224
1.56267	23220
1.56333	23216
1.56400	23212
1.56467	23208
1.56533	23204
1.56600	23200
1.56667	23196
1.56733	23192
1.56800	23188
1.56867	23184
1.56933	23180
1.57000	23177
1.57067	23173
1.57133	23169
1.57200	23165
1.57267	23162
1.57333	23158
1.57400	23154
1.57467	23151
1.57533	23147
1.57600	23144
1.57667	23140
1.57733	23136
1.57800	23133
1.57867	23129
1.57933	23126
1.58000	23122
1.58067	23119
1.58133	23115
1.58200	23111
1.58267	23108
1.58333	23104
1.58400	23101
1.58467	23097
1.58533	23094
1.58600	23090
1.58667	23087
1.58733	23084
1.58800	23080
1.58867	23077
1.58933	23074
1.59000	23070
1.59067	23067
1.59133	23064
1.59200	23061
1.59267	23058
1.59333	23055
1.59400	23052
1.59467	23049
1.59533	23046
1.59600	23043
1.59667	23041
1.59733	23038
1.59800	23035
1.59867	23032
1.59933	23029
1.60000	23027
1.60067	23024
1.60133	23021
1.60200	23019
1.60267	23016
1.60333	23013
1.60400	23011
1.60467	23008
1.60533	23005
1.60600	23002
1.60667	22999
1.60733	22996
1.60800	22993
1.60867	22990
1.60933	22987
1.61000	22984
1.61067	22981
1.61133	22978
1.61200	22975
1.61267	22972
1.61333	22969
1.61400	22966
1.61467	22963
1.61533	22960
1.61600	22957
1.61667	22954
1.61733	22951
1.61800	22948
1.61867	22944
1.61933	22941
1.62000	22938
1.62067	22935
1.62133	22932
1.62200	22928
1.62267	22925
1.62333	22922
1.62400	22919
1.62467	22915
1.62533	22912
1.62600	22909
1.62667	22906
1.62733	22903
1.62800	22900
1.62867	22897
1.62933	22894
1.63000	22891
1.63067	22888
1.63133	22885
1.63200	22882
1.63267	22880
1.63333	22877
1.63400	22874
1.63467	22872
1.63533	22870
1.63600	22867
1.63667	22865
1.63733	22863
1.63800	22861
1.63867	22859
1.63933	22857
1.64000	22855
1.64067	22854
1.64133	22852
1.64200	22850
1.64267	22849
1.64333	22847
1.64400	22845
1.64467	22843
1.64533	22842
1.64600	22840
1.64667	22839
1.64733	22838
1.64800	22836
1.64867	22835
1.64933	22834
1.65000	22832
1.65067	22831
1.65133	22830
1.65200	22829
1.65267	22828
1.65333	22826
1.65400	22825
1.65467	22824
1.65533	22823
1.65600	22821
1.65667	22820
1.65733	22818
1.65800	22817
1.65867	22816
1.65933	22814
1.66000	22813
1.66067	22811
1.66133	22810
1.66200	22808
1.66267	22807
1.66333	22805
1.66400	22804
1.66467	22802
1.66533	22801
1.66600	22799
1.66667	22798
1.66733	22796
1.66800	22794
1.66867	22793
1.66933	22791
1.67000	22789
1.67067	22788
1.67133	22786
1.67200	22784
1.67267	22782
1.67333	22780
1.67400	22779
1.67467	22777
1.67533	22775
1.67600	22773
1.67667	22771
1.67733	22769
1.67800	22766
1.67867	22764
1.67933	22762
1.68000	22759
1.68067	22756
1.68133	22754
1.68200	22751
1.68267	22748
1.68333	22745
1.68400	22742
1.68467	22739
1.68533	22736
1.68600	22733
1.68667	22730
1.68733	22727
1.68800	22723
1.68867	22720
1.68933	22716
1.69000	22713
1.69067	22709
1.69133	22705
1.69200	22702
1.69267	22698
1.69333	22694
1.69400	22690
1.69467	22685
1.69533	22681
1.69600	22677
1.69667	22673
1.69733	22668
1.69800	22664
1.69867	22660
1.69933	22655
1.70000	22651
1.70067	22646
1.70133	22642
1.70200	22637
1.70267	22633
1.70333	22628
1.70400	22624
1.70467	22619
1.70533	22615
1.70600	22611
1.70667	22606
1.70733	22602
1.70800	22598
1.70867	22593
1.70933	22589
1.71000	22585
1.71067	22581
1.71133	22578
1.71200	22574
1.71267	22570
1.71333	22567
1.71400	22563
1.71467	22560
1.71533	22558
1.71600	22555
1.71667	22553
1.71733	22552
1.71800	22552
1.71867	22552
1.71933	22554
1.72000	22556
1.72067	22561
1.72133	22567
1.72200	22576
1.72267	22588
1.72333	22603
1.72400	22623
1.72467	22648
1.72533	22678
1.72600	22716
1.72667	22763
1.72733	22820
1.72800	22890
1.72867	22974
1.72933	23074
1.73000	23195
1.73067	23338
1.73133	23508
1.73200	23710
1.73267	23947
1.73333	24227
1.73400	24555
1.73467	24938
1.73533	25383
1.73600	25899
1.73667	26496
1.73733	27184
1.73800	27972
1.73867	28873
1.73933	29900
1.74000	31065
1.74067	32383
1.74133	33869
1.74200	35540
1.74267	37413
1.74333	39507
1.74400	41839
1.74467	44430
1.74533	47300
1.74600	50468
1.74667	53956
1.74733	57786
1.74800	61982
1.74867	66565
1.74933	71560
1.75000	76989
1.75067	82874
1.75133	89235
1.75200	96091
1.75267	103460
1.75333	111366
1.75400	119828
1.75467	128869
1.75533	138509
1.75600	148770
1.75667	159671
1.75733	171230
1.75800	183457
1.75867	196366
1.75933	209963
1.76000	224255
1.76067	239245
1.76133	254933
1.76200	271320
1.76267	288401
1.76333	306169
1.76400	324612
1.76467	343721
1.76533	363483
1.76600	383891
1.76667	404932
1.76733	426587
1.76800	448826
1.76867	471614
1.76933	494912
1.77000	518676
1.77067	542862
1.77133	567415
1.77200	592277
1.77267	617382
1.77333	642657
1.77400	668017
1.77467	693374
1.77533	718629
1.77600	743675
1.77667	768404
1.77733	792701
1.77800	816447
1.77867	839527
1.77933	861824
1.78000	883222
1.78067	903612
1.78133	922892
1.78200	940973
1.78267	957777
1.78333	973242
1.78400	987318
1.78467	999970
1.78533	1011173
1.78600	1020919
1.78667	1029208
1.78733	1036054
1.78800	1041476
1.78867	1045508
1.78933	1048190
1.79000	1049569
1.79067	1049697
1.79133	1048630
1.79200	1046425
1.79267	1043143
1.79333	1038843
1.79400	1033589
1.79467	1027440
1.79533	1020458
1.79600	1012702
1.79667	1004228
1.79733	995095
1.79800	985354
1.79867	975059
1.79933	964259
1.80000	953001
1.80067	941330
1.80133	929289
1.80200	916920
1.80267	904260
1.80333	891346
1.80400	878212
1.80467	864890
1.80533	851412
1.80600	837805
1.80667	824096
1.80733	810310
1.80800	796471
1.80867	782600
1.80933	768718
1.81000	754844
1.81067	740996
1.81133	727189
1.81200	713440
1.81267	699762
1.81333	686168
1.81400	672671
1.81467	659280
1.81533	646007
1.81600	632861
1.81667	619849
1.81733	606980
1.81800	594261
1.81867	581698
1.81933	569296
1.82000	557060
1.82067	544995
1.82133	533104
1.82200	521392
1.82267	509860
1.82333	498511
1.82400	487348
1.82467	476372
1.82533	465583
1.82600	454984
1.82667	444574
1.82733	434354
1.82800	424324
1.82867	414484
1.82933	404834
1.83000	395372
1.83067	386099
1.83133	377012
1.83200	368110
1.83267	359393
1.83333	350859
1.83400	342505
1.83467	334331
1.83533	326335
1.83600	318513
1.83667	310865
1.83733	303388
1.83800	296079
1.83867	288937
1.83933	281958
1.84000	275141
1.84067	268482
1.84133	261980
1.84200	255632
1.84267	249435
1.84333	243387
1.84400	237485
1.84467	231727
1.84533	226109
1.84600	220631
1.84667	215288
1.84733	210078
1.84800	204999
1.84867	200048
1.84933	195223
1.85000	190521
1.85067	185939
1.85133	181476
1.85200	177128
1.85267	172893
1.85333	168768
1.85400	164752
1.85467	160842
1.85533	157035
1.85600	153329
1.85667	149722
1.85733	146211
1.85800	142794
1.85867	139470
1.85933	136235
1.86000	133087
1.86067	130024
1.86133	127045
1.86200	124147
1.86267	121328
1.86333	118586
1.86400	115919
1.86467	113325
1.86533	110803
1.86600	108351
1.86667	105966
1.86733	103647
1.86800	101392
1.86867	99199
1.86933	97068
1.87000	94996
1.87067	92981
1.87133	91022
1.87200	89117
1.87267	87266
1.87333	85466
1.87400	83717
1.87467	82017
1.87533	80364
1.87600	78758
1.87667	77196
1.87733	75679
1.87800	74205
1.87867	72772
1.87933	71379
1.88000	70026
1.88067	68712
1.88133	67435
1.88200	66194
1.88267	64989
1.88333	63819
1.88400	62682
1.88467	61578
1.88533	60506
1.88600	59465
1.88667	58454
1.88733	57472
1.88800	56520
1.88867	55595
1.88933	54697
1.89000	53825
1.89067	52979
1.89133	52158
1.89200	51361
1.89267	50588
1.89333	49838
1.89400	49110
1.89467	48403
1.89533	47718
1.89600	47053
1.89667	46409
1.89733	45783
1.89800	45176
1.89867	44588
1.89933	44017
1.90000	43463
1.90067	42926
1.90133	42404
1.90200	41899
1.90267	41408
1.90333	40932
1.90400	40470
1.90467	40022
1.90533	39587
1.90600	39165
1.90667	38756
1.90733	38359
1.90800	37973
1.90867	37599
1.90933	37237
1.91000	36884
1.91067	36543
1.91133	36211
1.91200	35889
1.91267	35577
1.91333	35274
1.91400	34979
1.91467	34693
1.91533	34416
1.91600	34146
1.91667	33884
1.91733	33630
1.91800	33382
1.91867	33142
1.91933	32909
1.92000	32681
1.92067	32461
1.92133	32246
1.92200	32037
1.92267	31834
1.92333	31637
1.92400	31445
1.92467	31259
1.92533	31077
1.92600	30901
1.92667	30729
1.92733	30562
1.92800	30400
1.92867	30242
1.92933	30088
1.93000	29938
1.93067	29792
1.93133	29649
1.93200	29511
1.93267	29376
1.93333	29245
1.93400	29117
1.93467	28992
1.93533	28870
1.93600	28752
1.93667	28637
1.93733	28524
1.93800	28415
1.93867	28308
1.93933	28204
1.94000	28102
1.94067	28003
1.94133	27906
1.94200	27812
1.94267	27720
1.94333	27630
1.94400	27542
1.94467	27457
1.94533	27373
1.94600	27291
1.94667	27211
1.94733	27133
1.94800	27057
1.94867	26983
1.94933	26910
1.95000	26839
1.95067	26769
1.95133	26701
1.95200	26634
1.95267	26569
1.95333	26505
1.95400	26443
1.95467	26382
1.95533	26322
1.95600	26263
1.95667	26206
1.95733	26150
1.95800	26095
1.95867	26041
1.95933	25988
1.96000	25936
1.96067	25885
1.96133	25835
1.96200	25787
1.96267	25739
1.96333	25692
1.96400	25646
1.96467	25601
1.96533	25557
1.96600	25514
1.96667	25471
1.96733	25430
1.96800	25388
1.96867	25348
1.96933	25308
1.97000	25269
1.97067	25230
1.97133	25193
1.97200	25156
1.97267	25119
1.97333	25083
1.97400	25048
1.97467	25013
1.97533	24979
1.97600	24945
1.97667	24912
1.97733	24880
1.97800	24848
1.97867	24816
1.97933	24785
1.98000	24754
1.98067	24724
1.98133	24694
1.98200	24665
1.98267	24636
1.98333	24608
1.98400	24580
1.98467	24553
1.98533	24526
1.98600	24499
1.98667	24473
1.98733	24447
1.98800	24421
1.98867	24396
1.98933	24371
1.99000	24346
1.99067	24322
1.99133	24298
1.99200	24274
1.99267	24250
1.99333	24227
1.99400	24204
1.99467	24181
1.99533	24159
1.99600	24136
1.99667	24114
1.99733	24092
1.99800	24070
1.99867	24049
1.99933	24028
2.00000	24007
2.00067	23986
2.00133	23965
2.00200	23944
2.00267	23924
2.00333	23903
2.00400	23883
2.00467	23863
2.00533	23843
2.00600	23824
2.00667	23804
2.00733	23785
2.00800	23766
2.00867	23747
2.00933	23728
2.01000	23709
2.01067	23690
2.01133	23671
2.01200	23653
2.01267	23634
2.01333	23616
2.01400	23597
2.01467	23579
2.01533	23561
2.01600	23543
2.01667	23525
2.01733	23507
2.01800	23489
2.01867	23472
2.01933	23454
2.02000	23437
2.02067	23420
2.02133	23403
2.02200	23386
2.02267	23369
2.02333	23352
2.02400	23335
2.02467	23318
2.02533	23302
2.02600	23285
2.02667	23269
2.02733	23252
2.02800	23236
2.02867	23220
2.02933	23204
2.03000	23188
2.03067	23172
2.03133	23157
2.03200	23141
2.03267	23126
2.03333	23111
2.03400	23095
2.03467	23080
2.03533	23066
2.03600	23051
2.03667	23036
2.03733	23022
2.03800	23007
2.03867	22993
2.03933	22979
2.04000	22965
2.04067	22951
2.04133	22937
2.04200	22923
2.04267	22909
2.04333	22896
2.04400	22882
2.04467	22868
2.04533	22854
2.04600	22841
2.04667	22827
2.04733	22814
2.04800	22800
2.04867	22787
2.04933	22774
2.05000	22761
2.05067	22747
2.05133	22734
2.05200	22721
2.05267	22708
2.05333	22695
2.05400	22682
2.05467	22669
2.05533	22656
2.05600	22644
2.05667	22631
2.05733	22619
2.05800	22606
2.05867	22594
2.05933	22582
2.06000	22569
2.06067	22557
2.06133	22545
2.06200	22533
2.06267	22522
2.06333	22510
2.06400	22498
2.06467	22487
2.06533	22476
2.06600	22464
2.06667	22453
2.06733	22442
2.06800	22431
2.06867	22420
2.06933	22409
2.07000	22398
2.07067	22387
2.07133	22376
2.07200	22365
2.07267	22354
2.07333	22343
2.07400	22333
2.07467	22322
2.07533	22311
2.07600	22301
2.07667	22290
2.07733	22280
2.07800	22269
2.07867	22259
2.07933	22248
2.08000	22238
2.08067	22227
2.08133	22217
2.08200	22206
2.08267	22196
2.08333	22185
2.08400	22175
2.08467	22164
2.08533	22154
2.08600	22144
2.08667	22133
2.08733	22123
2.08800	22112
2.08867	22102
2.08933	22092
2.09000	22082
2.09067	22072
2.09133	22061
2.09200	22051
2.09267	22041
2.09333	22031
2.09400	22021
2.09467	22011
2.09533	22002
2.09600	21992
2.09667	21982
2.09733	21972
2.09800	21963
2.09867	21953
2.09933	21943
2.10000	21934
2.10067	21924
2.10133	21914
2.10200	21905
2.10267	21896
2.10333	21886
2.10400	21877
2.10467	21867
2.10533	21858
2.10600	21849
2.10667	21839
2.10733	21830
2.10800	21821
2.10867	21811
2.10933	21802
2.11000	21793
2.11067	21784
2.11133	21774
2.11200	21765
2.11267	21756
2.11333	21747
2.11400	21738
2.11467	21729
2.11533	21720
2.11600	21711
2.11667	21702
2.11733	21693
2.11800	21684
2.11867	21675
2.11933	21666
2.12000	21657
2.12067	21648
2.12133	21639
2.12200	21630
2.12267	21621
2.12333	21612
2.12400	21604
2.12467	21595
2.12533	21586
2.12600	21577
2.12667	21568
2.12733	21559
2.12800	21550
2.12867	21542
2.12933	21533
2.13000	21524
2.13067	21515
2.13133	21506
2.13200	21497
2.13267	21488
2.13333	21480
2.13400	21471
2.13467	21461
2.13533	21452
2.13600	21443
2.13667	21434
2.13733	21425
2.13800	21416
2.13867	21407
2.13933	21399
2.14000	21390
2.14067	21381
2.14133	21372
2.14200	21363
2.14267	21354
2.14333	21346
2.14400	21337
2.14467	21328
2.14533	21319
2.14600	21311
2.14667	21302
2.14733	21294
2.14800	21285
2.14867	21277
2.14933	21268
2.15000	21260
2.15067	21251
2.15133	21243
2.15200	21235
2.15267	21227
2.15333	21218
2.15400	21210
2.15467	21202
2.15533	21194
2.15600	21186
2.15667	21178
2.15733	21170
2.15800	21162
2.15867	21154
2.15933	21146
2.16000	21138
2.16067	21130
2.16133	21122
2.16200	21114
2.16267	21106
2.16333	21098
2.16400	21090
2.16467	21082
2.16533	21074
2.16600	21067
2.16667	21059
2.16733	21052
2.16800	21044
2.16867	21037
2.16933	21029
2.17000	21022
2.17067	21015
2.17133	21007
2.17200	21000
2.17267	20993
2.17333	20986
2.17400	20978
2.17467	20971
2.17533	20964
2.17600	20957
2.17667	20950
2.17733	20943
2.17800	20936
2.17867	20929
2.17933	20922
2.18000	20915
2.18067	20908
2.18133	20901
2.18200	20894
2.18267	20887
2.18333	20880
2.18400	20873
2.18467	20866
2.18533	20859
2.18600	20852
2.18667	20845
2.18733	20838
2.18800	20831
2.18867	20824
2.18933	20817
2.19000	20810
2.19067	20804
2.19133	20797
2.19200	20790
2.19267	20783
2.19333	20777
2.19400	20770
2.19467	20764
2.19533	20757
2.19600	20751
2.19667	20744
2.19733	20738
2.19800	20732
2.19867	20726
2.19933	20720
2.20000	20714
2.20067	20708
2.20133	20702
2.20200	20696
2.20267	20691
2.20333	20685
2.20400	20679
2.20467	20673
2.20533	20668
2.20600	20662
2.20667	20657
2.20733	20652
2.20800	20646
2.20867	20641
2.20933	20636
2.21000	20631
2.21067	20626
2.21133	20622
2.21200	20617
2.21267	20613
2.21333	20609
2.21400	20605
2.21467	20601
2.21533	20597
2.21600	20593
2.21667	20590
2.21733	20586
2.21800	20583
2.21867	20580
2.21933	20577
2.22000	20574
2.22067	20572
2.22133	20569
2.22200	20566
2.22267	20564
2.22333	20562
2.22400	20559
2.22467	20557
2.22533	20554
2.22600	20552
2.22667	20549
2.22733	20547
2.22800	20544
2.22867	20541
2.22933	20538
2.23000	20536
2.23067	20533
2.23133	20529
2.23200	20526
2.23267	20523
2.23333	20519
2.23400	20515
2.23467	20511
2.23533	20507
2.23600	20503
2.23667	20499
2.23733	20495
2.23800	20491
2.23867	20486
2.23933	20482
2.24000	20477
2.24067	20473
2.24133	20468
2.24200	20463
2.24267	20459
2.24333	20454
2.24400	20449
2.24467	20444
2.24533	20439
2.24600	20434
2.24667	20429
2.24733	20423
2.24800	20418
2.24867	20412
2.24933	20407
2.25000	20401
2.25067	20396
2.25133	20390
2.25200	20384
2.25267	20378
2.25333	20372
2.25400	20366
2.25467	20360
2.25533	20354
2.25600	20348
2.25667	20342
2.25733	20336
2.25800	20330
2.25867	20324
2.25933	20318
2.26000	20312
2.26067	20306
2.26133	20300
2.26200	20293
2.26267	20287
2.26333	20281
2.26400	20275
2.26467	20269
2.26533	20263
2.26600	20257
2.26667	20251
2.26733	20245
2.26800	20238
2.26867	20232
2.26933	20226
2.27000	20220
2.27067	20214
2.27133	20207
2.27200	20201
2.27267	20194
2.27333	20188
2.27400	20182
2.27467	20175
2.27533	20168
2.27600	20161
2.27667	20155
2.27733	20148
2.27800	20141
2.27867	20134
2.27933	20128
2.28000	20121
2.28067	20114
2.28133	20107
2.28200	20100
2.28267	20094
2.28333	20087
2.28400	20080
2.28467	20073
2.28533	20066
2.28600	20059
2.28667	20052
2.28733	20046
2.28800	20039
2.28867	20032
2.28933	20026
2.29000	20019
2.29067	20013
2.29133	20006
2.29200	20000
2.29267	19993
2.29333	19987
2.29400	19981
2.29467	19975
2.29533	19968
2.29600	19962
2.29667	19956
2.29733	19949
2.29800	19943
2.29867	19937
2.29933	19931
2.30000	19925
2.30067	19919
2.30133	19913
2.30200	19907
2.30267	19901
2.30333	19895
2.30400	19890
2.30467	19884
2.30533	19878
2.30600	19872
2.30667	19867
2.30733	19861
2.30800	19855
2.30867	19850
2.30933	19844
2.31000	19839
2.31067	19833
2.31133	19828
2.31200	19822
2.31267	19817
2.31333	19811
2.31400	19806
2.31467	19801
2.31533	19795
2.31600	19790
2.31667	19785
2.31733	19780
2.31800	19774
2.31867	19769
2.31933	19764
2.32000	19759
2.32067	19753
2.32133	19748
2.32200	19743
2.32267	19738
2.32333	19733
2.32400	19728
2.32467	19723
2.32533	19718
2.32600	19714
2.32667	19709
2.32733	19704
2.32800	19699
2.32867	19695
2.32933	19690
2.33000	19685
2.33067	19681
2.33133	19676
2.33200	19672
2.33267	19667
2.33333	19663
2.33400	19658
2.33467	19654
2.33533	19650
2.33600	19645
2.33667	19641
2.33733	19637
2.33800	19633
2.33867	19629
2.33933	19624
2.34000	19620
2.34067	19616
2.34133	19612
2.34200	19608
2.34267	19604
2.34333	19600
2.34400	19596
2.34467	19592
2.34533	19588
2.34600	19584
2.34667	19580
2.34733	19576
2.34800	19572
2.34867	19568
2.34933	19565
2.35000	19561
2.35067	19557
2.35133	19554
2.35200	19550
2.35267	19546
2.35333	19543
2.35400	19539
2.35467	19536
2.35533	19532
2.35600	19529
2.35667	19525
2.35733	19522
2.35800	19518
2.35867	19515
2.35933	19511
2.36000	19508
2.36067	19504
2.36133	19501
2.36200	19497
2.36267	19494
2.36333	19490
2.36400	19487
2.36467	19483
2.36533	19479
2.36600	19476
2.36667	19472
2.36733	19468
2.36800	19464
2.36867	19461
2.36933	19457
2.37000	19453
2.37067	19449
2.37133	19445
2.37200	19441
2.37267	19437
2.37333	19433
2.37400	19429
2.37467	19425
2.37533	19421
2.37600	19417
2.37667	19413
2.37733	19409
2.37800	19405
2.37867	19401
2.37933	19397
2.38000	19392
2.38067	19388
2.38133	19384
2.38200	19380
2.38267	19376
2.38333	19372
2.38400	19368
2.38467	19364
2.38533	19360
2.38600	19356
2.38667	19352
2.38733	19348
2.38800	19344
2.38867	19339
2.38933	19335
2.39000	19331
2.39067	19327
2.39133	19323
2.39200	19319
2.39267	19315
2.39333	19311
2.39400	19306
2.39467	19302
2.39533	19298
2.39600	19294
2.39667	19290
2.39733	19285
2.39800	19281
2.39867	19277
2.39933	19273
2.40000	19268
2.40067	19264
2.40133	19260
2.40200	19255
2.40267	19251
2.40333	19247
2.40400	19243
2.40467	19238
2.40533	19234
2.40600	19230
2.40667	19226
2.40733	19222
2.40800	19218
2.40867	19214
2.40933	19210
2.41000	19205
2.41067	19201
2.41133	19197
2.41200	19193
2.41267	19189
2.41333	19185
2.41400	19181
2.41467	19177
2.41533	19173
2.41600	19169
2.41667	19164
2.41733	19160
2.41800	19156
2.41867	19152
2.41933	19148
2.42000	19144
2.42067	19140
2.42133	19136
2.42200	19132
2.42267	19128
2.42333	19124
2.42400	19120
2.42467	19117
2.42533	19113
2.42600	19109
2.42667	19105
2.42733	19101
2.42800	19096
2.42867	19092
2.42933	19088
2.43000	19084
2.43067	19079
2.43133	19075
2.43200	19071
2.43267	19066
2.43333	19062
2.43400	19057
2.43467	19053
2.43533	19048
2.43600	19043
2.43667	19038
2.43733	19034
2.43800	19029
2.43867	19024
2.43933	19019
2.44000	19013
2.44067	19008
2.44133	19003
2.44200	18998
2.44267	18992
2.44333	18987
2.44400	18981
2.44467	18976
2.44533	18970
2.44600	18964
2.44667	18958
2.44733	18953
2.44800	18947
2.44867	18941
2.44933	18935
2.45000	18929
2.45067	18923
2.45133	18917
2.45200	18911
2.45267	18905
2.45333	18899
2.45400	18893
2.45467	18887
2.45533	18881
2.45600	18875
2.45667	18869
2.45733	18863
2.45800	18856
2.45867	18850
2.45933	18844
2.46000	18838
2.46067	18831
2.46133	18825
2.46200	18819
2.46267	18812
2.46333	18806
2.46400	18799
2.46467	18793
2.46533	18787
2.46600	18780
2.46667	18774
2.46733	18767
2.46800	18761
2.46867	18754
2.46933	18748
2.47000	18741
2.47067	18734
2.47133	18728
2.47200	18721
2.47267	18715
2.47333	18708
2.47400	18701
2.47467	18695
2.47533	18688
2.47600	18681
2.47667	18675
2.47733	18668
2.47800	18662
2.47867	18655
2.47933	18648
2.48000	18642
2.48067	18635
2.48133	18629
2.48200	18622
2.48267	18615
2.48333	18609
2.48400	18602
2.48467	18596
2.48533	18589
2.48600	18582
2.48667	18576
2.48733	18569
2.48800	18563
2.48867	18556
2.48933	18549
2.49000	18543
2.49067	18536
2.49133	18530
2.49200	18523
2.49267	18517
2.49333	18511
2.49400	18504
2.49467	18498
2.49533	18491
2.49600	18485
2.49667	18479
2.49733	18473
2.49800	18466
2.49867	18460
2.49933	18454
2.50000	18448
2.50067	18441
2.50133	18435
2.50200	18429
2.50267	18423
2.50333	18416
2.50400	18410
2.50467	18404
2.50533	18398
2.50600	18391
2.50667	18385
2.50733	18379
2.50800	18373
2.50867	18367
2.50933	18361
2.51000	18355
2.51067	18349
2.51133	18343
2.51200	18337
2.51267	18331
2.51333	18325
2.51400	18319
2.51467	18313
2.51533	18307
2.51600	18301
2.51667	18295
2.51733	18289
2.51800	18283
2.51867	18277
2.51933	18271
2.52000	18265
2.52067	18259
2.52133	18253
2.52200	18247
2.52267	18242
2.52333	18236
2.52400	18230
2.52467	18224
2.52533	18218
2.52600	18212
2.52667	18206
2.52733	18201
2.52800	18195
2.52867	18189
2.52933	18183
2.53000	18177
2.53067	18172
2.53133	18166
2.53200	18160
2.53267	18154
2.53333	18148
2.53400	18143
2.53467	18137
2.53533	18131
2.53600	18125
2.53667	18119
2.53733	18113
2.53800	18107
2.53867	18101
2.53933	18095
2.54000	18089
2.54067	18083
2.54133	18077
2.54200	18071
2.54267	18065
2.54333	18059
2.54400	18053
2.54467	18048
2.54533	18042
2.54600	18036
2.54667	18030
2.54733	18024
2.54800	18018
2.54867	18013
2.54933	18007
2.55000	18001
2.55067	17995
2.55133	17989
2.55200	17983
2.55267	17977
2.55333	17971
2.55400	17965
2.55467	17959
2.55533	17953
2.55600	17947
2.55667	17941
2.55733	17935
2.55800	17929
2.55867	17923
2.55933	17917
2.56000	17911
2.56067	17905
2.56133	17899
2.56200	17893
2.56267	17886
2.56333	17880
2.56400	17874
2.56467	17868
2.56533	17862
2.56600	17856
2.56667	17850
2.56733	17844
2.56800	17838
2.56867	17832
2.56933	17826
2.57000	17820
2.57067	17814
2.57133	17808
2.57200	17802
2.57267	17796
2.57333	17790
2.57400	17784
2.57467	17778
2.57533	17773
2.57600	17767
2.57667	17761
2.57733	17755
2.57800	17749
2.57867	17744
2.57933	17738
2.58000	17732
2.58067	17727
2.58133	17721
2.58200	17716
2.58267	17710
2.58333	17704
2.58400	17699
2.58467	17693
2.58533	17688
2.58600	17682
2.58667	17677
2.58733	17671
2.58800	17666
2.58867	17661
2.58933	17655
2.59000	17650
2.59067	17645
2.59133	17639
2.59200	17634
2.59267	17629
2.59333	17623
2.59400	17618
2.59467	17613
2.59533	17608
2.59600	17603
2.59667	17598
2.59733	17593
2.59800	17588
2.59867	17583
2.59933	17578
2.60000	17573
2.60067	17568
2.60133	17563
2.60200	17558
2.60267	17553
2.60333	17548
2.60400	17543
2.60467	17538
2.60533	17533
2.60600	17528
2.60667	17524
2.60733	17519
2.60800	17514
2.60867	17509
2.60933	17504
2.61000	17499
2.61067	17494
2.61133	17490
2.61200	17485
2.61267	17480
2.61333	17475
2.61400	17470
2.61467	17465
2.61533	17460
2.61600	17455
2.61667	17451
2.61733	17446
2.61800	17441
2.61867	17436
2.61933	17432
2.62000	17427
2.62067	17422
2.62133	17418
2.62200	17413
2.62267	17408
2.62333	17404
2.62400	17399
2.62467	17394
2.62533	17390
2.62600	17385
2.62667	17381
2.62733	17376
2.62800	17371
2.62867	17367
2.62933	17362
2.63000	17357
2.63067	17353
2.63133	17348
2.63200	17343
2.63267	17338
2.63333	17334
2.63400	17329
2.63467	17324
2.63533	17319
2.63600	17315
2.63667	17310
2.63733	17305
2.63800	17301
2.63867	17296
2.63933	17292
2.64000	17287
2.64067	17283
2.64133	17278
2.64200	17274
2.64267	17269
2.64333	17265
2.64400	17261
2.64467	17256
2.64533	17252
2.64600	17247
2.64667	17243
2.64733	17238
2.64800	17234
2.64867	17229
2.64933	17225
2.65000	17220
2.65067	17215
2.65133	17211
2.65200	17206
2.65267	17202
2.65333	17197
2.65400	17193
2.65467	17188
2.65533	17183
2.65600	17179
2.65667	17174
2.65733	17169
2.65800	17165
2.65867	17160
2.65933	17155
2.66000	17151
2.66067	17146
2.66133	17141
2.66200	17136
2.66267	17131
2.66333	17126
2.66400	17121
2.66467	17116
2.66533	17111
2.66600	17106
2.66667	17101
2.66733	17096
2.66800	17091
2.66867	17086
2.66933	17081
2.67000	17076
2.67067	17071
2.67133	17065
2.67200	17060
2.67267	17055
2.67333	17050
2.67400	17045
2.67467	17039
2.67533	17034
2.67600	17029
2.67667	17024
2.67733	17018
2.67800	17013
2.67867	17008
2.67933	17003
2.68000	16997
2.68067	16992
2.68133	16987
2.68200	16982
2.68267	16976
2.68333	16971
2.68400	16966
2.68467	16961
2.68533	16955
2.68600	16950
2.68667	16945
2.68733	16939
2.68800	16934
2.68867	16929
2.68933	16924
2.69000	16918
2.69067	16913
2.69133	16907
2.69200	16902
2.69267	16897
2.69333	16891
2.69400	16886
2.69467	16880
2.69533	16875
2.69600	16870
2.69667	16864
2.69733	16859
2.69800	16853
2.69867	16848
2.69933	16842
2.70000	16837
2.70067	16831
2.70133	16826
2.70200	16821
2.70267	16815
2.70333	16810
2.70400	16804
2.70467	16799
2.70533	16794
2.70600	16788
2.70667	16783
2.70733	16778
2.70800	16772
2.70867	16767
2.70933	16762
2.71000	16757
2.71067	16751
2.71133	16746
2.71200	16741
2.71267	16736
2.71333	16730
2.71400	16725
2.71467	16720
2.71533	16715
2.71600	16710
2.71667	16705
2.71733	16700
2.71800	16695
2.71867	16690
2.71933	16685
2.72000	16680
2.72067	16675
2.72133	16670
2.72200	16665
2.72267	16660
2.72333	16655
2.72400	16650
2.72467	16645
2.72533	16640
2.72600	16635
2.72667	16630
2.72733	16626
2.72800	16621
2.72867	16616
2.72933	16611
2.73000	16607
2.73067	16602
2.73133	16598
2.73200	16593
2.73267	16589
2.73333	16584
2.73400	16580
2.73467	16576
2.73533	16571
2.73600	16567
2.73667	16562
2.73733	16558
2.73800	16553
2.73867	16549
2.73933	16545
2.74000	16540
2.74067	16536
2.74133	16532
2.74200	16527
2.74267	16523
2.74333	16519
2.74400	16515
2.74467	16510
2.74533	16506
2.74600	16502
2.74667	16498
2.74733	16494
2.74800	16490
2.74867	16486
2.74933	16482
2.75000	16478
2.75067	16475
2.75133	16471
2.75200	16467
2.75267	16463
2.75333	16460
2.75400	16456
2.75467	16453
2.75533	16449
2.75600	16446
2.75667	16442
2.75733	16439
2.75800	16435
2.75867	16432
2.75933	16429
2.76000	16425
2.76067	16422
2.76133	16419
2.76200	16415
2.76267	16412
2.76333	16409
2.76400	16405
2.76467	16402
2.76533	16399
2.76600	16396
2.76667	16393
2.76733	16390
2.76800	16387
2.76867	16385
2.76933	16382
2.77000	16379
2.77067	16376
2.77133	16374
2.77200	16371
2.77267	16369
2.77333	16366
2.77400	16364
2.77467	16362
2.77533	16360
2.77600	16358
2.77667	16356
2.77733	16354
2.77800	16352
2.77867	16350
2.77933	16348
2.78000	16347
2.78067	16345
2.78133	16344
2.78200	16343
2.78267	16341
2.78333	16340
2.78400	16340
2.78467	16339
2.78533	16338
2.78600	16338
2.78667	16337
2.78733	16337
2.78800	16337
2.78867	16337
2.78933	16337
2.79000	16338
2.79067	16338
2.79133	16339
2.79200	16340
2.79267	16341
2.79333	16342
2.79400	16343
2.79467	16345
2.79533	16347
2.79600	16349
2.79667	16351
2.79733	16353
2.79800	16356
2.79867	16358
2.79933	16361
2.80000	16364
2.80067	16367
2.80133	16370
2.80200	16374
2.80267	16377
2.80333	16381
2.80400	16385
2.80467	16389
2.80533	16393
2.80600	16397
2.80667	16401
2.80733	16406
2.80800	16411
2.80867	16415
2.80933	16420
2.81000	16425
2.81067	16430
2.81133	16435
2.81200	16440
2.81267	16445
2.81333	16450
2.81400	16455
2.81467	16460
2.81533	16465
2.81600	16470
2.81667	16475
2.81733	16479
2.81800	16484
2.81867	16489
2.81933	16493
2.82000	16497
2.82067	16501
2.82133	16505
2.82200	16508
2.82267	16512
2.82333	16515
2.82400	16518
2.82467	16521
2.82533	16523
2.82600	16525
2.82667	16527
2.82733	16529
2.82800	16530
2.82867	16532
2.82933	16533
2.83000	16533
2.83067	16533
2.83133	16533
2.83200	16533
2.83267	16532
2.83333	16531
2.83400	16530
2.83467	16528
2.83533	16526
2.83600	16523
2.83667	16521
2.83733	16517
2.83800	16514
2.83867	16510
2.83933	16506
2.84000	16502
2.84067	16497
2.84133	16492
2.84200	16487
2.84267	16482
2.84333	16476
2.84400	16470
2.84467	16464
2.84533	16457
2.84600	16451
2.84667	16444
2.84733	16437
2.84800	16429
2.84867	16422
2.84933	16414
2.85000	16407
2.85067	16399
2.85133	16390
2.85200	16382
2.85267	16374
2.85333	16365
2.85400	16357
2.85467	16348
2.85533	16339
2.85600	16331
2.85667	16322
2.85733	16313
2.85800	16304
2.85867	16295
2.85933	16286
2.86000	16277
2.86067	16268
2.86133	16259
2.86200	16250
2.86267	16241
2.86333	16232
2.86400	16224
2.86467	16215
2.86533	16206
2.86600	16198
2.86667	16189
2.86733	16181
2.86800	16172
2.86867	16164
2.86933	16156
2.87000	16148
2.87067	16140
2.87133	16132
2.87200	16124
2.87267	16116
2.87333	16109
2.87400	16101
2.87467	16094
2.87533	16087
2.87600	16080
2.87667	16073
2.87733	16067
2.87800	16061
2.87867	16054
2.87933	16048
2.88000	16042
2.88067	16037
2.88133	16031
2.88200	16026
2.88267	16021
2.88333	16016
2.88400	16011
2.88467	16007
2.88533	16003
2.88600	15998
2.88667	15995
2.88733	15991
2.88800	15988
2.88867	15985
2.88933	15982
2.89000	15979
2.89067	15977
2.89133	15975
2.89200	15973
2.89267	15971
2.89333	15970
2.89400	15968
2.89467	15967
2.89533	15966
2.89600	15966
2.89667	15965
2.89733	15965
2.89800	15965
2.89867	15965
2.89933	15965
2.90000	15965
2.90067	15965
2.90133	15966
2.90200	15967
2.90267	15967
2.90333	15968
2.90400	15969
2.90467	15970
2.90533	15971
2.90600	15972
2.90667	15973
2.90733	15974
2.90800	15975
2.90867	15976
2.90933	15976
2.91000	15977
2.91067	15977
2.91133	15978
2.91200	15978
2.91267	15978
2.91333	15978
2.91400	15977
2.91467	15977
2.91533	15976
2.91600	15975
2.91667	15974
2.91733	15973
2.91800	15971
2.91867	15969
2.91933	15967
2.92000	15964
2.92067	15962
2.92133	15959
2.92200	15956
2.92267	15952
2.92333	15949
2.92400	15944
2.92467	15940
2.92533	15936
2.92600	15931
2.92667	15926
2.92733	15920
2.92800	15914
2.92867	15909
2.92933	15902
2.93000	15896
2.93067	15889
2.93133	15882
2.93200	15874
2.93267	15867
2.93333	15859
2.93400	15851
2.93467	15843
2.93533	15834
2.93600	15826
2.93667	15817
2.93733	15808
2.93800	15799
2.93867	15790
2.93933	15780
2.94000	15770
2.94067	15760
2.94133	15750
2.94200	15740
2.94267	15730
2.94333	15720
2.94400	15709
2.94467	15699
2.94533	15688
2.94600	15678
2.94667	15667
2.94733	15656
2.94800	15645
2.94867	15635
2.94933	15624
2.95000	15613
2.95067	15602
2.95133	15591
2.95200	15580
2.95267	15569
2.95333	15558
2.95400	15547
2.95467	15536
2.95533	15526
2.95600	15515
2.95667	15504
2.95733	15493
2.95800	15483
2.95867	15472
2.95933	15462
2.96000	15451
2.96067	15441
2.96133	15430
2.96200	15420
2.96267	15410
2.96333	15400
2.96400	15390
2.96467	15380
2.96533	15370
2.96600	15360
2.96667	15350
2.96733	15341
2.96800	15331
2.96867	15322
2.96933	15312
2.97000	15303
2.97067	15294
2.97133	15285
2.97200	15276
2.97267	15267
2.97333	15258
2.97400	15249
2.97467	15240
2.97533	15232
2.97600	15223
2.97667	15215
2.97733	15206
2.97800	15198
2.97867	15190
2.97933	15182
2.98000	15174
2.98067	15166
2.98133	15158
2.98200	15151
2.98267	15143
2.98333	15136
2.98400	15128
2.98467	15121
2.98533	15113
2.98600	15106
2.98667	15099
2.98733	15092
2.98800	15085
2.98867	15078
2.98933	15072
2.99000	15065
2.99067	15058
2.99133	15051
2.99200	15045
2.99267	15038
2.99333	15032
2.99400	15025
2.99467	15019
2.99533	15013
2.99600	15006
2.99667	15000
2.99733	14994
2.99800	14988
2.99867	14982
2.99933	14976
3.00000	14970
3.00067	14964
3.00133	14958
3.00200	14952
3.00267	14946
3.00333	14940
3.00400	14934
3.00467	14928
3.00533	14923
3.00600	14917
3.00667	14911
3.00733	14906
3.00800	14900
3.00867	14894
3.00933	14889
3.01000	14883
3.01067	14878
3.01133	14872
3.01200	14867
3.01267	14862
3.01333	14856
3.01400	14851
3.01467	14846
3.01533	14840
3.01600	14835
3.01667	14830
3.01733	14825
3.01800	14819
3.01867	14814
3.01933	14809
3.02000	14804
3.02067	14799
3.02133	14794
3.02200	14789
3.02267	14784
3.02333	14779
3.02400	14774
3.02467	14769
3.02533	14764
3.02600	14760
3.02667	14755
3.02733	14750
3.02800	14745
3.02867	14740
3.02933	14735
3.03000	14730
3.03067	14726
3.03133	14721
3.03200	14716
3.03267	14711
3.03333	14707
3.03400	14702
3.03467	14697
3.03533	14693
3.03600	14688
3.03667	14684
3.03733	14679
3.03800	14675
3.03867	14670
3.03933	14666
3.04000	14662
3.04067	14657
3.04133	14653
3.04200	14649
3.04267	14645
3.04333	14640
3.04400	14636
3.04467	14632
3.04533	14628
3.04600	14623
3.04667	14619
3.04733	14615
3.04800	14611
3.04867	14607
3.04933	14603
3.05000	14599
3.05067	14595
3.05133	14591
3.05200	14587
3.05267	14583
3.05333	14579
3.05400	14576
3.05467	14572
3.05533	14568
3.05600	14565
3.05667	14561
3.05733	14557
3.05800	14554
3.05867	14550
3.05933	14547
3.06000	14543
3.06067	14539
3.06133	14536
3.06200	14532
3.06267	14529
3.06333	14525
3.06400	14522
3.06467	14518
3.06533	14515
3.06600	14511
3.06667	14508
3.06733	14505
3.06800	14501
3.06867	14498
3.06933	14495
3.07000	14491
3.07067	14488
3.07133	14485
3.07200	14482
3.07267	14479
3.07333	14475
3.07400	14472
3.07467	14469
3.07533	14466
3.07600	14463
3.07667	14460
3.07733	14457
3.07800	14454
3.07867	14451
3.07933	14448
3.08000	14445
3.08067	14441
3.08133	14438
3.08200	14435
3.08267	14432
3.08333	14429
3.08400	14426
3.08467	14423
3.08533	14419
3.08600	14416
3.08667	14413
3.08733	14409
3.08800	14406
3.08867	14403
3.08933	14399
3.09000	14396
3.09067	14393
3.09133	14389
3.09200	14386
3.09267	14382
3.09333	14379
3.09400	14376
3.09467	14372
3.09533	14369
3.09600	14365
3.09667	14362
3.09733	14358
3.09800	14354
3.09867	14351
3.09933	14347
3.10000	14344
3.10067	14340
3.10133	14336
3.10200	14332
3.10267	14329
3.10333	14325
3.10400	14321
3.10467	14317
3.10533	14313
3.10600	14309
3.10667	14305
3.10733	14301
3.10800	14297
3.10867	14293
3.10933	14289
3.11000	14285
3.11067	14281
3.11133	14277
3.11200	14272
3.11267	14268
3.11333	14264
3.11400	14259
3.11467	14255
3.11533	14251
3.11600	14246
3.11667	14242
3.11733	14238
3.11800	14233
3.11867	14229
3.11933	14224
3.12000	14220
3.12067	14215
3.12133	14211
3.12200	14206
3.12267	14202
3.12333	14197
3.12400	14193
3.12467	14188
3.12533	14184
3.12600	14179
3.12667	14175
3.12733	14170
3.12800	14166
3.12867	14161
3.12933	14157
3.13000	14152
3.13067	14148
3.13133	14144
3.13200	14139
3.13267	14135
3.13333	14131
3.13400	14126
3.13467	14122
3.13533	14118
3.13600	14114
3.13667	14110
3.13733	14106
3.13800	14101
3.13867	14097
3.13933	14093
3.14000	14089
3.14067	14085
3.14133	14081
3.14200	14077
3.14267	14072
3.14333	14068
3.14400	14064
3.14467	14060
3.14533	14056
3.14600	14052
3.14667	14048
3.14733	14044
3.14800	14040
3.14867	14036
3.14933	14032
3.15000	14028
3.15067	14024
3.15133	14020
3.15200	14016
3.15267	14012
3.15333	14008
3.15400	14004
3.15467	14000
3.15533	13996
3.15600	13992
3.15667	13988
3.15733	13984
3.15800	13981
3.15867	13977
3.15933	13973
3.16000	13969
3.16067	13965
3.16133	13961
3.16200	13957
3.16267	13954
3.16333	13950
3.16400	13946
3.16467	13942
3.16533	13938
3.16600	13934
3.16667	13930
3.16733	13927
3.16800	13923
3.16867	13919
3.16933	13915
3.17000	13912
3.17067	13908
3.17133	13904
3.17200	13901
3.17267	13897
3.17333	13893
3.17400	13890
3.17467	13886
3.17533	13883
3.17600	13879
3.17667	13876
3.17733	13872
3.17800	13869
3.17867	13865
3.17933	13862
3.18000	13858
3.18067	13855
3.18133	13851
3.18200	13848
3.18267	13844
3.18333	13841
3.18400	13837
3.18467	13834
3.18533	13831
3.18600	13827
3.18667	13824
3.18733	13820
3.18800	13817
3.18867	13813
3.18933	13810
3.19000	13806
3.19067	13803
3.19133	13799
3.19200	13796
3.19267	13792
3.19333	13789
3.19400	13785
3.19467	13782
3.19533	13779
3.19600	13775
3.19667	13772
3.19733	13769
3.19800	13765
3.19867	13762
3.19933	13759
3.20000	13755
3.20067	13752
3.20133	13749
3.20200	13745
3.20267	13742
3.20333	13739
3.20400	13736
3.20467	13733
3.20533	13729
3.20600	13726
3.20667	13723
3.20733	13720
3.20800	13717
3.20867	13714
3.20933	13711
3.21000	13708
3.21067	13705
3.21133	13702
3.21200	13699
3.21267	13696
3.21333	13693
3.21400	13690
3.21467	13687
3.21533	13683
3.21600	13680
3.21667	13677
3.21733	13674
3.21800	13671
3.21867	13668
3.21933	13665
3.22000	13662
3.22067	13659
3.22133	13657
3.22200	13654
3.22267	13651
3.22333	13648
3.22400	13645
3.22467	13642
3.22533	13639
3.22600	13637
3.22667	13634
3.22733	13631
3.22800	13628
3.22867	13625
3.22933	13623
3.23000	13620
3.23067	13617
3.23133	13614
3.23200	13612
3.23267	13609
3.23333	13606
3.23400	13603
3.23467	13600
3.23533	13598
3.23600	13595
3.23667	13592
3.23733	13589
3.23800	13586
3.23867	13584
3.23933	13581
3.24000	13578
3.24067	13575
3.24133	13573
3.24200	13570
3.24267	13567
3.24333	13565
3.24400	13562
3.24467	13559
3.24533	13557
3.24600	13554
3.24667	13551
3.24733	13549
3.24800	13546
3.24867	13543
3.24933	13540
3.25000	13538
3.25067	13535
3.25133	13532
3.25200	13529
3.25267	13526
3.25333	13523
3.25400	13520
3.25467	13517
3.25533	13514
3.25600	13511
3.25667	13508
3.25733	13505
3.25800	13502
3.25867	13499
3.25933	13496
3.26000	13492
3.26067	13489
3.26133	13486
3.26200	13483
3.26267	13481
3.26333	13478
3.26400	13475
3.26467	13472
3.26533	13469
3.26600	13466
3.26667	13463
3.26733	13460
3.26800	13457
3.26867	13455
3.26933	13452
3.27000	13449
3.27067	13446
3.27133	13443
3.27200	13441
3.27267	13438
3.27333	13435
3.27400	13432
3.27467	13429
3.27533	13426
3.27600	13423
3.27667	13421
3.27733	13418
3.27800	13415
3.27867	13412
3.27933	13409
3.28000	13406
3.28067	13404
3.28133	13401
3.28200	13398
3.28267	13395
3.28333	13392
3.28400	13389
3.28467	13386
3.28533	13384
3.28600	13381
3.28667	13378
3.28733	13375
3.28800	13372
3.28867	13369
3.28933	13366
3.29000	13363
3.29067	13360
3.29133	13357
3.29200	13355
3.29267	13352
3.29333	13349
3.29400	13346
3.29467	13343
3.29533	13340
3.29600	13337
3.29667	13334
3.29733	13331
3.29800	13328
3.29867	13325
3.29933	13323
3.30000	13320
3.30067	13317
3.30133	13314
3.30200	13311
3.30267	13309
3.30333	13306
3.30400	13303
3.30467	13301
3.30533	13298
3.30600	13295
3.30667	13293
3.30733	13290
3.30800	13287
3.30867	13285
3.30933	13282
3.31000	13279
3.31067	13277
3.31133	13274
3.31200	13272
3.31267	13269
3.31333	13266
3.31400	13264
3.31467	13261
3.31533	13259
3.31600	13256
3.31667	13254
3.31733	13251
3.31800	13249
3.31867	13246
3.31933	13244
3.32000	13241
3.32067	13239
3.32133	13236
3.32200	13234
3.32267	13232
3.32333	13229
3.32400	13227
3.32467	13224
3.32533	13222
3.32600	13220
3.32667	13217
3.32733	13215
3.32800	13212
3.32867	13210
3.32933	13208
3.33000	13205
3.33067	13203
3.33133	13200
3.33200	13198
3.33267	13196
3.33333	13193
3.33400	13191
3.33467	13188
3.33533	13186
3.33600	13183
3.33667	13181
3.33733	13178
3.33800	13176
3.33867	13173
3.33933	13171
3.34000	13168
3.34067	13166
3.34133	13163
3.34200	13161
3.34267	13158
3.34333	13155
3.34400	13153
3.34467	13150
3.34533	13148
3.34600	13145
3.34667	13143
3.34733	13140
3.34800	13137
3.34867	13135
3.34933	13132
3.35000	13129
3.35067	13127
3.35133	13124
3.35200	13121
3.35267	13119
3.35333	13116
3.35400	13114
3.35467	13111
3.35533	13108
3.35600	13106
3.35667	13103
3.35733	13100
3.35800	13097
3.35867	13095
3.35933	13092
3.36000	13090
3.36067	13087
3.36133	13084
3.36200	13082
3.36267	13079
3.36333	13076
3.36400	13074
3.36467	13071
3.36533	13069
3.36600	13066
3.36667	13063
3.36733	13061
3.36800	13058
3.36867	13056
3.36933	13053
3.37000	13051
3.37067	13048
3.37133	13046
3.37200	13043
3.37267	13041
3.37333	13038
3.37400	13036
3.37467	13033
3.37533	13031
3.37600	13028
3.37667	13026
3.37733	13023
3.37800	13020
3.37867	13018
3.37933	13015
3.38000	13013
3.38067	13010
3.38133	13007
3.38200	13005
3.38267	13002
3.38333	12999
3.38400	12996
3.38467	12994
3.38533	12991
3.38600	12988
3.38667	12986
3.38733	12983
3.38800	12980
3.38867	12978
3.38933	12975
3.39000	12972
3.39067	12970
3.39133	12967
3.39200	12965
3.39267	12962
3.39333	12960
3.39400	12957
3.39467	12955
3.39533	12952
3.39600	12949
3.39667	12947
3.39733	12944
3.39800	12942
3.39867	12939
3.39933	12937
3.40000	12934
3.40067	12932
3.40133	12929
3.40200	12927
3.40267	12925
3.40333	12922
3.40400	12920
3.40467	12917
3.40533	12915
3.40600	12912
3.40667	12910
3.40733	12907
3.40800	12905
3.40867	12903
3.40933	12900
3.41000	12898
3.41067	12895
3.41133	12893
3.41200	12890
3.41267	12888
3.41333	12886
3.41400	12883
3.41467	12881
3.41533	12879
3.41600	12876
3.41667	12874
3.41733	12872
3.41800	12869
3.41867	12867
3.41933	12864
3.42000	12862
3.42067	12859
3.42133	12857
3.42200	12855
3.42267	12852
3.42333	12850
3.42400	12847
3.42467	12845
3.42533	12843
3.42600	12840
3.42667	12838
3.42733	12836
3.42800	12834
3.42867	12832
3.42933	12829
3.43000	12827
3.43067	12825
3.43133	12823
3.43200	12821
3.43267	12818
3.43333	12816
3.43400	12814
3.43467	12812
3.43533	12810
3.43600	12808
3.43667	12806
3.43733	12804
3.43800	12802
3.43867	12800
3.43933	12798
3.44000	12796
3.44067	12794
3.44133	12793
3.44200	12791
3.44267	12789
3.44333	12787
3.44400	12786
3.44467	12784
3.44533	12783
3.44600	12781
3.44667	12779
3.44733	12778
3.44800	12776
3.44867	12774
3.44933	12773
3.45000	12771
3.45067	12770
3.45133	12769
3.45200	12767
3.45267	12766
3.45333	12765
3.45400	12763
3.45467	12762
3.45533	12761
3.45600	12760
3.45667	12759
3.45733	12758
3.45800	12757
3.45867	12756
3.45933	12755
3.46000	12754
3.46067	12753
3.46133	12753
3.46200	12752
3.46267	12751
3.46333	12750
3.46400	12750
3.46467	12749
3.46533	12748
3.46600	12748
3.46667	12747
3.46733	12747
3.46800	12746
3.46867	12746
3.46933	12745
3.47000	12745
3.47067	12744
3.47133	12744
3.47200	12743
3.47267	12743
3.47333	12743
3.47400	12742
3.47467	12742
3.47533	12742
3.47600	12742
3.47667	12742
3.47733	12742
3.47800	12742
3.47867	12742
3.47933	12742
3.48000	12742
3.48067	12743
3.48133	12743
3.48200	12743
3.48267	12744
3.48333	12744
3.48400	12744
3.48467	12745
3.48533	12745
3.48600	12746
3.48667	12747
3.48733	12747
3.48800	12748
3.48867	12749
3.48933	12750
3.49000	12751
3.49067	12752
3.49133	12753
3.49200	12754
3.49267	12756
3.49333	12757
3.49400	12758
3.49467	12760
3.49533	12762
3.49600	12764
3.49667	12766
3.49733	12768
3.49800	12771
3.49867	12773
3.49933	12776
3.50000	12779
3.50067	12782
3.50133	12785
3.50200	12788
3.50267	12792
3.50333	12795
3.50400	12799
3.50467	12803
3.50533	12808
3.50600	12812
3.50667	12817
3.50733	12823
3.50800	12828
3.50867	12834
3.50933	12840
3.51000	12846
3.51067	12853
3.51133	12860
3.51200	12867
3.51267	12875
3.51333	12883
3.51400	12892
3.51467	12901
3.51533	12910
3.51600	12920
3.51667	12930
3.51733	12941
3.51800	12952
3.51867	12964
3.51933	12976
3.52000	12989
3.52067	13002
3.52133	13016
3.52200	13030
3.52267	13045
3.52333	13060
3.52400	13076
3.52467	13092
3.52533	13109
3.52600	13126
3.52667	13144
3.52733	13162
3.52800	13181
3.52867	13200
3.52933	13220
3.53000	13241
3.53067	13262
3.53133	13283
3.53200	13305
3.53267	13327
3.53333	13350
3.53400	13373
3.53467	13397
3.53533	13421
3.53600	13446
3.53667	13471
3.53733	13497
3.53800	13523
3.53867	13549
3.53933	13576
3.54000	13603
3.54067	13631
3.54133	13658
3.54200	13687
3.54267	13715
3.54333	13744
3.54400	13773
3.54467	13802
3.54533	13831
3.54600	13861
3.54667	13890
3.54733	13920
3.54800	13949
3.54867	13979
3.54933	14008
3.55000	14038
3.55067	14067
3.55133	14096
3.55200	14125
3.55267	14154
3.55333	14183
3.55400	14211
3.55467	14239
3.55533	14267
3.55600	14294
3.55667	14321
3.55733	14348
3.55800	14374
3.55867	14399
3.55933	14424
3.56000	14449
3.56067	14473
3.56133	14496
3.56200	14519
3.56267	14541
3.56333	14562
3.56400	14583
3.56467	14603
3.56533	14622
3.56600	14640
3.56667	14657
3.56733	14674
3.56800	14690
3.56867	14705
3.56933	14719
3.57000	14733
3.57067	14745
3.57133	14757
3.57200	14768
3.57267	14778
3.57333	14788
3.57400	14797
3.57467	14804
3.57533	14811
3.57600	14818
3.57667	14823
3.57733	14828
3.57800	14832
3.57867	14835
3.57933	14837
3.58000	14838
3.58067	14839
3.58133	14839
3.58200	14838
3.58267	14837
3.58333	14835
3.58400	14832
3.58467	14828
3.58533	14824
3.58600	14819
3.58667	14814
3.58733	14808
3.58800	14801
3.58867	14794
3.58933	14786
3.59000	14778
3.59067	14769
3.59133	14760
3.59200	14750
3.59267	14740
3.59333	14729
3.59400	14718
3.59467	14707
3.59533	14695
3.59600	14683
3.59667	14670
3.59733	14657
3.59800	14644
3.59867	14631
3.59933	14617
3.60000	14603
3.60067	14589
3.60133	14574
3.60200	14560
3.60267	14546
3.60333	14531
3.60400	14516
3.60467	14501
3.60533	14486
3.60600	14471
3.60667	14456
3.60733	14441
3.60800	14426
3.60867	14411
3.60933	14395
3.61000	14380
3.61067	14365
3.61133	14349
3.61200	14334
3.61267	14318
3.61333	14303
3.61400	14287
3.61467	14271
3.61533	14256
3.61600	14240
3.61667	14224
3.61733	14209
3.61800	14193
3.61867	14177
3.61933	14161
3.62000	14146
3.62067	14130
3.62133	14114
3.62200	14098
3.62267	14082
3.62333	14066
3.62400	14050
3.62467	14034
3.62533	14018
3.62600	14003
3.62667	13987
3.62733	13970
3.62800	13954
3.62867	13938
3.62933	13922
3.63000	13906
3.63067	13889
3.63133	13873
3.63200	13856
3.63267	13840
3.63333	13823
3.63400	13806
3.63467	13790
3.63533	13773
3.63600	13756
3.63667	13739
3.63733	13721
3.63800	13704
3.63867	13687
3.63933	13670
3.64000	13652
3.64067	13634
3.64133	13617
3.64200	13599
3.64267	13581
3.64333	13563
3.64400	13546
3.64467	13528
3.64533	13510
3.64600	13492
3.64667	13474
3.64733	13456
3.64800	13438
3.64867	13419
3.64933	13401
3.65000	13383
3.65067	13365
3.65133	13346
3.65200	13328
3.65267	13310
3.65333	13292
3.65400	13273
3.65467	13255
3.65533	13237
3.65600	13219
3.65667	13201
3.65733	13183
3.65800	13165
3.65867	13147
3.65933	13129
3.66000	13111
3.66067	13093
3.66133	13075
3.66200	13057
3.66267	13040
3.66333	13022
3.66400	13004
3.66467	12987
3.66533	12969
3.66600	12952
3.66667	12935
3.66733	12918
3.66800	12900
3.66867	12883
3.66933	12866
3.67000	12849
3.67067	12833
3.67133	12816
3.67200	12799
3.67267	12783
3.67333	12766
3.67400	12750
3.67467	12734
3.67533	12718
3.67600	12702
3.67667	12686
3.67733	12670
3.67800	12655
3.67867	12639
3.67933	12624
3.68000	12609
3.68067	12593
3.68133	12578
3.68200	12563
3.68267	12549
3.68333	12534
3.68400	12520
3.68467	12505
3.68533	12491
3.68600	12477
3.68667	12463
3.68733	12449
3.68800	12436
3.68867	12422
3.68933	12409
3.69000	12395
3.69067	12382
3.69133	12369
3.69200	12356
3.69267	12344
3.69333	12331
3.69400	12319
3.69467	12306
3.69533	12294
3.69600	12282
3.69667	12270
3.69733	12258
3.69800	12246
3.69867	12234
3.69933	12223
3.70000	12211
3.70067	12200
3.70133	12189
3.70200	12177
3.70267	12166
3.70333	12155
3.70400	12144
3.70467	12134
3.70533	12123
3.70600	12113
3.70667	12103
3.70733	12092
3.70800	12082
3.70867	12072
3.70933	12063
3.71000	12053
3.71067	12043
3.71133	12034
3.71200	12025
3.71267	12016
3.71333	12006
3.71400	11997
3.71467	11988
3.71533	11979
3.71600	11971
3.71667	11962
3.71733	11953
3.71800	11945
3.71867	11937
3.71933	11928
3.72000	11920
3.72067	11912
3.72133	11904
3.72200	11896
3.72267	11889
3.72333	11881
3.72400	11873
3.72467	11865
3.72533	11858
3.72600	11850
3.72667	11843
3.72733	11836
3.72800	11829
3.72867	11821
3.72933	11814
3.73000	11807
3.73067	11801
3.73133	11794
3.73200	11787
3.73267	11780
3.73333	11774
3.73400	11767
3.73467	11761
3.73533	11754
3.73600	11748
3.73667	11741
3.73733	11735
3.73800	11729
3.73867	11723
3.73933	11717
3.74000	11710
3.74067	11704
3.74133	11698
3.74200	11693
3.74267	11687
3.74333	11681
3.74400	11675
3.74467	11670
3.74533	11664
3.74600	11659
3.74667	11653
3.74733	11648
3.74800	11642
3.74867	11637
3.74933	11631
3.75000	11626
3.75067	11621
3.75133	11616
3.75200	11611
3.75267	11605
3.75333	11600
3.75400	11595
3.75467	11590
3.75533	11585
3.75600	11580
3.75667	11575
3.75733	11570
3.75800	11565
3.75867	11560
3.75933	11555
3.76000	11551
3.76067	11546
3.76133	11541
3.76200	11536
3.76267	11532
3.76333	11527
3.76400	11522
3.76467	11518
3.76533	11513
3.76600	11509
3.76667	11505
3.76733	11500
3.76800	11496
3.76867	11492
3.76933	11487
3.77000	11483
3.77067	11479
3.77133	11475
3.77200	11470
3.77267	11466
3.77333	11462
3.77400	11458
3.77467	11454
3.77533	11449
3.77600	11445
3.77667	11441
3.77733	11437
3.77800	11433
3.77867	11429
3.77933	11425
3.78000	11421
3.78067	11417
3.78133	11413
3.78200	11410
3.78267	11406
3.78333	11402
3.78400	11398
3.78467	11394
3.78533	11391
3.78600	11387
3.78667	11383
3.78733	11380
3.78800	11376
3.78867	11372
3.78933	11369
3.79000	11365
3.79067	11362
3.79133	11358
3.79200	11355
3.79267	11351
3.79333	11348
3.79400	11344
3.79467	11341
3.79533	11337
3.79600	11334
3.79667	11330
3.79733	11327
3.79800	11323
3.79867	11320
3.79933	11316
3.80000	11313
3.80067	11309
3.80133	11306
3.80200	11303
3.80267	11299
3.80333	11296
3.80400	11293
3.80467	11290
3.80533	11286
3.80600	11283
3.80667	11279
3.80733	11276
3.80800	11273
3.80867	11269
3.80933	11266
3.81000	11263
3.81067	11260
3.81133	11256
3.81200	11253
3.81267	11250
3.81333	11246
3.81400	11243
3.81467	11240
3.81533	11237
3.81600	11234
3.81667	11231
3.81733	11228
3.81800	11224
3.81867	11221
3.81933	11218
3.82000	11215
3.82067	11212
3.82133	11210
3.82200	11207
3.82267	11204
3.82333	11201
3.82400	11198
3.82467	11195
3.82533	11192
3.82600	11189
3.82667	11186
3.82733	11183
3.82800	11180
3.82867	11178
3.82933	11175
3.83000	11172
3.83067	11169
3.83133	11166
3.83200	11163
3.83267	11161
3.83333	11158
3.83400	11155
3.83467	11152
3.83533	11149
3.83600	11146
3.83667	11144
3.83733	11141
3.83800	11138
3.83867	11135
3.83933	11132
3.84000	11129
3.84067	11126
3.84133	11123
3.84200	11121
3.84267	11118
3.84333	11115
3.84400	11112
3.84467	11109
3.84533	11106
3.84600	11103
3.84667	11100
3.84733	11097
3.84800	11095
3.84867	11092
3.84933	11089
3.85000	11086
3.85067	11083
3.85133	11080
3.85200	11078
3.85267	11075
3.85333	11072
3.85400	11069
3.85467	11067
3.85533	11064
3.85600	11061
3.85667	11058
3.85733	11056
3.85800	11053
3.85867	11050
3.85933	11048
3.86000	11045
3.86067	11043
3.86133	11040
3.86200	11038
3.86267	11035
3.86333	11033
3.86400	11030
3.86467	11028
3.86533	11025
3.86600	11023
3.86667	11020
3.86733	11018
3.86800	11016
3.86867	11013
3.86933	11011
3.87000	11009
3.87067	11006
3.87133	11004
3.87200	11002
3.87267	10999
3.87333	10997
3.87400	10995
3.87467	10993
3.87533	10990
3.87600	10988
3.87667	10986
3.87733	10984
3.87800	10982
3.87867	10979
3.87933	10977
3.88000	10975
3.88067	10973
3.88133	10971
3.88200	10968
3.88267	10966
3.88333	10964
3.88400	10962
3.88467	10959
3.88533	10957
3.88600	10955
3.88667	10953
3.88733	10951
3.88800	10949
3.88867	10947
3.88933	10944
3.89000	10942
3.89067	10940
3.89133	10938
3.89200	10936
3.89267	10934
3.89333	10932
3.89400	10930
3.89467	10928
3.89533	10926
3.89600	10924
3.89667	10922
3.89733	10920
3.89800	10918
3.89867	10916
3.89933	10914
3.90000	10912
3.90067	10910
3.90133	10908
3.90200	10906
3.90267	10904
3.90333	10901
3.90400	10899
3.90467	10898
3.90533	10896
3.90600	10894
3.90667	10892
3.90733	10890
3.90800	10888
3.90867	10886
3.90933	10884
3.91000	10882
3.91067	10881
3.91133	10879
3.91200	10877
3.91267	10875
3.91333	10873
3.91400	10871
3.91467	10869
3.91533	10868
3.91600	10866
3.91667	10864
3.91733	10862
3.91800	10860
3.91867	10858
3.91933	10856
3.92000	10855
3.92067	10853
3.92133	10851
3.92200	10849
3.92267	10847
3.92333	10845
3.92400	10843
3.92467	10841
3.92533	10839
3.92600	10837
3.92667	10835
3.92733	10834
3.92800	10832
3.92867	10830
3.92933	10828
3.93000	10826
3.93067	10824
3.93133	10822
3.93200	10820
3.93267	10819
3.93333	10817
3.93400	10815
3.93467	10813
3.93533	10811
3.93600	10809
3.93667	10807
3.93733	10805
3.93800	10803
3.93867	10801
3.93933	10799
3.94000	10797
3.94067	10794
3.94133	10792
3.94200	10790
3.94267	10788
3.94333	10786
3.94400	10784
3.94467	10782
3.94533	10780
3.94600	10778
3.94667	10776
3.94733	10774
3.94800	10772
3.94867	10770
3.94933	10768
3.95000	10766
3.95067	10763
3.95133	10761
3.95200	10759
3.95267	10757
3.95333	10755
3.95400	10753
3.95467	10751
3.95533	10749
3.95600	10746
3.95667	10744
3.95733	10742
3.95800	10740
3.95867	10738
3.95933	10736
3.96000	10734
3.96067	10732
3.96133	10730
3.96200	10728
3.96267	10726
3.96333	10724
3.96400	10722
3.96467	10720
3.96533	10718
3.96600	10716
3.96667	10714
3.96733	10712
3.96800	10710
3.96867	10708
3.96933	10706
3.97000	10705
3.97067	10703
3.97133	10701
3.97200	10699
3.97267	10697
3.97333	10696
3.97400	10694
3.97467	10692
3.97533	10691
3.97600	10689
3.97667	10688
3.97733	10686
3.97800	10684
3.97867	10683
3.97933	10682
3.98000	10680
3.98067	10679
3.98133	10677
3.98200	10676
3.98267	10675
3.98333	10673
3.98400	10672
3.98467	10671
3.98533	10670
3.98600	10669
3.98667	10668
3.98733	10667
3.98800	10666
3.98867	10665
3.98933	10664
3.99000	10664
3.99067	10663
3.99133	10663
3.99200	10662
3.99267	10662
3.99333	10662
3.99400	10662
3.99467	10662
3.99533	10662
3.99600	10662
3.99667	10662
3.99733	10663
3.99800	10663
3.99867	10664
3.99933	10665
4.00000	10665
4.00067	10666
4.00133	10667
4.00200	10669
4.00267	10670
4.00333	10672
4.00400	10673
4.00467	10675
4.00533	10677
4.00600	10679
4.00667	10681
4.00733	10683
4.00800	10685
4.00867	10688
4.00933	10691
4.01000	10694
4.01067	10697
4.01133	10700
4.01200	10703
4.01267	10707
4.01333	10710
4.01400	10714
4.01467	10718
4.01533	10722
4.01600	10726
4.01667	10731
4.01733	10735
4.01800	10740
4.01867	10745
4.01933	10750
4.02000	10755
4.02067	10761
4.02133	10766
4.02200	10772
4.02267	10779
4.02333	10785
4.02400	10791
4.02467	10798
4.02533	10805
4.02600	10812
4.02667	10819
4.02733	10827
4.02800	10834
4.02867	10842
4.02933	10850
4.03000	10858
4.03067	10867
4.03133	10875
4.03200	10884
4.03267	10893
4.03333	10902
4.03400	10911
4.03467	10921
4.03533	10931
4.03600	10940
4.03667	10950
4.03733	10960
4.03800	10971
4.03867	10981
4.03933	10992
4.04000	11003
4.04067	11014
4.04133	11025
4.04200	11036
4.04267	11048
4.04333	11059
4.04400	11071
4.04467	11083
4.04533	11095
4.04600	11108
4.04667	11120
4.04733	11132
4.04800	11145
4.04867	11158
4.04933	11171
4.05000	11184
4.05067	11197
4.05133	11210
4.05200	11223
4.05267	11237
4.05333	11250
4.05400	11264
4.05467	11277
4.05533	11291
4.05600	11304
4.05667	11318
4.05733	11331
4.05800	11345
4.05867	11358
4.05933	11372
4.06000	11385
4.06067	11399
4.06133	11412
4.06200	11426
4.06267	11439
4.06333	11453
4.06400	11466
4.06467	11479
4.06533	11492
4.06600	11505
4.06667	11518
4.06733	11531
4.06800	11544
4.06867	11556
4.06933	11569
4.07000	11581
4.07067	11593
4.07133	11605
4.07200	11617
4.07267	11629
4.07333	11640
4.07400	11652
4.07467	11663
4.07533	11674
4.07600	11685
4.07667	11696
4.07733	11706
4.07800	11717
4.07867	11727
4.07933	11737
4.08000	11747
4.08067	11756
4.08133	11765
4.08200	11775
4.08267	11784
4.08333	11793
4.08400	11801
4.08467	11810
4.08533	11818
4.08600	11826
4.08667	11834
4.08733	11841
4.08800	11848
4.08867	11855
4.08933	11862
4.09000	11869
4.09067	11875
4.09133	11881
4.09200	11887
4.09267	11892
4.09333	11898
4.09400	11903
4.09467	11908
4.09533	11913
4.09600	11917
4.09667	11921
4.09733	11925
4.09800	11929
4.09867	11932
4.09933	11936
4.10000	11939
4.10067	11942
4.10133	11944
4.10200	11947
4.10267	11949
4.10333	11951
4.10400	11953
4.10467	11954
4.10533	11956
4.10600	11957
4.10667	11958
4.10733	11959
4.10800	11960
4.10867	11960
4.10933	11961
4.11000	11961
4.11067	11961
4.11133	11961
4.11200	11961
4.11267	11960
4.11333	11960
4.11400	11959
4.11467	11959
4.11533	11958
4.11600	11957
4.11667	11956
4.11733	11955
4.11800	11954
4.11867	11953
4.11933	11952
4.12000	11951
4.12067	11949
4.12133	11948
4.12200	11947
4.12267	11945
4.12333	11944
4.12400	11943
4.12467	11941
4.12533	11940
4.12600	11939
4.12667	11938
4.12733	11937
4.12800	11935
4.12867	11934
4.12933	11934
4.13000	11933
4.13067	11932
4.13133	11931
4.13200	11931
4.13267	11930
4.13333	11930
4.13400	11930
4.13467	11929
4.13533	11929
4.13600	11929
4.13667	11929
4.13733	11930
4.13800	11930
4.13867	11930
4.13933	11931
4.14000	11931
4.14067	11932
4.14133	11933
4.14200	11934
4.14267	11935
4.14333	11936
4.14400	11937
4.14467	11938
4.14533	11940
4.14600	11941
4.14667	11943
4.14733	11945
4.14800	11946
4.14867	11948
4.14933	11950
4.15000	11953
4.15067	11955
4.15133	11957
4.15200	11960
4.15267	11962
4.15333	11965
4.15400	11967
4.15467	11970
4.15533	11973
4.15600	11976
4.15667	11979
4.15733	11982
4.15800	11985
4.15867	11989
4.15933	11992
4.16000	11996
4.16067	11999
4.16133	12003
4.16200	12007
4.16267	12010
4.16333	12014
4.16400	12018
4.16467	12022
4.16533	12026
4.16600	12030
4.16667	12034
4.16733	12038
4.16800	12043
4.16867	12047
4.16933	12051
4.17000	12056
4.17067	12060
4.17133	12065
4.17200	12069
4.17267	12074
4.17333	12079
4.17400	12083
4.17467	12088
4.17533	12093
4.17600	12098
4.17667	12102
4.17733	12107
4.17800	12112
4.17867	12117
4.17933	12122
4.18000	12127
4.18067	12132
4.18133	12137
4.18200	12142
4.18267	12147
4.18333	12152
4.18400	12157
4.18467	12162
4.18533	12167
4.18600	12172
4.18667	12177
4.18733	12182
4.18800	12187
4.18867	12192
4.18933	12197
4.19000	12203
4.19067	12208
4.19133	12213
4.19200	12218
4.19267	12224
4.19333	12229
4.19400	12235
4.19467	12240
4.19533	12246
4.19600	12251
4.19667	12257
4.19733	12263
4.19800	12269
4.19867	12275
4.19933	12281
4.20000	12287
4.20067	12293
4.20133	12299
4.20200	12305
4.20267	12312
4.20333	12318
4.20400	12325
4.20467	12332
4.20533	12339
4.20600	12346
4.20667	12353
4.20733	12360
4.20800	12368
4.20867	12376
4.20933	12384
4.21000	12392
4.21067	12400
4.21133	12409
4.21200	12418
4.21267	12427
4.21333	12436
4.21400	12446
4.21467	12456
4.21533	12466
4.21600	12477
4.21667	12487
4.21733	12499
4.21800	12510
4.21867	12522
4.21933	12535
4.22000	12548
4.22067	12561
4.22133	12575
4.22200	12590
4.22267	12605
4.22333	12620
4.22400	12636
4.22467	12653
4.22533	12671
4.22600	12689
4.22667	12708
4.22733	12727
4.22800	12748
4.22867	12769
4.22933	12791
4.23000	12814
4.23067	12838
4.23133	12863
4.23200	12890
4.23267	12917
4.23333	12945
4.23400	12974
4.23467	13005
4.23533	13037
4.23600	13070
4.23667	13104
4.23733	13140
4.23800	13178
4.23867	13217
4.23933	13257
4.24000	13299
4.24067	13343
4.24133	13389
4.24200	13437
4.24267	13486
4.24333	13538
4.24400	13591
4.24467	13647
4.24533	13705
4.24600	13766
4.24667	13829
4.24733	13895
4.24800	13963
4.24867	14034
4.24933	14108
4.25000	14185
4.25067	14265
4.25133	14349
4.25200	14436
4.25267	14526
4.25333	14621
4.25400	14719
4.25467	14820
4.25533	14926
4.25600	15037
4.25667	15151
4.25733	15271
4.25800	15395
4.25867	15524
4.25933	15658
4.26000	15797
4.26067	15943
4.26133	16094
4.26200	16251
4.26267	16414
4.26333	16584
4.26400	16760
4.26467	16943
4.26533	17133
4.26600	17331
4.26667	17536
4.26733	17748
4.26800	17969
4.26867	18197
4.26933	18434
4.27000	18680
4.27067	18934
4.27133	19198
4.27200	19471
4.27267	19753
4.27333	20046
4.27400	20349
4.27467	20662
4.27533	20986
4.27600	21321
4.27667	21668
4.27733	22025
4.27800	22395
4.27867	22776
4.27933	23170
4.28000	23577
4.28067	23997
4.28133	24430
4.28200	24877
4.28267	25338
4.28333	25813
4.28400	26303
4.28467	26808
4.28533	27329
4.28600	27865
4.28667	28417
4.28733	28986
4.28800	29571
4.28867	30174
4.28933	30795
4.29000	31435
4.29067	32093
4.29133	32769
4.29200	33465
4.29267	34181
4.29333	34916
4.29400	35671
4.29467	36446
4.29533	37242
4.29600	38059
4.29667	38897
4.29733	39756
4.29800	40638
4.29867	41541
4.29933	42467
4.30000	43415
4.30067	44386
4.30133	45379
4.30200	46396
4.30267	47435
4.30333	48498
4.30400	49584
4.30467	50693
4.30533	51826
4.30600	52983
4.30667	54164
4.30733	55368
4.30800	56597
4.30867	57849
4.30933	59126
4.31000	60427
4.31067	61753
4.31133	63105
4.31200	64481
4.31267	65884
4.31333	67312
4.31400	68766
4.31467	70246
4.31533	71751
4.31600	73283
4.31667	74840
4.31733	76424
4.31800	78033
4.31867	79669
4.31933	81330
4.32000	83018
4.32067	84730
4.32133	86469
4.32200	88233
4.32267	90022
4.32333	91836
4.32400	93674
4.32467	95537
4.32533	97424
4.32600	99335
4.32667	101269
4.32733	103225
4.32800	105204
4.32867	107206
4.32933	109229
4.33000	111274
4.33067	113341
4.33133	115428
4.33200	117535
4.33267	119661
4.33333	121807
4.33400	123971
4.33467	126154
4.33533	128354
4.33600	130571
4.33667	132804
4.33733	135052
4.33800	137315
4.33867	139591
4.33933	141880
4.34000	144182
4.34067	146497
4.34133	148824
4.34200	151163
4.34267	153513
4.34333	155873
4.34400	158241
4.34467	160618
4.34533	163002
4.34600	165392
4.34667	167788
4.34733	170190
4.34800	172597
4.34867	175007
4.34933	177420
4.35000	179836
4.35067	182252
4.35133	184668
4.35200	187083
4.35267	189493
4.35333	191897
4.35400	194294
4.35467	196680
4.35533	199055
4.35600	201415
4.35667	203759
4.35733	206086
4.35800	208394
4.35867	210682
4.35933	212950
4.36000	215197
4.36067	217422
4.36133	219623
4.36200	221800
4.36267	223949
4.36333	226071
4.36400	228162
4.36467	230222
4.36533	232247
4.36600	234235
4.36667	236184
4.36733	238092
4.36800	239956
4.36867	241773
4.36933	243541
4.37000	245259
4.37067	246923
4.37133	248532
4.37200	250085
4.37267	251579
4.37333	253014
4.37400	254387
4.37467	255697
4.37533	256943
4.37600	258124
4.37667	259236
4.37733	260280
4.37800	261254
4.37867	262157
4.37933	262988
4.38000	263745
4.38067	264429
4.38133	265036
4.38200	265568
4.38267	266022
4.38333	266399
4.38400	266697
4.38467	266916
4.38533	267056
4.38600	267117
4.38667	267098
4.38733	267000
4.38800	266822
4.38867	266565
4.38933	266230
4.39000	265815
4.39067	265323
4.39133	264754
4.39200	264109
4.39267	263388
4.39333	262593
4.39400	261724
4.39467	260783
4.39533	259771
4.39600	258689
4.39667	257540
4.39733	256325
4.39800	255046
4.39867	253705
4.39933	252304
4.40000	250846
4.40067	249332
4.40133	247765
4.40200	246146
4.40267	244477
4.40333	242762
4.40400	241002
4.40467	239199
4.40533	237357
4.40600	235476
4.40667	233559
4.40733	231609
4.40800	229627
4.40867	227616
4.40933	225579
4.41000	223517
4.41067	221433
4.41133	219329
4.41200	217208
4.41267	215072
4.41333	212922
4.41400	210762
4.41467	208593
4.41533	206417
4.41600	204237
4.41667	202052
4.41733	199867
4.41800	197681
4.41867	195498
4.41933	193318
4.42000	191143
4.42067	188976
4.42133	186816
4.42200	184666
4.42267	182528
4.42333	180402
4.42400	178289
4.42467	176191
4.42533	174108
4.42600	172043
4.42667	169995
4.42733	167965
4.42800	165955
4.42867	163966
4.42933	161997
4.43000	160051
4.43067	158127
4.43133	156227
4.43200	154350
4.43267	152498
4.43333	150670
4.43400	148868
4.43467	147091
4.43533	145340
4.43600	143614
4.43667	141914
4.43733	140241
4.43800	138594
4.43867	136973
4.43933	135379
4.44000	133810
4.44067	132268
4.44133	130751
4.44200	129260
4.44267	127794
4.44333	126353
4.44400	124936
4.44467	123544
4.44533	122175
4.44600	120830
4.44667	119509
4.44733	118210
4.44800	116933
4.44867	115678
4.44933	114445
4.45000	113234
4.45067	112043
4.45133	110872
4.45200	109722
4.45267	108591
4.45333	107480
4.45400	106388
4.45467	105315
4.45533	104261
4.45600	103224
4.45667	102205
4.45733	101203
4.45800	100218
4.45867	99250
4.45933	98298
4.46000	97362
4.46067	96441
4.46133	95535
4.46200	94644
4.46267	93767
4.46333	92904
4.46400	92055
4.46467	91218
4.46533	90394
4.46600	89581
4.46667	88781
4.46733	87992
4.46800	87214
4.46867	86446
4.46933	85688
4.47000	84940
4.47067	84201
4.47133	83472
4.47200	82751
4.47267	82038
4.47333	81333
4.47400	80636
4.47467	79947
4.47533	79264
4.47600	78589
4.47667	77921
4.47733	77259
4.47800	76604
4.47867	75956
4.47933	75314
4.48000	74678
4.48067	74048
4.48133	73424
4.48200	72805
4.48267	72193
4.48333	71585
4.48400	70983
4.48467	70386
4.48533	69793
4.48600	69206
4.48667	68623
4.48733	68044
4.48800	67470
4.48867	66900
4.48933	66335
4.49000	65773
4.49067	65216
4.49133	64662
4.49200	64113
4.49267	63567
4.49333	63026
4.49400	62488
4.49467	61954
4.49533	61424
4.49600	60898
4.49667	60376
4.49733	59858
4.49800	59344
4.49867	58834
4.49933	58327
4.50000	57825
4.50067	57327
4.50133	56833
4.50200	56343
4.50267	55857
4.50333	55376
4.50400	54898
4.50467	54425
4.50533	53956
4.50600	53492
4.50667	53032
4.50733	52577
4.50800	52126
4.50867	51680
4.50933	51238
4.51000	50801
4.51067	50369
4.51133	49942
4.51200	49520
4.51267	49102
4.51333	48690
4.51400	48283
4.51467	47881
4.51533	47484
4.51600	47093
4.51667	46707
4.51733	46327
4.51800	45952
4.51867	45583
4.51933	45220
4.52000	44863
4.52067	44512
4.52133	44167
4.52200	43829
4.52267	43496
4.52333	43170
4.52400	42851
4.52467	42537
4.52533	42231
4.52600	41931
4.52667	41638
4.52733	41352
4.52800	41073
4.52867	40801
4.52933	40537
4.53000	40279
4.53067	40030
4.53133	39787
4.53200	39553
4.53267	39327
4.53333	39108
4.53400	38897
4.53467	38695
4.53533	38500
4.53600	38314
4.53667	38136
4.53733	37966
4.53800	37804
4.53867	37651
4.53933	37506
4.54000	37370
4.54067	37243
4.54133	37124
4.54200	37015
4.54267	36914
4.54333	36823
4.54400	36740
4.54467	36668
4.54533	36604
4.54600	36550
4.54667	36506
4.54733	36471
4.54800	36446
4.54867	36430
4.54933	36425
4.55000	36428
4.55067	36442
4.55133	36466
4.55200	36499
4.55267	36542
4.55333	36595
4.55400	36658
4.55467	36730
4.55533	36813
4.55600	36905
4.55667	37008
4.55733	37120
4.55800	37243
4.55867	37375
4.55933	37517
4.56000	37669
4.56067	37831
4.56133	38004
4.56200	38186
4.56267	38378
4.56333	38580
4.56400	38792
4.56467	39013
4.56533	39245
4.56600	39486
4.56667	39737
4.56733	39997
4.56800	40267
4.56867	40546
4.56933	40834
4.57000	41132
4.57067	41439
4.57133	41754
4.57200	42079
4.57267	42412
4.57333	42754
4.57400	43104
4.57467	43463
4.57533	43830
4.57600	44206
4.57667	44589
4.57733	44980
4.57800	45378
4.57867	45784
4.57933	46196
4.58000	46616
4.58067	47042
4.58133	47475
4.58200	47915
4.58267	48360
4.58333	48811
4.58400	49267
4.58467	49729
4.58533	50196
4.58600	50667
4.58667	51143
4.58733	51623
4.58800	52106
4.58867	52593
4.58933	53083
4.59000	53575
4.59067	54070
4.59133	54567
4.59200	55067
4.59267	55568
4.59333	56071
4.59400	56574
4.59467	57079
4.59533	57585
4.59600	58090
4.59667	58596
4.59733	59102
4.59800	59607
4.59867	60111
4.59933	60613
4.60000	61114
4.60067	61612
4.60133	62108
4.60200	62600
4.60267	63089
4.60333	63575
4.60400	64056
4.60467	64533
4.60533	65004
4.60600	65471
4.60667	65932
4.60733	66386
4.60800	66835
4.60867	67277
4.60933	67711
4.61000	68139
4.61067	68558
4.61133	68970
4.61200	69373
4.61267	69768
4.61333	70153
4.61400	70530
4.61467	70898
4.61533	71256
4.61600	71605
4.61667	71945
4.61733	72275
4.61800	72595
4.61867	72905
4.61933	73205
4.62000	73494
4.62067	73773
4.62133	74040
4.62200	74297
4.62267	74543
4.62333	74777
4.62400	75000
4.62467	75212
4.62533	75412
4.62600	75601
4.62667	75778
4.62733	75944
4.62800	76099
4.62867	76243
4.62933	76375
4.63000	76496
4.63067	76605
4.63133	76703
4.63200	76790
4.63267	76866
4.63333	76931
4.63400	76985
4.63467	77028
4.63533	77060
4.63600	77082
4.63667	77093
4.63733	77093
4.63800	77084
4.63867	77063
4.63933	77032
4.64000	76991
4.64067	76940
4.64133	76878
4.64200	76806
4.64267	76725
4.64333	76633
4.64400	76532
4.64467	76422
4.64533	76302
4.64600	76173
4.64667	76036
4.64733	75890
4.64800	75736
4.64867	75573
4.64933	75402
4.65000	75223
4.65067	75037
4.65133	74843
4.65200	74641
4.65267	74433
4.65333	74218
4.65400	73996
4.65467	73769
4.65533	73535
4.65600	73295
4.65667	73051
4.65733	72801
4.65800	72545
4.65867	72286
4.65933	72021
4.66000	71752
4.66067	71479
4.66133	71202
4.66200	70921
4.66267	70636
4.66333	70348
4.66400	70056
4.66467	69761
4.66533	69464
4.66600	69163
4.66667	68861
4.66733	68556
4.66800	68249
4.66867	67940
4.66933	67630
4.67000	67319
4.67067	67006
4.67133	66693
4.67200	66380
4.67267	66066
4.67333	65751
4.67400	65437
4.67467	65122
4.67533	64808
4.67600	64495
4.67667	64182
4.67733	63869
4.67800	63557
4.67867	63246
4.67933	62936
4.68000	62628
4.68067	62320
4.68133	62015
4.68200	61710
4.68267	61408
4.68333	61107
4.68400	60808
4.68467	60510
4.68533	60215
4.68600	59922
4.68667	59631
4.68733	59342
4.68800	59055
4.68867	58771
4.68933	58489
4.69000	58210
4.69067	57934
4.69133	57660
4.69200	57389
4.69267	57120
4.69333	56854
4.69400	56591
4.69467	56331
4.69533	56073
4.69600	55818
4.69667	55565
4.69733	55315
4.69800	55068
4.69867	54824
4.69933	54582
4.70000	54342
4.70067	54105
4.70133	53870
4.70200	53638
4.70267	53408
4.70333	53181
4.70400	52956
4.70467	52733
4.70533	52512
4.70600	52294
4.70667	52079
4.70733	51865
4.70800	51654
4.70867	51445
4.70933	51239
4.71000	51035
4.71067	50833
4.71133	50634
4.71200	50438
4.71267	50244
4.71333	50052
4.71400	49862
4.71467	49675
4.71533	49491
4.71600	49308
4.71667	49128
4.71733	48951
4.71800	48775
4.71867	48602
4.71933	48432
4.72000	48264
4.72067	48098
4.72133	47935
4.72200	47774
4.72267	47615
4.72333	47459
4.72400	47305
4.72467	47153
4.72533	47003
4.72600	46854
4.72667	46708
4.72733	46564
4.72800	46421
4.72867	46279
4.72933	46140
4.73000	46002
4.73067	45865
4.73133	45730
4.73200	45596
4.73267	45464
4.73333	45334
4.73400	45205
4.73467	45077
4.73533	44950
4.73600	44826
4.73667	44702
4.73733	44580
4.73800	44460
4.73867	44341
4.73933	44223
4.74000	44107
4.74067	43992
4.74133	43879
4.74200	43767
4.74267	43656
4.74333	43546
4.74400	43437
4.74467	43330
4.74533	43223
4.74600	43117
4.74667	43013
4.74733	42909
4.74800	42806
4.74867	42705
4.74933	42605
4.75000	42505
4.75067	42407
4.75133	42309
4.75200	42213
4.75267	42117
4.75333	42023
4.75400	41929
4.75467	41836
4.75533	41744
4.75600	41653
4.75667	41562
4.75733	41473
4.75800	41384
4.75867	41296
4.75933	41208
4.76000	41122
4.76067	41035
4.76133	40950
4.76200	40865
4.76267	40781
4.76333	40697
4.76400	40614
4.76467	40532
4.76533	40450
4.76600	40369
4.76667	40289
4.76733	40209
4.76800	40130
4.76867	40051
4.76933	39974
4.77000	39897
4.77067	39820
4.77133	39745
4.77200	39670
4.77267	39595
4.77333	39521
4.77400	39447
4.77467	39374
4.77533	39301
4.77600	39229
4.77667	39156
4.77733	39085
4.77800	39013
4.77867	38942
4.77933	38872
4.78000	38802
4.78067	38732
4.78133	38663
4.78200	38594
4.78267	38526
4.78333	38459
4.78400	38392
4.78467	38326
4.78533	38260
4.78600	38194
4.78667	38129
4.78733	38065
4.78800	38001
4.78867	37937
4.78933	37874
4.79000	37812
4.79067	37750
4.79133	37689
4.79200	37628
4.79267	37568
4.79333	37508
4.79400	37448
4.79467	37390
4.79533	37331
4.79600	37274
4.79667	37217
4.79733	37160
4.79800	37104
4.79867	37049
4.79933	36994
4.80000	36940
4.80067	36887
4.80133	36834
4.80200	36782
4.80267	36731
4.80333	36680
4.80400	36630
4.80467	36580
4.80533	36531
4.80600	36483
4.80667	36435
4.80733	36388
4.80800	36342
4.80867	36296
4.80933	36251
4.81000	36206
4.81067	36162
4.81133	36118
4.81200	36074
4.81267	36031
4.81333	35988
4.81400	35945
4.81467	35903
4.81533	35861
4.81600	35819
4.81667	35777
4.81733	35735
4.81800	35693
4.81867	35652
4.81933	35610
4.82000	35569
4.82067	35528
4.82133	35488
4.82200	35447
4.82267	35407
4.82333	35367
4.82400	35327
4.82467	35288
4.82533	35249
4.82600	35211
4.82667	35173
4.82733	35135
4.82800	35098
4.82867	35062
4.82933	35025
4.83000	34990
4.83067	34954
4.83133	34919
4.83200	34884
4.83267	34850
4.83333	34816
4.83400	34782
4.83467	34749
4.83533	34715
4.83600	34682
4.83667	34650
4.83733	34617
4.83800	34585
4.83867	34552
4.83933	34520
4.84000	34488
4.84067	34456
4.84133	34424
4.84200	34392
4.84267	34359
4.84333	34327
4.84400	34295
4.84467	34262
4.84533	34230
4.84600	34197
4.84667	34164
4.84733	34132
4.84800	34099
4.84867	34066
4.84933	34033
4.85000	34000
4.85067	33966
4.85133	33933
4.85200	33899
4.85267	33865
4.85333	33831
4.85400	33796
4.85467	33762
4.85533	33727
4.85600	33692
4.85667	33657
4.85733	33622
4.85800	33587
4.85867	33551
4.85933	33516
4.86000	33480
4.86067	33445
4.86133	33409
4.86200	33373
4.86267	33337
4.86333	33300
4.86400	33264
4.86467	33227
4.86533	33191
4.86600	33154
4.86667	33116
4.86733	33079
4.86800	33042
4.86867	33004
4.86933	32967
4.87000	32929
4.87067	32892
4.87133	32854
4.87200	32817
4.87267	32779
4.87333	32742
4.87400	32705
4.87467	32668
4.87533	32631
4.87600	32594
4.87667	32558
4.87733	32522
4.87800	32486
4.87867	32450
4.87933	32414
4.88000	32379
4.88067	32344
4.88133	32309
4.88200	32274
4.88267	32240
4.88333	32205
4.88400	32171
4.88467	32137
4.88533	32103
4.88600	32069
4.88667	32035
4.88733	32001
4.88800	31967
4.88867	31934
4.88933	31901
4.89000	31868
4.89067	31835
4.89133	31802
4.89200	31770
4.89267	31739
4.89333	31707
4.89400	31676
4.89467	31646
4.89533	31616
4.89600	31586
4.89667	31557
4.89733	31528
4.89800	31500
4.89867	31472
4.89933	31445
4.90000	31418
4.90067	31391
4.90133	31364
4.90200	31338
4.90267	31312
4.90333	31287
4.90400	31262
4.90467	31237
4.90533	31212
4.90600	31188
4.90667	31164
4.90733	31140
4.90800	31116
4.90867	31093
4.90933	31069
4.91000	31046
4.91067	31023
4.91133	31001
4.91200	30978
4.91267	30956
4.91333	30933
4.91400	30911
4.91467	30889
4.91533	30867
4.91600	30845
4.91667	30823
4.91733	30801
4.91800	30779
4.91867	30757
4.91933	30735
4.92000	30714
4.92067	30692
4.92133	30671
4.92200	30650
4.92267	30629
4.92333	30608
4.92400	30587
4.92467	30566
4.92533	30545
4.92600	30525
4.92667	30504
4.92733	30483
4.92800	30462
4.92867	30440
4.92933	30419
4.93000	30398
4.93067	30376
4.93133	30355
4.93200	30333
4.93267	30311
4.93333	30289
4.93400	30267
4.93467	30245
4.93533	30223
4.93600	30200
4.93667	30178
4.93733	30155
4.93800	30133
4.93867	30110
4.93933	30087
4.94000	30064
4.94067	30041
4.94133	30018
4.94200	29995
4.94267	29972
4.94333	29948
4.94400	29925
4.94467	29901
4.94533	29877
4.94600	29853
4.94667	29829
4.94733	29806
4.94800	29782
4.94867	29758
4.94933	29734
4.95000	29710
4.95067	29686
4.95133	29662
4.95200	29638
4.95267	29614
4.95333	29590
4.95400	29566
4.95467	29542
4.95533	29517
4.95600	29493
4.95667	29468
4.95733	29444
4.95800	29419
4.95867	29395
4.95933	29370
4.96000	29345
4.96067	29321
4.96133	29296
4.96200	29271
4.96267	29246
4.96333	29221
4.96400	29196
4.96467	29171
4.96533	29146
4.96600	29121
4.96667	29096
4.96733	29071
4.96800	29046
4.96867	29021
4.96933	28996
4.97000	28971
4.97067	28946
4.97133	28922
4.97200	28897
4.97267	28872
4.97333	28848
4.97400	28823
4.97467	28799
4.97533	28775
4.97600	28751
4.97667	28726
4.97733	28703
4.97800	28679
4.97867	28655
4.97933	28632
4.98000	28609
4.98067	28586
4.98133	28563
4.98200	28540
4.98267	28517
4.98333	28495
4.98400	28473
4.98467	28451
4.98533	28428
4.98600	28406
4.98667	28385
4.98733	28363
4.98800	28341
4.98867	28320
4.98933	28298
4.99000	28277
4.99067	28256
4.99133	28235
4.99200	28214
4.99267	28194
4.99333	28173
4.99400	28153
4.99467	28133
4.99533	28113
4.99600	28093
4.99667	28073
4.99733	28054
4.99800	28035
4.99867	28016
4.99933	27997
5.00000	27978
5.00067	27959
5.00133	27941
5.00200	27922
5.00267	27904
5.00333	27885
5.00400	27867
5.00467	27848
5.00533	27830
5.00600	27812
5.00667	27793
5.00733	27775
5.00800	27757
5.00867	27739
5.00933	27721
5.01000	27703
5.01067	27685
5.01133	27667
5.01200	27649
5.01267	27631
5.01333	27613
5.01400	27595
5.01467	27577
5.01533	27558
5.01600	27540
5.01667	27522
5.01733	27504
5.01800	27486
5.01867	27469
5.01933	27451
5.02000	27433
5.02067	27415
5.02133	27398
5.02200	27380
5.02267	27362
5.02333	27345
5.02400	27328
5.02467	27310
5.02533	27293
5.02600	27276
5.02667	27258
5.02733	27241
5.02800	27224
5.02867	27207
5.02933	27190
5.03000	27174
5.03067	27157
5.03133	27140
5.03200	27124
5.03267	27107
5.03333	27091
5.03400	27074
5.03467	27058
5.03533	27041
5.03600	27025
5.03667	27008
5.03733	26991
5.03800	26975
5.03867	26958
5.03933	26941
5.04000	26924
5.04067	26908
5.04133	26891
5.04200	26874
5.04267	26857
5.04333	26840
5.04400	26823
5.04467	26807
5.04533	26790
5.04600	26773
5.04667	26756
5.04733	26740
5.04800	26723
5.04867	26706
5.04933	26689
5.05000	26673
5.05067	26656
5.05133	26639
5.05200	26623
5.05267	26606
5.05333	26590
5.05400	26574
5.05467	26558
5.05533	26541
5.05600	26525
5.05667	26509
5.05733	26493
5.05800	26477
5.05867	26461
5.05933	26445
5.06000	26429
5.06067	26413
5.06133	26397
5.06200	26381
5.06267	26364
5.06333	26348
5.06400	26332
5.06467	26316
5.06533	26299
5.06600	26283
5.06667	26267
5.06733	26251
5.06800	26235
5.06867	26219
5.06933	26204
5.07000	26188
5.07067	26172
5.07133	26157
5.07200	26141
5.07267	26126
5.07333	26111
5.07400	26095
5.07467	26080
5.07533	26065
5.07600	26049
5.07667	26034
5.07733	26018
5.07800	26003
5.07867	25988
5.07933	25972
5.08000	25957
5.08067	25942
5.08133	25927
5.08200	25912
5.08267	25897
5.08333	25882
5.08400	25868
5.08467	25853
5.08533	25839
5.08600	25824
5.08667	25810
5.08733	25796
5.08800	25781
5.08867	25767
5.08933	25752
5.09000	25738
5.09067	25723
5.09133	25709
5.09200	25694
5.09267	25680
5.09333	25665
5.09400	25650
5.09467	25636
5.09533	25621
5.09600	25607
5.09667	25592
5.09733	25577
5.09800	25563
5.09867	25548
5.09933	25534
5.10000	25520
5.10067	25505
5.10133	25491
5.10200	25477
5.10267	25463
5.10333	25448
5.10400	25434
5.10467	25420
5.10533	25406
5.10600	25391
5.10667	25377
5.10733	25363
5.10800	25349
5.10867	25335
5.10933	25321
5.11000	25307
5.11067	25293
5.11133	25280
5.11200	25266
5.11267	25253
5.11333	25239
5.11400	25226
5.11467	25213
5.11533	25200
5.11600	25187
5.11667	25174
5.11733	25161
5.11800	25148
5.11867	25135
5.11933	25123
5.12000	25110
5.12067	25097
5.12133	25084
5.12200	25072
5.12267	25059
5.12333	25046
5.12400	25033
5.12467	25020
5.12533	25007
5.12600	24994
5.12667	24981
5.12733	24969
5.12800	24956
5.12867	24943
5.12933	24931
5.13000	24919
5.13067	24906
5.13133	24894
5.13200	24882
5.13267	24870
5.13333	24857
5.13400	24845
5.13467	24833
5.13533	24821
5.13600	24808
5.13667	24796
5.13733	24784
5.13800	24772
5.13867	24759
5.13933	24747
5.14000	24735
5.14067	24723
5.14133	24711
5.14200	24700
5.14267	24688
5.14333	24676
5.14400	24665
5.14467	24654
5.14533	24642
5.14600	24631
5.14667	24620
5.14733	24609
5.14800	24599
5.14867	24588
5.14933	24578
5.15000	24567
5.15067	24557
5.15133	24547
5.15200	24537
5.15267	24527
5.15333	24517
5.15400	24507
5.15467	24498
5.15533	24488
5.15600	24478
5.15667	24469
5.15733	24460
5.15800	24450
5.15867	24441
5.15933	24432
5.16000	24424
5.16067	24415
5.16133	24406
5.16200	24398
5.16267	24389
5.16333	24381
5.16400	24373
5.16467	24365
5.16533	24358
5.16600	24350
5.16667	24343
5.16733	24337
5.16800	24330
5.16867	24324
5.16933	24318
5.17000	24313
5.17067	24307
5.17133	24302
5.17200	24297
5.17267	24292
5.17333	24287
5.17400	24283
5.17467	24278
5.17533	24274
5.17600	24270
5.17667	24266
5.17733	24262
5.17800	24258
5.17867	24255
5.17933	24252
5.18000	24248
5.18067	24246
5.18133	24243
5.18200	24240
5.18267	24238
5.18333	24236
5.18400	24234
5.18467	24233
5.18533	24231
5.18600	24230
5.18667	24229
5.18733	24228
5.18800	24227
5.18867	24226
5.18933	24226
5.19000	24225
5.19067	24225
5.19133	24225
5.19200	24224
5.19267	24224
5.19333	24224
5.19400	24224
5.19467	24224
5.19533	24224
5.19600	24224
5.19667	24224
5.19733	24224
5.19800	24224
5.19867	24225
5.19933	24225
5.20000	24225
5.20067	24225
5.20133	24225
5.20200	24225
5.20267	24225
5.20333	24225
5.20400	24225
5.20467	24225
5.20533	24225
5.20600	24224
5.20667	24224
5.20733	24223
5.20800	24223
5.20867	24222
5.20933	24221
5.21000	24220
5.21067	24218
5.21133	24217
5.21200	24215
5.21267	24213
5.21333	24212
5.21400	24210
5.21467	24207
5.21533	24205
5.21600	24202
5.21667	24200
5.21733	24197
5.21800	24194
5.21867	24191
5.21933	24188
5.22000	24185
5.22067	24182
5.22133	24178
5.22200	24174
5.22267	24170
5.22333	24166
5.22400	24162
5.22467	24157
5.22533	24152
5.22600	24147
5.22667	24142
5.22733	24136
5.22800	24130
5.22867	24125
5.22933	24118
5.23000	24112
5.23067	24105
5.23133	24098
5.23200	24091
5.23267	24084
5.23333	24076
5.23400	24068
5.23467	24060
5.23533	24051
5.23600	24042
5.23667	24033
5.23733	24024
5.23800	24014
5.23867	24004
5.23933	23993
5.24000	23983
5.24067	23972
5.24133	23961
5.24200	23949
5.24267	23938
5.24333	23926
5.24400	23914
5.24467	23902
5.24533	23890
5.24600	23877
5.24667	23864
5.24733	23851
5.24800	23838
5.24867	23825
5.24933	23811
5.25000	23797
5.25067	23783
5.25133	23769
5.25200	23755
5.25267	23740
5.25333	23726
5.25400	23711
5.25467	23696
5.25533	23681
5.25600	23666
5.25667	23651
5.25733	23636
5.25800	23621
5.25867	23606
5.25933	23590
5.26000	23575
5.26067	23559
5.26133	23544
5.26200	23528
5.26267	23513
5.26333	23497
5.26400	23482
5.26467	23466
5.26533	23450
5.26600	23434
5.26667	23418
5.26733	23402
5.26800	23386
5.26867	23370
5.26933	23354
5.27000	23337
5.27067	23321
5.27133	23305
5.27200	23289
5.27267	23274
5.27333	23258
5.27400	23242
5.27467	23226
5.27533	23210
5.27600	23194
5.27667	23178
5.27733	23162
5.27800	23147
5.27867	23131
5.27933	23115
5.28000	23100
5.28067	23084
5.28133	23069
5.28200	23054
5.28267	23039
5.28333	23023
5.28400	23008
5.28467	22993
5.28533	22978
5.28600	22964
5.28667	22949
5.28733	22934
5.28800	22919
5.28867	22905
5.28933	22890
5.29000	22876
5.29067	22861
5.29133	22847
5.29200	22833
5.29267	22819
5.29333	22804
5.29400	22790
5.29467	22776
5.29533	22762
5.29600	22748
5.29667	22733
5.29733	22719
5.29800	22705
5.29867	22691
5.29933	22677
5.30000	22663
5.30067	22649
5.30133	22635
5.30200	22621
5.30267	22606
5.30333	22592
5.30400	22578
5.30467	22563
5.30533	22549
5.30600	22534
5.30667	22520
5.30733	22505
5.30800	22490
5.30867	22475
5.30933	22460
5.31000	22446
5.31067	22431
5.31133	22416
5.31200	22401
5.31267	22386
5.31333	22371
5.31400	22356
5.31467	22341
5.31533	22326
5.31600	22310
5.31667	22295
5.31733	22280
5.31800	22265
5.31867	22250
5.31933	22235
5.32000	22220
5.32067	22205
5.32133	22190
5.32200	22175
5.32267	22160
5.32333	22145
5.32400	22130
5.32467	22115
5.32533	22100
5.32600	22085
5.32667	22070
5.32733	22055
5.32800	22040
5.32867	22025
5.32933	22009
5.33000	21994
5.33067	21979
5.33133	21963
5.33200	21948
5.33267	21933
5.33333	21918
5.33400	21903
5.33467	21888
5.33533	21873
5.33600	21858
5.33667	21843
5.33733	21828
5.33800	21814
5.33867	21799
5.33933	21785
5.34000	21770
5.34067	21755
5.34133	21741
5.34200	21726
5.34267	21711
5.34333	21697
5.34400	21682
5.34467	21667
5.34533	21653
5.34600	21638
5.34667	21623
5.34733	21608
5.34800	21593
5.34867	21578
5.34933	21563
5.35000	21548
5.35067	21533
5.35133	21518
5.35200	21503
5.35267	21488
5.35333	21473
5.35400	21459
5.35467	21444
5.35533	21429
5.35600	21414
5.35667	21399
5.35733	21384
5.35800	21369
5.35867	21354
5.35933	21339
5.36000	21324
5.36067	21309
5.36133	21294
5.36200	21278
5.36267	21263
5.36333	21248
5.36400	21232
5.36467	21217
5.36533	21202
5.36600	21186
5.36667	21171
5.36733	21156
5.36800	21140
5.36867	21125
5.36933	21110
5.37000	21094
5.37067	21079
5.37133	21064
5.37200	21049
5.37267	21033
5.37333	21018
5.37400	21003
5.37467	20987
5.37533	20972
5.37600	20957
5.37667	20942
5.37733	20927
5.37800	20911
5.37867	20896
5.37933	20881
5.38000	20866
5.38067	20851
5.38133	20836
5.38200	20821
5.38267	20805
5.38333	20790
5.38400	20775
5.38467	20760
5.38533	20745
5.38600	20730
5.38667	20715
5.38733	20700
5.38800	20685
5.38867	20670
5.38933	20655
5.39000	20640
5.39067	20625
5.39133	20610
5.39200	20595
5.39267	20580
5.39333	20565
5.39400	20550
5.39467	20535
5.39533	20520
5.39600	20505
5.39667	20489
5.39733	20474
5.39800	20459
5.39867	20443
5.39933	20428
5.40000	20412
5.40067	20397
5.40133	20382
5.40200	20367
5.40267	20351
5.40333	20336
5.40400	20321
5.40467	20306
5.40533	20291
5.40600	20276
5.40667	20262
5.40733	20247
5.40800	20232
5.40867	20218
5.40933	20203
5.41000	20189
5.41067	20174
5.41133	20160
5.41200	20146
5.41267	20132
5.41333	20117
5.41400	20103
5.41467	20089
5.41533	20075
5.41600	20061
5.41667	20048
5.41733	20034
5.41800	20020
5.41867	20007
5.41933	19993
5.42000	19980
5.42067	19967
5.42133	19953
5.42200	19940
5.42267	19927
5.42333	19915
5.42400	19902
5.42467	19889
5.42533	19877
5.42600	19864
5.42667	19852
5.42733	19840
5.42800	19827
5.42867	19815
5.42933	19803
5.43000	19791
5.43067	19779
5.43133	19767
5.43200	19756
5.43267	19744
5.43333	19732
5.43400	19720
5.43467	19708
5.43533	19696
5.43600	19684
5.43667	19672
5.43733	19660
5.43800	19648
5.43867	19636
5.43933	19624
5.44000	19612
5.44067	19600
5.44133	19588
5.44200	19576
5.44267	19564
5.44333	19551
5.44400	19539
5.44467	19527
5.44533	19515
5.44600	19503
5.44667	19491
5.44733	19479
5.44800	19466
5.44867	19454
5.44933	19442
5.45000	19430
5.45067	19418
5.45133	19406
5.45200	19394
5.45267	19382
5.45333	19370
5.45400	19358
5.45467	19347
5.45533	19335
5.45600	19323
5.45667	19312
5.45733	19300
5.45800	19289
5.45867	19277
5.45933	19266
5.46000	19254
5.46067	19243
5.46133	19231
5.46200	19220
5.46267	19208
5.46333	19197
5.46400	19186
5.46467	19175
5.46533	19163
5.46600	19152
5.46667	19141
5.46733	19130
5.46800	19119
5.46867	19108
5.46933	19097
5.47000	19086
5.47067	19075
5.47133	19063
5.47200	19052
5.47267	19041
5.47333	19030
5.47400	19018
5.47467	19007
5.47533	18996
5.47600	18984
5.47667	18973
5.47733	18961
5.47800	18950
5.47867	18939
5.47933	18927
5.48000	18916
5.48067	18905
5.48133	18894
5.48200	18883
5.48267	18872
5.48333	18861
5.48400	18850
5.48467	18839
5.48533	18829
5.48600	18818
5.48667	18807
5.48733	18796
5.48800	18786
5.48867	18775
5.48933	18764
5.49000	18753
5.49067	18743
5.49133	18732
5.49200	18721
5.49267	18711
5.49333	18700
5.49400	18690
5.49467	18679
5.49533	18669
5.49600	18658
5.49667	18648
5.49733	18637
5.49800	18627
5.49867	18616
5.49933	18606
5.50000	18596
5.50067	18585
5.50133	18575
5.50200	18565
5.50267	18554
5.50333	18544
5.50400	18534
5.50467	18524
5.50533	18513
5.50600	18503
5.50667	18493
5.50733	18483
5.50800	18473
5.50867	18462
5.50933	18452
5.51000	18442
5.51067	18432
5.51133	18421
5.51200	18411
5.51267	18401
5.51333	18391
5.51400	18380
5.51467	18370
5.51533	18360
5.51600	18350
5.51667	18340
5.51733	18330
5.51800	18320
5.51867	18311
5.51933	18301
5.52000	18291
5.52067	18281
5.52133	18271
5.52200	18261
5.52267	18252
5.52333	18242
5.52400	18232
5.52467	18222
5.52533	18213
5.52600	18203
5.52667	18193
5.52733	18184
5.52800	18174
5.52867	18164
5.52933	18155
5.53000	18145
5.53067	18135
5.53133	18126
5.53200	18116
5.53267	18107
5.53333	18097
5.53400	18088
5.53467	18078
5.53533	18069
5.53600	18059
5.53667	18050
5.53733	18040
5.53800	18031
5.53867	18021
5.53933	18012
5.54000	18002
5.54067	17992
5.54133	17983
5.54200	17973
5.54267	17963
5.54333	17953
5.54400	17943
5.54467	17934
5.54533	17924
5.54600	17914
5.54667	17904
5.54733	17894
5.54800	17884
5.54867	17875
5.54933	17865
5.55000	17855
5.55067	17846
5.55133	17836
5.55200	17827
5.55267	17817
5.55333	17808
5.55400	17799
5.55467	17790
5.55533	17781
5.55600	17772
5.55667	17763
5.55733	17754
5.55800	17745
5.55867	17736
5.55933	17727
5.56000	17719
5.56067	17710
5.56133	17701
5.56200	17693
5.56267	17684
5.56333	17676
5.56400	17668
5.56467	17660
5.56533	17652
5.56600	17644
5.56667	17636
5.56733	17628
5.56800	17620
5.56867	17612
5.56933	17604
5.57000	17597
5.57067	17589
5.57133	17581
5.57200	17573
5.57267	17566
5.57333	17558
5.57400	17550
5.57467	17543
5.57533	17535
5.57600	17527
5.57667	17519
5.57733	17512
5.57800	17504
5.57867	17496
5.57933	17488
5.58000	17480
5.58067	17473
5.58133	17465
5.58200	17457
5.58267	17449
5.58333	17442
5.58400	17434
5.58467	17426
5.58533	17419
5.58600	17411
5.58667	17403
5.58733	17396
5.58800	17388
5.58867	17381
5.58933	17373
5.59000	17366
5.59067	17358
5.59133	17351
5.59200	17343
5.59267	17336
5.59333	17328
5.59400	17321
5.59467	17313
5.59533	17306
5.59600	17298
5.59667	17291
5.59733	17283
5.59800	17275
5.59867	17268
5.59933	17260
5.60000	17252
5.60067	17245
5.60133	17237
5.60200	17229
5.60267	17221
5.60333	17213
5.60400	17205
5.60467	17197
5.60533	17189
5.60600	17181
5.60667	17173
5.60733	17165
5.60800	17157
5.60867	17149
5.60933	17141
5.61000	17133
5.61067	17125
5.61133	17117
5.61200	17109
5.61267	17102
5.61333	17094
5.61400	17086
5.61467	17078
5.61533	17070
5.61600	17062
5.61667	17055
5.61733	17047
5.61800	17039
5.61867	17031
5.61933	17024
5.62000	17016
5.62067	17009
5.62133	17001
5.62200	16994
5.62267	16986
5.62333	16979
5.62400	16972
5.62467	16964
5.62533	16957
5.62600	16950
5.62667	16943
5.62733	16936
5.62800	16929
5.62867	16922
5.62933	16916
5.63000	16909
5.63067	16902
5.63133	16895
5.63200	16888
5.63267	16882
5.63333	16875
5.63400	16868
5.63467	16861
5.63533	16854
5.63600	16848
5.63667	16841
5.63733	16834
5.63800	16827
5.63867	16820
5.63933	16813
5.64000	16806
5.64067	16799
5.64133	16792
5.64200	16786
5.64267	16779
5.64333	16772
5.64400	16765
5.64467	16758
5.64533	16751
5.64600	16744
5.64667	16737
5.64733	16730
5.64800	16723
5.64867	16716
5.64933	16709
5.65000	16702
5.65067	16695
5.65133	16688
5.65200	16681
5.65267	16674
5.65333	16667
5.65400	16660
5.65467	16653
5.65533	16646
5.65600	16639
5.65667	16632
5.65733	16626
5.65800	16619
5.65867	16612
5.65933	16605
5.66000	16599
5.66067	16592
5.66133	16585
5.66200	16578
5.66267	16572
5.66333	16565
5.66400	16559
5.66467	16552
5.66533	16546
5.66600	16540
5.66667	16533
5.66733	16527
5.66800	16521
5.66867	16514
5.66933	16508
5.67000	16502
5.67067	16496
5.67133	16489
5.67200	16483
5.67267	16477
5.67333	16471
5.67400	16465
5.67467	16459
5.67533	16453
5.67600	16447
5.67667	16441
5.67733	16435
5.67800	16428
5.67867	16422
5.67933	16416
5.68000	16410
5.68067	16404
5.68133	16397
5.68200	16391
5.68267	16385
5.68333	16379
5.68400	16372
5.68467	16366
5.68533	16360
5.68600	16353
5.68667	16347
5.68733	16341
5.68800	16334
5.68867	16327
5.68933	16321
5.69000	16314
5.69067	16308
5.69133	16301
5.69200	16294
5.69267	16287
5.69333	16280
5.69400	16273
5.69467	16266
5.69533	16259
5.69600	16252
5.69667	16245
5.69733	16238
5.69800	16231
5.69867	16225
5.69933	16218
5.70000	16211
5.70067	16205
5.70133	16198
5.70200	16192
5.70267	16185
5.70333	16179
5.70400	16173
5.70467	16166
5.70533	16160
5.70600	16154
5.70667	16149
5.70733	16143
5.70800	16137
5.70867	16131
5.70933	16125
5.71000	16119
5.71067	16114
5.71133	16108
5.71200	16102
5.71267	16097
5.71333	16091
5.71400	16086
5.71467	16080
5.71533	16075
5.71600	16069
5.71667	16064
5.71733	16059
5.71800	16053
5.71867	16048
5.71933	16043
5.72000	16038
5.72067	16032
5.72133	16027
5.72200	16022
5.72267	16017
5.72333	16012
5.72400	16007
5.72467	16001
5.72533	15996
5.72600	15991
5.72667	15986
5.72733	15981
5.72800	15976
5.72867	15971
5.72933	15966
5.73000	15961
5.73067	15956
5.73133	15952
5.73200	15947
5.73267	15942
5.73333	15937
5.73400	15933
5.73467	15928
5.73533	15923
5.73600	15919
5.73667	15914
5.73733	15910
5.73800	15905
5.73867	15901
5.73933	15896
5.74000	15892
5.74067	15887
5.74133	15883
5.74200	15878
5.74267	15874
5.74333	15870
5.74400	15865
5.74467	15861
5.74533	15856
5.74600	15852
5.74667	15847
5.74733	15843
5.74800	15838
5.74867	15834
5.74933	15829
5.75000	15825
5.75067	15820
5.75133	15816
5.75200	15811
5.75267	15806
5.75333	15801
5.75400	15797
5.75467	15792
5.75533	15787
5.75600	15783
5.75667	15778
5.75733	15773
5.75800	15768
5.75867	15763
5.75933	15759
5.76000	15754
5.76067	15749
5.76133	15744
5.76200	15740
5.76267	15735
5.76333	15731
5.76400	15726
5.76467	15721
5.76533	15717
5.76600	15713
5.76667	15708
5.76733	15704
5.76800	15700
5.76867	15695
5.76933	15691
5.77000	15687
5.77067	15683
5.77133	15679
5.77200	15675
5.77267	15671
5.77333	15667
5.77400	15663
5.77467	15659
5.77533	15655
5.77600	15651
5.77667	15647
5.77733	15644
5.77800	15640
5.77867	15637
5.77933	15633
5.78000	15630
5.78067	15627
5.78133	15623
5.78200	15620
5.78267	15617
5.78333	15614
5.78400	15611
5.78467	15608
5.78533	15605
5.78600	15603
5.78667	15600
5.78733	15597
5.78800	15594
5.78867	15592
5.78933	15589
5.79000	15587
5.79067	15585
5.79133	15582
5.79200	15580
5.79267	15578
5.79333	15575
5.79400	15573
5.79467	15571
5.79533	15569
5.79600	15567
5.79667	15565
5.79733	15563
5.79800	15562
5.79867	15560
5.79933	15558
5.80000	15556
5.80067	15555
5.80133	15553
5.80200	15551
5.80267	15550
5.80333	15548
5.80400	15547
5.80467	15545
5.80533	15544
5.80600	15542
5.80667	15541
5.80733	15539
5.80800	15537
5.80867	15536
5.80933	15534
5.81000	15532
5.81067	15530
5.81133	15529
5.81200	15527
5.81267	15525
5.81333	15523
5.81400	15521
5.81467	15519
5.81533	15517
5.81600	15515
5.81667	15513
5.81733	15511
5.81800	15509
5.81867	15506
5.81933	15504
5.82000	15502
5.82067	15500
5.82133	15498
5.82200	15496
5.82267	15494
5.82333	15492
5.82400	15489
5.82467	15487
5.82533	15485
5.82600	15483
5.82667	15481
5.82733	15479
5.82800	15477
5.82867	15476
5.82933	15474
5.83000	15472
5.83067	15470
5.83133	15469
5.83200	15467
5.83267	15465
5.83333	15463
5.83400	15462
5.83467	15460
5.83533	15458
5.83600	15456
5.83667	15454
5.83733	15452
5.83800	15450
5.83867	15448
5.83933	15446
5.84000	15444
5.84067	15442
5.84133	15440
5.84200	15438
5.84267	15436
5.84333	15434
5.84400	15432
5.84467	15430
5.84533	15428
5.84600	15426
5.84667	15423
5.84733	15421
5.84800	15419
5.84867	15417
5.84933	15415
5.85000	15413
5.85067	15411
5.85133	15408
5.85200	15406
5.85267	15404
5.85333	15402
5.85400	15400
5.85467	15398
5.85533	15396
5.85600	15394
5.85667	15391
5.85733	15389
5.85800	15387
5.85867	15385
5.85933	15383
5.86000	15381
5.86067	15379
5.86133	15377
5.86200	15374
5.86267	15372
5.86333	15370
5.86400	15367
5.86467	15365
5.86533	15362
5.86600	15360
5.86667	15357
5.86733	15354
5.86800	15352
5.86867	15349
5.86933	15346
5.87000	15343
5.87067	15340
5.87133	15337
5.87200	15334
5.87267	15331
5.87333	15328
5.87400	15325
5.87467	15322
5.87533	15319
5.87600	15316
5.87667	15313
5.87733	15309
5.87800	15306
5.87867	15302
5.87933	15299
5.88000	15295
5.88067	15292
5.88133	15288
5.88200	15284
5.88267	15280
5.88333	15276
5.88400	15272
5.88467	15268
5.88533	15264
5.88600	15260
5.88667	15256
5.88733	15251
5.88800	15247
5.88867	15243
5.88933	15238
5.89000	15233
5.89067	15229
5.89133	15224
5.89200	15219
5.89267	15214
5.89333	15210
5.89400	15205
5.89467	15200
5.89533	15195
5.89600	15190
5.89667	15185
5.89733	15180
5.89800	15175
5.89867	15169
5.89933	15164
5.90000	15159
5.90067	15154
5.90133	15149
5.90200	15143
5.90267	15138
5.90333	15133
5.90400	15127
5.90467	15122
5.90533	15116
5.90600	15111
5.90667	15105
5.90733	15100
5.90800	15095
5.90867	15089
5.90933	15084
5.91000	15078
5.91067	15073
5.91133	15068
5.91200	15062
5.91267	15057
5.91333	15051
5.91400	15046
5.91467	15040
5.91533	15035
5.91600	15029
5.91667	15024
5.91733	15018
5.91800	15013
5.91867	15007
5.91933	15002
5.92000	14996
5.92067	14991
5.92133	14985
5.92200	14980
5.92267	14974
5.92333	14968
5.92400	14963
5.92467	14957
5.92533	14951
5.92600	14945
5.92667	14940
5.92733	14934
5.92800	14928
5.92867	14922
5.92933	14916
5.93000	14910
5.93067	14904
5.93133	14898
5.93200	14892
5.93267	14886
5.93333	14880
5.93400	14874
5.93467	14868
5.93533	14862
5.93600	14856
5.93667	14850
5.93733	14844
5.93800	14838
5.93867	14833
5.93933	14827
5.94000	14821
5.94067	14816
5.94133	14810
5.94200	14804
5.94267	14799
5.94333	14793
5.94400	14788
5.94467	14782
5.94533	14777
5.94600	14771
5.94667	14766
5.94733	14760
5.94800	14755
5.94867	14749
5.94933	14744
5.95000	14739
5.95067	14733
5.95133	14728
5.95200	14723
5.95267	14717
5.95333	14712
5.95400	14707
5.95467	14701
5.95533	14696
5.95600	14691
5.95667	14685
5.95733	14680
5.95800	14675
5.95867	14669
5.95933	14664
5.96000	14659
5.96067	14654
5.96133	14649
5.96200	14644
5.96267	14639
5.96333	14634
5.96400	14629
5.96467	14625
5.96533	14620
5.96600	14615
5.96667	14611
5.96733	14606
5.96800	14601
5.96867	14597
5.96933	14592
5.97000	14588
5.97067	14584
5.97133	14579
5.97200	14575
5.97267	14571
5.97333	14566
5.97400	14562
5.97467	14557
5.97533	14553
5.97600	14549
5.97667	14544
5.97733	14540
5.97800	14535
5.97867	14531
5.97933	14527
5.98000	14522
5.98067	14518
5.98133	14514
5.98200	14510
5.98267	14506
5.98333	14502
5.98400	14497
5.98467	14493
5.98533	14489
5.98600	14486
5.98667	14482
5.98733	14478
5.98800	14474
5.98867	14470
5.98933	14467
5.99000	14463
5.99067	14459
5.99133	14455
5.99200	14452
5.99267	14448
5.99333	14444
5.99400	14440
5.99467	14436
5.99533	14433
5.99600	14429
5.99667	14425
5.99733	14421
5.99800	14416
5.99867	14412
5.99933	14408
6.00000	14404
6.00067	14400
6.00133	14396
6.00200	14391
6.00267	14387
6.00333	14383
6.00400	14379
6.00467	14375
6.00533	14371
6.00600	14367
6.00667	14362
6.00733	14358
6.00800	14354
6.00867	14350
6.00933	14346
6.01000	14342
6.01067	14338
6.01133	14335
6.01200	14331
6.01267	14327
6.01333	14323
6.01400	14320
6.01467	14316
6.01533	14312
6.01600	14309
6.01667	14305
6.01733	14301
6.01800	14298
6.01867	14294
6.01933	14291
6.02000	14287
6.02067	14283
6.02133	14280
6.02200	14276
6.02267	14273
6.02333	14270
6.02400	14266
6.02467	14263
6.02533	14259
6.02600	14256
6.02667	14252
6.02733	14249
6.02800	14246
6.02867	14242
6.02933	14239
6.03000	14235
6.03067	14232
6.03133	14228
6.03200	14225
6.03267	14222
6.03333	14218
6.03400	14215
6.03467	14212
6.03533	14208
6.03600	14205
6.03667	14202
6.03733	14198
6.03800	14195
6.03867	14192
6.03933	14188
6.04000	14185
6.04067	14181
6.04133	14178
6.04200	14175
6.04267	14171
6.04333	14168
6.04400	14164
6.04467	14161
6.04533	14158
6.04600	14154
6.04667	14151
6.04733	14147
6.04800	14144
6.04867	14140
6.04933	14137
6.05000	14134
6.05067	14131
6.05133	14127
6.05200	14124
6.05267	14121
6.05333	14118
6.05400	14115
6.05467	14112
6.05533	14109
6.05600	14106
6.05667	14103
6.05733	14100
6.05800	14097
6.05867	14093
6.05933	14090
6.06000	14087
6.06067	14084
6.06133	14080
6.06200	14077
6.06267	14074
6.06333	14071
6.06400	14067
6.06467	14064
6.06533	14061
6.06600	14058
6.06667	14055
6.06733	14052
6.06800	14049
6.06867	14046
6.06933	14043
6.07000	14040
6.07067	14037
6.07133	14034
6.07200	14031
6.07267	14029
6.07333	14026
6.07400	14023
6.07467	14020
6.07533	14017
6.07600	14014
6.07667	14011
6.07733	14008
6.07800	14006
6.07867	14003
6.07933	14000
6.08000	13997
6.08067	13994
6.08133	13992
6.08200	13989
6.08267	13986
6.08333	13983
6.08400	13981
6.08467	13978
6.08533	13975
6.08600	13973
6.08667	13970
6.08733	13967
6.08800	13965
6.08867	13962
6.08933	13960
6.09000	13957
6.09067	13955
6.09133	13952
6.09200	13949
6.09267	13947
6.09333	13944
6.09400	13942
6.09467	13939
6.09533	13936
6.09600	13934
6.09667	13931
6.09733	13928
6.09800	13926
6.09867	13923
6.09933	13920
6.10000	13918
6.10067	13915
6.10133	13912
6.10200	13910
6.10267	13907
6.10333	13904
6.10400	13902
6.10467	13899
6.10533	13896
6.10600	13894
6.10667	13891
6.10733	13888
6.10800	13886
6.10867	13883
6.10933	13881
6.11000	13878
6.11067	13875
6.11133	13873
6.11200	13870
6.11267	13868
6.11333	13865
6.11400	13862
6.11467	13860
6.11533	13857
6.11600	13854
6.11667	13852
6.11733	13849
6.11800	13846
6.11867	13844
6.11933	13841
6.12000	13838
6.12067	13835
6.12133	13832
6.12200	13829
6.12267	13827
6.12333	13824
6.12400	13821
6.12467	13818
6.12533	13815
6.12600	13812
6.12667	13809
6.12733	13806
6.12800	13803
6.12867	13800
6.12933	13797
6.13000	13794
6.13067	13791
6.13133	13788
6.13200	13785
6.13267	13782
6.13333	13779
6.13400	13776
6.13467	13774
6.13533	13771
6.13600	13768
6.13667	13765
6.13733	13762
6.13800	13759
6.13867	13756
6.13933	13753
6.14000	13751
6.14067	13748
6.14133	13745
6.14200	13742
6.14267	13739
6.14333	13737
6.14400	13734
6.14467	13731
6.14533	13728
6.14600	13726
6.14667	13723
6.14733	13720
6.14800	13717
6.14867	13715
6.14933	13712
6.15000	13710
6.15067	13707
6.15133	13705
6.15200	13702
6.15267	13700
6.15333	13697
6.15400	13695
6.15467	13692
6.15533	13690
6.15600	13687
6.15667	13685
6.15733	13682
6.15800	13680
6.15867	13677
6.15933	13675
6.16000	13672
6.16067	13670
6.16133	13667
6.16200	13664
6.16267	13662
6.16333	13659
6.16400	13657
6.16467	13654
6.16533	13651
6.16600	13649
6.16667	13646
6.16733	13644
6.16800	13641
6.16867	13638
6.16933	13636
6.17000	13633
6.17067	13631
6.17133	13628
6.17200	13625
6.17267	13623
6.17333	13620
6.17400	13618
6.17467	13615
6.17533	13612
6.17600	13610
6.17667	13607
6.17733	13604
6.17800	13602
6.17867	13599
6.17933	13596
6.18000	13594
6.18067	13591
6.18133	13589
6.18200	13586
6.18267	13583
6.18333	13581
6.18400	13578
6.18467	13576
6.18533	13573
6.18600	13571
6.18667	13568
6.18733	13566
6.18800	13564
6.18867	13561
6.18933	13559
6.19000	13557
6.19067	13555
6.19133	13552
6.19200	13550
6.19267	13548
6.19333	13546
6.19400	13544
6.19467	13542
6.19533	13539
6.19600	13537
6.19667	13535
6.19733	13533
6.19800	13531
6.19867	13529
6.19933	13527
6.20000	13525
6.20067	13523
6.20133	13521
6.20200	13519
6.20267	13516
6.20333	13514
6.20400	13512
6.20467	13510
6.20533	13508
6.20600	13506
6.20667	13504
6.20733	13502
6.20800	13500
6.20867	13498
6.20933	13496
6.21000	13493
6.21067	13491
6.21133	13489
6.21200	13487
6.21267	13485
6.21333	13483
6.21400	13481
6.21467	13479
6.21533	13477
6.21600	13475
6.21667	13473
6.21733	13471
6.21800	13469
6.21867	13467
6.21933	13465
6.22000	13463
6.22067	13461
6.22133	13459
6.22200	13458
6.22267	13456
6.22333	13454
6.22400	13452
6.22467	13450
6.22533	13449
6.22600	13447
6.22667	13445
6.22733	13444
6.22800	13442
6.22867	13441
6.22933	13439
6.23000	13438
6.23067	13437
6.23133	13435
6.23200	13434
6.23267	13433
6.23333	13432
6.23400	13430
6.23467	13429
6.23533	13428
6.23600	13427
6.23667	13426
6.23733	13425
6.23800	13424
6.23867	13423
6.23933	13422
6.24000	13422
6.24067	13421
6.24133	13420
6.24200	13419
6.24267	13418
6.24333	13417
6.24400	13416
6.24467	13416
6.24533	13415
6.24600	13414
6.24667	13413
6.24733	13412
6.24800	13411
6.24867	13410
6.24933	13410
6.25000	13409
6.25067	13408
6.25133	13407
6.25200	13406
6.25267	13405
6.25333	13404
6.25400	13403
6.25467	13402
6.25533	13402
6.25600	13401
6.25667	13400
6.25733	13399
6.25800	13398
6.25867	13397
6.25933	13396
6.26000	13395
6.26067	13394
6.26133	13393
6.26200	13392
6.26267	13391
6.26333	13390
6.26400	13389
6.26467	13388
6.26533	13387
6.26600	13386
6.26667	13385
6.26733	13384
6.26800	13383
6.26867	13382
6.26933	13381
6.27000	13380
6.27067	13379
6.27133	13378
6.27200	13377
6.27267	13376
6.27333	13375
6.27400	13374
6.27467	13373
6.27533	13372
6.27600	13371
6.27667	13370
6.27733	13369
6.27800	13368
6.27867	13367
6.27933	13367
6.28000	13366
6.28067	13365
6.28133	13365
6.28200	13364
6.28267	13363
6.28333	13363
6.28400	13362
6.28467	13361
6.28533	13361
6.28600	13360
6.28667	13360
6.28733	13359
6.28800	13359
6.28867	13359
6.28933	13358
6.29000	13358
6.29067	13357
6.29133	13357
6.29200	13356
6.29267	13356
6.29333	13355
6.29400	13355
6.29467	13354
6.29533	13354
6.29600	13353
6.29667	13353
6.29733	13352
6.29800	13351
6.29867	13351
6.29933	13350
6.30000	13350
6.30067	13349
6.30133	13349
6.30200	13348
6.30267	13347
6.30333	13347
6.30400	13346
6.30467	13345
6.30533	13344
6.30600	13343
6.30667	13342
6.30733	13342
6.30800	13341
6.30867	13340
6.30933	13339
6.31000	13338
6.31067	13336
6.31133	13335
6.31200	13334
6.31267	13333
6.31333	13332
6.31400	13331
6.31467	13329
6.31533	13328
6.31600	13327
6.31667	13325
6.31733	13324
6.31800	13322
6.31867	13321
6.31933	13319
6.32000	13318
6.32067	13317
6.32133	13315
6.32200	13314
6.32267	13312
6.32333	13311
6.32400	13309
6.32467	13308
6.32533	13306
6.32600	13305
6.32667	13303
6.32733	13302
6.32800	13300
6.32867	13299
6.32933	13297
6.33000	13295
6.33067	13294
6.33133	13292
6.33200	13291
6.33267	13289
6.33333	13288
6.33400	13286
6.33467	13285
6.33533	13283
6.33600	13282
6.33667	13280
6.33733	13279
6.33800	13278
6.33867	13277
6.33933	13275
6.34000	13274
6.34067	13273
6.34133	13272
6.34200	13271
6.34267	13270
6.34333	13269
6.34400	13268
6.34467	13267
6.34533	13266
6.34600	13264
6.34667	13263
6.34733	13262
6.34800	13261
6.34867	13260
6.34933	13259
6.35000	13257
6.35067	13256
6.35133	13255
6.35200	13253
6.35267	13252
6.35333	13251
6.35400	13249
6.35467	13248
6.35533	13246
6.35600	13245
6.35667	13243
6.35733	13242
6.35800	13240
6.35867	13239
6.35933	13237
6.36000	13236
6.36067	13234
6.36133	13233
6.36200	13231
6.36267	13230
6.36333	13228
6.36400	13227
6.36467	13225
6.36533	13224
6.36600	13222
6.36667	13221
6.36733	13219
6.36800	13217
6.36867	13216
6.36933	13214
6.37000	13213
6.37067	13211
6.37133	13209
6.37200	13207
6.37267	13206
6.37333	13204
6.37400	13202
6.37467	13200
6.37533	13199
6.37600	13197
6.37667	13195
6.37733	13193
6.37800	13191
6.37867	13190
6.37933	13188
6.38000	13186
6.38067	13184
6.38133	13182
6.38200	13180
6.38267	13179
6.38333	13177
6.38400	13175
6.38467	13173
6.38533	13172
6.38600	13170
6.38667	13168
6.38733	13166
6.38800	13165
6.38867	13163
6.38933	13161
6.39000	13159
6.39067	13158
6.39133	13156
6.39200	13154
6.39267	13153
6.39333	13151
6.39400	13149
6.39467	13147
6.39533	13145
6.39600	13143
6.39667	13141
6.39733	13140
6.39800	13136
6.39867	13136
6.39933	13134

