[Header]
Application Name	LabSolutions
Version	5.73
Data File Name	C:\LabSolutions\Data\Project1\stephen\2016-01-06\101.gcd
Output Date	1/11/2016
Output Time	1:20:00 PM

[Configuration]
Instrument Name	WEISSTA-PC-Instrument1
Instrument #	1
Line #	1
# of Detectors	1
Detector ID	DET#2
Detector Name	DFID1
# of Channels	1

[Chromatogram (Ch1)]
Interval(msec)	40
# of Points	9600
Start Time(min)	0.000
End Time(min)	6.399
R.Time (min)	Intensity
0.00000	12
0.00067	12
0.00133	12
0.00200	12
0.00267	12
0.00333	13
0.00400	13
0.00467	13
0.00533	13
0.00600	13
0.00667	13
0.00733	13
0.00800	13
0.00867	13
0.00933	13
0.01000	13
0.01067	12
0.01133	12
0.01200	12
0.01267	11
0.01333	10
0.01400	10
0.01467	9
0.01533	8
0.01600	7
0.01667	5
0.01733	4
0.01800	3
0.01867	1
0.01933	-0
0.02000	-2
0.02067	-3
0.02133	-5
0.02200	-7
0.02267	-9
0.02333	-10
0.02400	-12
0.02467	-14
0.02533	-16
0.02600	-18
0.02667	-20
0.02733	-22
0.02800	-24
0.02867	-27
0.02933	-29
0.03000	-31
0.03067	-33
0.03133	-35
0.03200	-37
0.03267	-39
0.03333	-41
0.03400	-43
0.03467	-45
0.03533	-47
0.03600	-49
0.03667	-50
0.03733	-52
0.03800	-54
0.03867	-55
0.03933	-57
0.04000	-58
0.04067	-60
0.04133	-61
0.04200	-63
0.04267	-64
0.04333	-65
0.04400	-67
0.04467	-68
0.04533	-69
0.04600	-70
0.04667	-71
0.04733	-72
0.04800	-73
0.04867	-74
0.04933	-75
0.05000	-76
0.05067	-77
0.05133	-78
0.05200	-79
0.05267	-80
0.05333	-81
0.05400	-82
0.05467	-83
0.05533	-83
0.05600	-84
0.05667	-85
0.05733	-86
0.05800	-86
0.05867	-87
0.05933	-88
0.06000	-88
0.06067	-89
0.06133	-90
0.06200	-90
0.06267	-91
0.06333	-91
0.06400	-92
0.06467	-92
0.06533	-93
0.06600	-93
0.06667	-94
0.06733	-94
0.06800	-95
0.06867	-95
0.06933	-96
0.07000	-96
0.07067	-97
0.07133	-97
0.07200	-98
0.07267	-98
0.07333	-99
0.07400	-99
0.07467	-100
0.07533	-100
0.07600	-101
0.07667	-101
0.07733	-102
0.07800	-102
0.07867	-103
0.07933	-103
0.08000	-104
0.08067	-104
0.08133	-105
0.08200	-105
0.08267	-105
0.08333	-106
0.08400	-106
0.08467	-107
0.08533	-107
0.08600	-108
0.08667	-108
0.08733	-108
0.08800	-107
0.08867	-101
0.08933	-90
0.09000	-74
0.09067	-49
0.09133	3
0.09200	76
0.09267	161
0.09333	268
0.09400	397
0.09467	605
0.09533	882
0.09600	1177
0.09667	1475
0.09733	1775
0.09800	2099
0.09867	2468
0.09933	2892
0.10000	3344
0.10067	3805
0.10133	4329
0.10200	4899
0.10267	5543
0.10333	6185
0.10400	6820
0.10467	7460
0.10533	8111
0.10600	8732
0.10667	9357
0.10733	10016
0.10800	10671
0.10867	11339
0.10933	12040
0.11000	12782
0.11067	13504
0.11133	14192
0.11200	14852
0.11267	15492
0.11333	16125
0.11400	16745
0.11467	17356
0.11533	17996
0.11600	18619
0.11667	19210
0.11733	19770
0.11800	20310
0.11867	20840
0.11933	21361
0.12000	21850
0.12067	22321
0.12133	22759
0.12200	23166
0.12267	23554
0.12333	23932
0.12400	24339
0.12467	24721
0.12533	25079
0.12600	25476
0.12667	25843
0.12733	26152
0.12800	26405
0.12867	26607
0.12933	26764
0.13000	26883
0.13067	26966
0.13133	27043
0.13200	27234
0.13267	27974
0.13333	30494
0.13400	37543
0.13467	54306
0.13533	89206
0.13600	154720
0.13667	267054
0.13733	445725
0.13800	711442
0.13867	1084364
0.13933	1582343
0.14000	2221459
0.14067	3015104
0.14133	3975240
0.14200	5111398
0.14267	6431897
0.14333	7942663
0.14400	9648429
0.14467	11550586
0.14533	13648872
0.14600	15941109
0.14667	18423808
0.14733	21091755
0.14800	23938710
0.14867	26957103
0.14933	30138469
0.15000	33473233
0.15067	36950586
0.15133	40558327
0.15200	44283623
0.15267	48111650
0.15333	52027132
0.15400	56014368
0.15467	60057358
0.15533	64139649
0.15600	68244689
0.15667	72356097
0.15733	76458030
0.15800	80534662
0.15867	84570825
0.15933	88552024
0.16000	92465044
0.16067	96297356
0.16133	100037851
0.16200	103676494
0.16267	107204670
0.16333	110614528
0.16400	113899554
0.16467	117054309
0.16533	120074478
0.16600	122956735
0.16667	125698787
0.16733	128299222
0.16800	130757305
0.16867	133073122
0.16933	135247349
0.17000	137281274
0.17067	139176624
0.17133	140935618
0.17200	142560581
0.17267	144054332
0.17333	145419920
0.17400	146660894
0.17467	147780813
0.17533	148783320
0.17600	149672153
0.17667	150451291
0.17733	151124658
0.17800	151696291
0.17867	152170174
0.17933	152550301
0.18000	152840587
0.18067	153044853
0.18133	153166865
0.18200	153210284
0.18267	153178685
0.18333	153075514
0.18400	152904104
0.18467	152667675
0.18533	152369379
0.18600	152012096
0.18667	151598529
0.18733	151131230
0.18800	150612780
0.18867	150045639
0.18933	149432153
0.19000	148774461
0.19067	148074629
0.19133	147334544
0.19200	146556085
0.19267	145741046
0.19333	144891200
0.19400	144008169
0.19467	143093457
0.19533	142148478
0.19600	141174590
0.19667	140173106
0.19733	139145368
0.19800	138092701
0.19867	137016412
0.19933	135917901
0.20000	134798563
0.20067	133659725
0.20133	132502632
0.20200	131328555
0.20267	130138713
0.20333	128934416
0.20400	127716941
0.20467	126487553
0.20533	125247465
0.20600	123997885
0.20667	122739967
0.20733	121474862
0.20800	120203693
0.20867	118927608
0.20933	117647719
0.21000	116365102
0.21067	115080773
0.21133	113795716
0.21200	112510899
0.21267	111227272
0.21333	109945743
0.21400	108667169
0.21467	107392376
0.21533	106122139
0.21600	104857213
0.21667	103598290
0.21733	102346038
0.21800	101101060
0.21867	99863951
0.21933	98635255
0.22000	97415519
0.22067	96205237
0.22133	95004904
0.22200	93814975
0.22267	92635867
0.22333	91467921
0.22400	90311440
0.22467	89166661
0.22533	88033820
0.22600	86913159
0.22667	85804884
0.22733	84709161
0.22800	83626121
0.22867	82555837
0.22933	81498333
0.23000	80453640
0.23067	79421763
0.23133	78402690
0.23200	77396381
0.23267	76402753
0.23333	75421705
0.23400	74453128
0.23467	73496892
0.23533	72552885
0.23600	71620969
0.23667	70701039
0.23733	69792954
0.23800	68896598
0.23867	68011860
0.23933	67138633
0.24000	66276795
0.24067	65426217
0.24133	64586757
0.24200	63758286
0.24267	62940683
0.24333	62133811
0.24400	61337517
0.24467	60551661
0.24533	59776110
0.24600	59010728
0.24667	58255376
0.24733	57509887
0.24800	56774130
0.24867	56047989
0.24933	55331348
0.25000	54624056
0.25067	53925952
0.25133	53236872
0.25200	52556678
0.25267	51885222
0.25333	51222371
0.25400	50567978
0.25467	49921924
0.25533	49284079
0.25600	48654319
0.25667	48032523
0.25733	47418562
0.25800	46812299
0.25867	46213594
0.25933	45622310
0.26000	45038311
0.26067	44461458
0.26133	43891617
0.26200	43328668
0.26267	42772483
0.26333	42222944
0.26400	41679929
0.26467	41143337
0.26533	40613056
0.26600	40088991
0.26667	39571052
0.26733	39059167
0.26800	38553269
0.26867	38053295
0.26933	37559183
0.27000	37070885
0.27067	36588347
0.27133	36111512
0.27200	35640317
0.27267	35174699
0.27333	34714601
0.27400	34259965
0.27467	33810727
0.27533	33366818
0.27600	32928176
0.27667	32494727
0.27733	32066373
0.27800	31643005
0.27867	31224534
0.27933	30810869
0.28000	30401914
0.28067	29997551
0.28133	29597674
0.28200	29202172
0.28267	28810946
0.28333	28423869
0.28400	28040824
0.28467	27661696
0.28533	27286379
0.28600	26914772
0.28667	26546781
0.28733	26182314
0.28800	25821288
0.28867	25463632
0.28933	25109285
0.29000	24758202
0.29067	24410331
0.29133	24065632
0.29200	23724062
0.29267	23385593
0.29333	23050193
0.29400	22717843
0.29467	22388527
0.29533	22062238
0.29600	21738964
0.29667	21418701
0.29733	21101440
0.29800	20787177
0.29867	20475903
0.29933	20167607
0.30000	19862278
0.30067	19559905
0.30133	19260470
0.30200	18963958
0.30267	18670347
0.30333	18379609
0.30400	18091716
0.30467	17806640
0.30533	17524349
0.30600	17244806
0.30667	16967977
0.30733	16693826
0.30800	16422324
0.30867	16153439
0.30933	15887143
0.31000	15623401
0.31067	15362190
0.31133	15103487
0.31200	14847272
0.31267	14593527
0.31333	14342234
0.31400	14093383
0.31467	13846967
0.31533	13602982
0.31600	13361427
0.31667	13122299
0.31733	12885598
0.31800	12651327
0.31867	12419492
0.31933	12190099
0.32000	11963156
0.32067	11738674
0.32133	11516662
0.32200	11297134
0.32267	11080099
0.32333	10865569
0.32400	10653555
0.32467	10444070
0.32533	10237128
0.32600	10032741
0.32667	9830918
0.32733	9631674
0.32800	9435019
0.32867	9240968
0.32933	9049531
0.33000	8860722
0.33067	8674548
0.33133	8491021
0.33200	8310149
0.33267	8131940
0.33333	7956400
0.33400	7783535
0.33467	7613352
0.33533	7445853
0.33600	7281041
0.33667	7118918
0.33733	6959482
0.33800	6802732
0.33867	6648668
0.33933	6497287
0.34000	6348584
0.34067	6202554
0.34133	6059191
0.34200	5918487
0.34267	5780431
0.34333	5645013
0.34400	5512219
0.34467	5382037
0.34533	5254451
0.34600	5129445
0.34667	5007002
0.34733	4887102
0.34800	4769726
0.34867	4654856
0.34933	4542469
0.35000	4432544
0.35067	4325060
0.35133	4219992
0.35200	4117316
0.35267	4017007
0.35333	3919035
0.35400	3823374
0.35467	3729992
0.35533	3638857
0.35600	3549935
0.35667	3463190
0.35733	3378587
0.35800	3296087
0.35867	3215652
0.35933	3137243
0.36000	3060818
0.36067	2986338
0.36133	2913760
0.36200	2843042
0.36267	2774140
0.36333	2707014
0.36400	2641620
0.36467	2577915
0.36533	2515857
0.36600	2455404
0.36667	2396514
0.36733	2339143
0.36800	2283250
0.36867	2228794
0.36933	2175735
0.37000	2124029
0.37067	2073633
0.37133	2024509
0.37200	1976617
0.37267	1929919
0.37333	1884376
0.37400	1839953
0.37467	1796615
0.37533	1754327
0.37600	1713059
0.37667	1672779
0.37733	1633459
0.37800	1595071
0.37867	1557589
0.37933	1520987
0.38000	1485242
0.38067	1450330
0.38133	1416228
0.38200	1382914
0.38267	1350368
0.38333	1318570
0.38400	1287501
0.38467	1257144
0.38533	1227481
0.38600	1198494
0.38667	1170169
0.38733	1142489
0.38800	1115441
0.38867	1089010
0.38933	1063182
0.39000	1037946
0.39067	1013289
0.39133	989199
0.39200	965665
0.39267	942677
0.39333	920223
0.39400	898294
0.39467	876880
0.39533	855970
0.39600	835556
0.39667	815627
0.39733	796175
0.39800	777190
0.39867	758663
0.39933	740586
0.40000	722950
0.40067	705746
0.40133	688965
0.40200	672598
0.40267	656638
0.40333	641076
0.40400	625904
0.40467	611113
0.40533	596695
0.40600	582643
0.40667	568948
0.40733	555603
0.40800	542599
0.40867	529930
0.40933	517587
0.41000	505564
0.41067	493852
0.41133	482445
0.41200	471336
0.41267	460517
0.41333	449982
0.41400	439725
0.41467	429737
0.41533	420013
0.41600	410547
0.41667	401331
0.41733	392361
0.41800	383629
0.41867	375131
0.41933	366859
0.42000	358809
0.42067	350974
0.42133	343350
0.42200	335931
0.42267	328712
0.42333	321687
0.42400	314851
0.42467	308200
0.42533	301729
0.42600	295432
0.42667	289306
0.42733	283346
0.42800	277548
0.42867	271908
0.42933	266421
0.43000	261083
0.43067	255891
0.43133	250840
0.43200	245927
0.43267	241147
0.43333	236497
0.43400	231973
0.43467	227571
0.43533	223288
0.43600	219121
0.43667	215067
0.43733	211122
0.43800	207284
0.43867	203550
0.43933	199919
0.44000	196387
0.44067	192952
0.44133	189612
0.44200	186365
0.44267	183209
0.44333	180141
0.44400	177159
0.44467	174263
0.44533	171449
0.44600	168716
0.44667	166063
0.44733	163488
0.44800	160989
0.44867	158566
0.44933	156218
0.45000	153943
0.45067	151741
0.45133	149611
0.45200	147553
0.45267	145567
0.45333	143653
0.45400	141811
0.45467	140041
0.45533	138344
0.45600	136720
0.45667	135167
0.45733	133684
0.45800	132268
0.45867	130916
0.45933	129625
0.46000	128392
0.46067	127216
0.46133	126093
0.46200	125021
0.46267	123997
0.46333	123020
0.46400	122086
0.46467	121193
0.46533	120339
0.46600	119522
0.46667	118739
0.46733	117989
0.46800	117270
0.46867	116580
0.46933	115917
0.47000	115279
0.47067	114664
0.47133	114073
0.47200	113502
0.47267	112951
0.47333	112419
0.47400	111903
0.47467	111404
0.47533	110919
0.47600	110449
0.47667	109992
0.47733	109546
0.47800	109111
0.47867	108686
0.47933	108271
0.48000	107864
0.48067	107464
0.48133	107073
0.48200	106688
0.48267	106310
0.48333	105939
0.48400	105575
0.48467	105216
0.48533	104863
0.48600	104515
0.48667	104170
0.48733	103829
0.48800	103491
0.48867	103154
0.48933	102819
0.49000	102485
0.49067	102151
0.49133	101817
0.49200	101483
0.49267	101148
0.49333	100811
0.49400	100473
0.49467	100133
0.49533	99792
0.49600	99448
0.49667	99102
0.49733	98754
0.49800	98403
0.49867	98049
0.49933	97693
0.50000	97333
0.50067	96970
0.50133	96605
0.50200	96236
0.50267	95865
0.50333	95490
0.50400	95113
0.50467	94732
0.50533	94349
0.50600	93963
0.50667	93574
0.50733	93182
0.50800	92788
0.50867	92390
0.50933	91991
0.51000	91588
0.51067	91184
0.51133	90777
0.51200	90368
0.51267	89956
0.51333	89543
0.51400	89128
0.51467	88711
0.51533	88292
0.51600	87872
0.51667	87450
0.51733	87027
0.51800	86602
0.51867	86177
0.51933	85750
0.52000	85322
0.52067	84893
0.52133	84464
0.52200	84034
0.52267	83603
0.52333	83171
0.52400	82740
0.52467	82308
0.52533	81875
0.52600	81443
0.52667	81010
0.52733	80578
0.52800	80146
0.52867	79714
0.52933	79282
0.53000	78850
0.53067	78419
0.53133	77989
0.53200	77559
0.53267	77130
0.53333	76702
0.53400	76275
0.53467	75848
0.53533	75423
0.53600	74999
0.53667	74576
0.53733	74154
0.53800	73734
0.53867	73314
0.53933	72896
0.54000	72480
0.54067	72065
0.54133	71652
0.54200	71240
0.54267	70830
0.54333	70421
0.54400	70014
0.54467	69609
0.54533	69206
0.54600	68805
0.54667	68405
0.54733	68008
0.54800	67612
0.54867	67219
0.54933	66827
0.55000	66438
0.55067	66051
0.55133	65665
0.55200	65282
0.55267	64902
0.55333	64523
0.55400	64147
0.55467	63773
0.55533	63401
0.55600	63032
0.55667	62665
0.55733	62300
0.55800	61938
0.55867	61578
0.55933	61221
0.56000	60866
0.56067	60513
0.56133	60163
0.56200	59815
0.56267	59470
0.56333	59127
0.56400	58786
0.56467	58448
0.56533	58112
0.56600	57778
0.56667	57446
0.56733	57117
0.56800	56790
0.56867	56465
0.56933	56143
0.57000	55822
0.57067	55504
0.57133	55188
0.57200	54873
0.57267	54561
0.57333	54251
0.57400	53944
0.57467	53638
0.57533	53334
0.57600	53032
0.57667	52732
0.57733	52435
0.57800	52139
0.57867	51846
0.57933	51555
0.58000	51266
0.58067	50978
0.58133	50693
0.58200	50410
0.58267	50129
0.58333	49851
0.58400	49574
0.58467	49299
0.58533	49027
0.58600	48756
0.58667	48488
0.58733	48221
0.58800	47957
0.58867	47694
0.58933	47433
0.59000	47175
0.59067	46918
0.59133	46663
0.59200	46411
0.59267	46160
0.59333	45911
0.59400	45664
0.59467	45420
0.59533	45177
0.59600	44937
0.59667	44698
0.59733	44462
0.59800	44228
0.59867	43996
0.59933	43766
0.60000	43539
0.60067	43314
0.60133	43092
0.60200	42873
0.60267	42656
0.60333	42442
0.60400	42231
0.60467	42024
0.60533	41820
0.60600	41620
0.60667	41423
0.60733	41230
0.60800	41041
0.60867	40857
0.60933	40678
0.61000	40503
0.61067	40333
0.61133	40169
0.61200	40011
0.61267	39858
0.61333	39712
0.61400	39571
0.61467	39437
0.61533	39310
0.61600	39188
0.61667	39073
0.61733	38964
0.61800	38861
0.61867	38764
0.61933	38672
0.62000	38585
0.62067	38503
0.62133	38424
0.62200	38350
0.62267	38278
0.62333	38209
0.62400	38142
0.62467	38077
0.62533	38013
0.62600	37949
0.62667	37886
0.62733	37822
0.62800	37756
0.62867	37690
0.62933	37621
0.63000	37551
0.63067	37479
0.63133	37404
0.63200	37327
0.63267	37246
0.63333	37163
0.63400	37078
0.63467	36989
0.63533	36897
0.63600	36803
0.63667	36705
0.63733	36605
0.63800	36502
0.63867	36396
0.63933	36287
0.64000	36176
0.64067	36063
0.64133	35947
0.64200	35828
0.64267	35708
0.64333	35585
0.64400	35461
0.64467	35334
0.64533	35206
0.64600	35076
0.64667	34945
0.64733	34812
0.64800	34678
0.64867	34543
0.64933	34406
0.65000	34268
0.65067	34130
0.65133	33990
0.65200	33850
0.65267	33708
0.65333	33566
0.65400	33424
0.65467	33281
0.65533	33137
0.65600	32993
0.65667	32849
0.65733	32705
0.65800	32560
0.65867	32415
0.65933	32270
0.66000	32125
0.66067	31980
0.66133	31835
0.66200	31690
0.66267	31545
0.66333	31401
0.66400	31257
0.66467	31112
0.66533	30969
0.66600	30825
0.66667	30682
0.66733	30540
0.66800	30398
0.66867	30256
0.66933	30116
0.67000	29975
0.67067	29836
0.67133	29696
0.67200	29558
0.67267	29420
0.67333	29283
0.67400	29147
0.67467	29012
0.67533	28877
0.67600	28743
0.67667	28610
0.67733	28478
0.67800	28347
0.67867	28217
0.67933	28088
0.68000	27961
0.68067	27834
0.68133	27709
0.68200	27585
0.68267	27462
0.68333	27341
0.68400	27221
0.68467	27103
0.68533	26987
0.68600	26873
0.68667	26761
0.68733	26652
0.68800	26544
0.68867	26440
0.68933	26337
0.69000	26238
0.69067	26142
0.69133	26049
0.69200	25959
0.69267	25873
0.69333	25790
0.69400	25711
0.69467	25635
0.69533	25564
0.69600	25496
0.69667	25432
0.69733	25372
0.69800	25316
0.69867	25264
0.69933	25215
0.70000	25169
0.70067	25126
0.70133	25087
0.70200	25049
0.70267	25015
0.70333	24982
0.70400	24951
0.70467	24922
0.70533	24893
0.70600	24865
0.70667	24837
0.70733	24810
0.70800	24782
0.70867	24753
0.70933	24723
0.71000	24692
0.71067	24660
0.71133	24625
0.71200	24589
0.71267	24551
0.71333	24510
0.71400	24467
0.71467	24422
0.71533	24374
0.71600	24324
0.71667	24271
0.71733	24216
0.71800	24158
0.71867	24098
0.71933	24036
0.72000	23971
0.72067	23904
0.72133	23835
0.72200	23764
0.72267	23691
0.72333	23616
0.72400	23539
0.72467	23461
0.72533	23381
0.72600	23300
0.72667	23218
0.72733	23134
0.72800	23049
0.72867	22963
0.72933	22877
0.73000	22789
0.73067	22701
0.73133	22612
0.73200	22523
0.73267	22433
0.73333	22343
0.73400	22253
0.73467	22163
0.73533	22072
0.73600	21982
0.73667	21891
0.73733	21801
0.73800	21711
0.73867	21621
0.73933	21531
0.74000	21441
0.74067	21351
0.74133	21262
0.74200	21174
0.74267	21085
0.74333	20997
0.74400	20910
0.74467	20823
0.74533	20737
0.74600	20651
0.74667	20566
0.74733	20481
0.74800	20397
0.74867	20313
0.74933	20231
0.75000	20148
0.75067	20067
0.75133	19986
0.75200	19905
0.75267	19826
0.75333	19747
0.75400	19669
0.75467	19591
0.75533	19514
0.75600	19438
0.75667	19363
0.75733	19288
0.75800	19214
0.75867	19141
0.75933	19068
0.76000	18996
0.76067	18925
0.76133	18854
0.76200	18784
0.76267	18715
0.76333	18646
0.76400	18578
0.76467	18511
0.76533	18444
0.76600	18378
0.76667	18313
0.76733	18248
0.76800	18184
0.76867	18121
0.76933	18058
0.77000	17996
0.77067	17934
0.77133	17873
0.77200	17813
0.77267	17753
0.77333	17694
0.77400	17635
0.77467	17577
0.77533	17520
0.77600	17464
0.77667	17407
0.77733	17352
0.77800	17297
0.77867	17242
0.77933	17189
0.78000	17135
0.78067	17083
0.78133	17030
0.78200	16979
0.78267	16927
0.78333	16877
0.78400	16826
0.78467	16777
0.78533	16727
0.78600	16679
0.78667	16630
0.78733	16583
0.78800	16535
0.78867	16488
0.78933	16442
0.79000	16396
0.79067	16350
0.79133	16304
0.79200	16259
0.79267	16215
0.79333	16171
0.79400	16127
0.79467	16083
0.79533	16040
0.79600	15998
0.79667	15955
0.79733	15914
0.79800	15872
0.79867	15831
0.79933	15790
0.80000	15750
0.80067	15710
0.80133	15670
0.80200	15630
0.80267	15591
0.80333	15553
0.80400	15514
0.80467	15476
0.80533	15438
0.80600	15401
0.80667	15364
0.80733	15327
0.80800	15290
0.80867	15254
0.80933	15218
0.81000	15183
0.81067	15147
0.81133	15112
0.81200	15078
0.81267	15043
0.81333	15010
0.81400	14976
0.81467	14943
0.81533	14910
0.81600	14878
0.81667	14846
0.81733	14814
0.81800	14782
0.81867	14751
0.81933	14720
0.82000	14690
0.82067	14659
0.82133	14629
0.82200	14599
0.82267	14570
0.82333	14540
0.82400	14511
0.82467	14482
0.82533	14454
0.82600	14425
0.82667	14397
0.82733	14369
0.82800	14341
0.82867	14313
0.82933	14286
0.83000	14258
0.83067	14231
0.83133	14204
0.83200	14177
0.83267	14151
0.83333	14124
0.83400	14098
0.83467	14072
0.83533	14046
0.83600	14020
0.83667	13994
0.83733	13969
0.83800	13943
0.83867	13918
0.83933	13893
0.84000	13868
0.84067	13843
0.84133	13818
0.84200	13794
0.84267	13769
0.84333	13745
0.84400	13720
0.84467	13696
0.84533	13672
0.84600	13648
0.84667	13624
0.84733	13600
0.84800	13577
0.84867	13553
0.84933	13530
0.85000	13506
0.85067	13483
0.85133	13460
0.85200	13436
0.85267	13413
0.85333	13390
0.85400	13368
0.85467	13345
0.85533	13322
0.85600	13299
0.85667	13277
0.85733	13254
0.85800	13232
0.85867	13209
0.85933	13187
0.86000	13165
0.86067	13143
0.86133	13121
0.86200	13099
0.86267	13077
0.86333	13056
0.86400	13034
0.86467	13013
0.86533	12991
0.86600	12970
0.86667	12949
0.86733	12927
0.86800	12906
0.86867	12885
0.86933	12864
0.87000	12843
0.87067	12823
0.87133	12802
0.87200	12781
0.87267	12761
0.87333	12740
0.87400	12720
0.87467	12699
0.87533	12679
0.87600	12659
0.87667	12639
0.87733	12618
0.87800	12598
0.87867	12578
0.87933	12558
0.88000	12539
0.88067	12519
0.88133	12499
0.88200	12479
0.88267	12460
0.88333	12440
0.88400	12421
0.88467	12401
0.88533	12382
0.88600	12363
0.88667	12344
0.88733	12326
0.88800	12307
0.88867	12288
0.88933	12270
0.89000	12252
0.89067	12234
0.89133	12216
0.89200	12198
0.89267	12180
0.89333	12163
0.89400	12145
0.89467	12128
0.89533	12111
0.89600	12094
0.89667	12077
0.89733	12060
0.89800	12044
0.89867	12028
0.89933	12012
0.90000	11996
0.90067	11980
0.90133	11964
0.90200	11949
0.90267	11933
0.90333	11918
0.90400	11903
0.90467	11888
0.90533	11874
0.90600	11859
0.90667	11845
0.90733	11831
0.90800	11817
0.90867	11803
0.90933	11790
0.91000	11776
0.91067	11763
0.91133	11749
0.91200	11736
0.91267	11723
0.91333	11710
0.91400	11697
0.91467	11684
0.91533	11671
0.91600	11659
0.91667	11646
0.91733	11633
0.91800	11620
0.91867	11607
0.91933	11595
0.92000	11582
0.92067	11569
0.92133	11556
0.92200	11543
0.92267	11530
0.92333	11517
0.92400	11504
0.92467	11491
0.92533	11478
0.92600	11465
0.92667	11451
0.92733	11438
0.92800	11425
0.92867	11411
0.92933	11398
0.93000	11385
0.93067	11371
0.93133	11358
0.93200	11344
0.93267	11331
0.93333	11318
0.93400	11304
0.93467	11290
0.93533	11277
0.93600	11263
0.93667	11249
0.93733	11236
0.93800	11222
0.93867	11208
0.93933	11195
0.94000	11181
0.94067	11167
0.94133	11153
0.94200	11140
0.94267	11126
0.94333	11112
0.94400	11098
0.94467	11084
0.94533	11070
0.94600	11056
0.94667	11042
0.94733	11028
0.94800	11014
0.94867	11000
0.94933	10986
0.95000	10972
0.95067	10958
0.95133	10944
0.95200	10930
0.95267	10916
0.95333	10902
0.95400	10888
0.95467	10875
0.95533	10861
0.95600	10847
0.95667	10834
0.95733	10820
0.95800	10807
0.95867	10793
0.95933	10780
0.96000	10767
0.96067	10754
0.96133	10740
0.96200	10727
0.96267	10715
0.96333	10702
0.96400	10689
0.96467	10676
0.96533	10664
0.96600	10651
0.96667	10639
0.96733	10626
0.96800	10614
0.96867	10602
0.96933	10590
0.97000	10578
0.97067	10566
0.97133	10554
0.97200	10542
0.97267	10530
0.97333	10519
0.97400	10507
0.97467	10495
0.97533	10483
0.97600	10471
0.97667	10459
0.97733	10448
0.97800	10436
0.97867	10424
0.97933	10412
0.98000	10400
0.98067	10387
0.98133	10375
0.98200	10363
0.98267	10351
0.98333	10339
0.98400	10327
0.98467	10314
0.98533	10302
0.98600	10290
0.98667	10278
0.98733	10266
0.98800	10253
0.98867	10241
0.98933	10229
0.99000	10216
0.99067	10204
0.99133	10192
0.99200	10180
0.99267	10167
0.99333	10155
0.99400	10143
0.99467	10130
0.99533	10118
0.99600	10106
0.99667	10094
0.99733	10081
0.99800	10069
0.99867	10057
0.99933	10045
1.00000	10033
1.00067	10021
1.00133	10009
1.00200	9997
1.00267	9985
1.00333	9973
1.00400	9961
1.00467	9949
1.00533	9937
1.00600	9925
1.00667	9914
1.00733	9902
1.00800	9890
1.00867	9878
1.00933	9867
1.01000	9855
1.01067	9844
1.01133	9833
1.01200	9821
1.01267	9810
1.01333	9799
1.01400	9788
1.01467	9777
1.01533	9766
1.01600	9756
1.01667	9745
1.01733	9735
1.01800	9725
1.01867	9715
1.01933	9705
1.02000	9695
1.02067	9685
1.02133	9675
1.02200	9666
1.02267	9656
1.02333	9647
1.02400	9638
1.02467	9629
1.02533	9620
1.02600	9612
1.02667	9603
1.02733	9594
1.02800	9586
1.02867	9578
1.02933	9569
1.03000	9561
1.03067	9553
1.03133	9545
1.03200	9537
1.03267	9529
1.03333	9521
1.03400	9513
1.03467	9505
1.03533	9497
1.03600	9489
1.03667	9481
1.03733	9473
1.03800	9465
1.03867	9457
1.03933	9449
1.04000	9441
1.04067	9433
1.04133	9425
1.04200	9417
1.04267	9409
1.04333	9400
1.04400	9392
1.04467	9384
1.04533	9376
1.04600	9368
1.04667	9359
1.04733	9351
1.04800	9343
1.04867	9334
1.04933	9326
1.05000	9318
1.05067	9309
1.05133	9301
1.05200	9293
1.05267	9284
1.05333	9276
1.05400	9267
1.05467	9259
1.05533	9250
1.05600	9242
1.05667	9233
1.05733	9225
1.05800	9216
1.05867	9207
1.05933	9198
1.06000	9190
1.06067	9181
1.06133	9172
1.06200	9164
1.06267	9155
1.06333	9146
1.06400	9137
1.06467	9129
1.06533	9120
1.06600	9111
1.06667	9103
1.06733	9094
1.06800	9085
1.06867	9076
1.06933	9068
1.07000	9059
1.07067	9050
1.07133	9042
1.07200	9033
1.07267	9024
1.07333	9016
1.07400	9007
1.07467	8998
1.07533	8990
1.07600	8981
1.07667	8972
1.07733	8964
1.07800	8955
1.07867	8946
1.07933	8938
1.08000	8929
1.08067	8920
1.08133	8912
1.08200	8903
1.08267	8895
1.08333	8886
1.08400	8877
1.08467	8869
1.08533	8860
1.08600	8852
1.08667	8843
1.08733	8834
1.08800	8826
1.08867	8817
1.08933	8809
1.09000	8801
1.09067	8792
1.09133	8784
1.09200	8776
1.09267	8768
1.09333	8759
1.09400	8751
1.09467	8743
1.09533	8736
1.09600	8728
1.09667	8720
1.09733	8712
1.09800	8705
1.09867	8697
1.09933	8689
1.10000	8682
1.10067	8674
1.10133	8667
1.10200	8659
1.10267	8652
1.10333	8644
1.10400	8637
1.10467	8630
1.10533	8622
1.10600	8615
1.10667	8608
1.10733	8601
1.10800	8594
1.10867	8586
1.10933	8579
1.11000	8572
1.11067	8565
1.11133	8558
1.11200	8551
1.11267	8544
1.11333	8537
1.11400	8530
1.11467	8523
1.11533	8516
1.11600	8510
1.11667	8503
1.11733	8496
1.11800	8490
1.11867	8483
1.11933	8477
1.12000	8470
1.12067	8464
1.12133	8458
1.12200	8451
1.12267	8445
1.12333	8439
1.12400	8434
1.12467	8428
1.12533	8422
1.12600	8417
1.12667	8412
1.12733	8407
1.12800	8402
1.12867	8397
1.12933	8393
1.13000	8389
1.13067	8385
1.13133	8381
1.13200	8377
1.13267	8373
1.13333	8370
1.13400	8367
1.13467	8364
1.13533	8361
1.13600	8359
1.13667	8356
1.13733	8354
1.13800	8351
1.13867	8349
1.13933	8347
1.14000	8344
1.14067	8342
1.14133	8340
1.14200	8338
1.14267	8336
1.14333	8334
1.14400	8331
1.14467	8329
1.14533	8327
1.14600	8324
1.14667	8322
1.14733	8319
1.14800	8316
1.14867	8313
1.14933	8310
1.15000	8307
1.15067	8303
1.15133	8300
1.15200	8296
1.15267	8292
1.15333	8288
1.15400	8284
1.15467	8280
1.15533	8276
1.15600	8271
1.15667	8266
1.15733	8262
1.15800	8257
1.15867	8252
1.15933	8247
1.16000	8241
1.16067	8236
1.16133	8231
1.16200	8225
1.16267	8220
1.16333	8214
1.16400	8208
1.16467	8202
1.16533	8197
1.16600	8191
1.16667	8185
1.16733	8178
1.16800	8172
1.16867	8166
1.16933	8160
1.17000	8154
1.17067	8148
1.17133	8141
1.17200	8135
1.17267	8129
1.17333	8123
1.17400	8116
1.17467	8110
1.17533	8104
1.17600	8097
1.17667	8091
1.17733	8085
1.17800	8078
1.17867	8072
1.17933	8066
1.18000	8059
1.18067	8053
1.18133	8047
1.18200	8041
1.18267	8035
1.18333	8029
1.18400	8023
1.18467	8017
1.18533	8011
1.18600	8005
1.18667	7999
1.18733	7993
1.18800	7988
1.18867	7982
1.18933	7976
1.19000	7971
1.19067	7965
1.19133	7960
1.19200	7955
1.19267	7949
1.19333	7944
1.19400	7939
1.19467	7934
1.19533	7929
1.19600	7924
1.19667	7919
1.19733	7914
1.19800	7909
1.19867	7905
1.19933	7900
1.20000	7896
1.20067	7891
1.20133	7887
1.20200	7883
1.20267	7878
1.20333	7874
1.20400	7870
1.20467	7866
1.20533	7863
1.20600	7859
1.20667	7855
1.20733	7851
1.20800	7848
1.20867	7844
1.20933	7841
1.21000	7837
1.21067	7834
1.21133	7831
1.21200	7828
1.21267	7824
1.21333	7821
1.21400	7818
1.21467	7815
1.21533	7812
1.21600	7809
1.21667	7806
1.21733	7804
1.21800	7801
1.21867	7798
1.21933	7796
1.22000	7793
1.22067	7791
1.22133	7788
1.22200	7786
1.22267	7784
1.22333	7782
1.22400	7780
1.22467	7778
1.22533	7776
1.22600	7774
1.22667	7772
1.22733	7771
1.22800	7769
1.22867	7768
1.22933	7766
1.23000	7765
1.23067	7764
1.23133	7762
1.23200	7761
1.23267	7760
1.23333	7759
1.23400	7758
1.23467	7757
1.23533	7756
1.23600	7755
1.23667	7754
1.23733	7753
1.23800	7752
1.23867	7751
1.23933	7750
1.24000	7749
1.24067	7748
1.24133	7748
1.24200	7747
1.24267	7746
1.24333	7745
1.24400	7745
1.24467	7744
1.24533	7743
1.24600	7743
1.24667	7742
1.24733	7742
1.24800	7742
1.24867	7741
1.24933	7741
1.25000	7741
1.25067	7741
1.25133	7741
1.25200	7740
1.25267	7740
1.25333	7740
1.25400	7740
1.25467	7740
1.25533	7740
1.25600	7740
1.25667	7740
1.25733	7740
1.25800	7740
1.25867	7741
1.25933	7741
1.26000	7741
1.26067	7741
1.26133	7742
1.26200	7742
1.26267	7742
1.26333	7743
1.26400	7743
1.26467	7744
1.26533	7745
1.26600	7745
1.26667	7746
1.26733	7748
1.26800	7749
1.26867	7750
1.26933	7752
1.27000	7754
1.27067	7756
1.27133	7758
1.27200	7761
1.27267	7763
1.27333	7767
1.27400	7770
1.27467	7774
1.27533	7778
1.27600	7782
1.27667	7787
1.27733	7792
1.27800	7798
1.27867	7803
1.27933	7809
1.28000	7815
1.28067	7822
1.28133	7829
1.28200	7835
1.28267	7842
1.28333	7849
1.28400	7857
1.28467	7864
1.28533	7871
1.28600	7878
1.28667	7885
1.28733	7892
1.28800	7899
1.28867	7905
1.28933	7912
1.29000	7918
1.29067	7923
1.29133	7929
1.29200	7934
1.29267	7939
1.29333	7943
1.29400	7947
1.29467	7951
1.29533	7954
1.29600	7958
1.29667	7960
1.29733	7963
1.29800	7965
1.29867	7966
1.29933	7968
1.30000	7969
1.30067	7969
1.30133	7969
1.30200	7969
1.30267	7969
1.30333	7968
1.30400	7967
1.30467	7965
1.30533	7963
1.30600	7961
1.30667	7959
1.30733	7956
1.30800	7953
1.30867	7949
1.30933	7946
1.31000	7942
1.31067	7938
1.31133	7933
1.31200	7929
1.31267	7924
1.31333	7919
1.31400	7914
1.31467	7909
1.31533	7904
1.31600	7898
1.31667	7893
1.31733	7887
1.31800	7881
1.31867	7875
1.31933	7869
1.32000	7862
1.32067	7856
1.32133	7849
1.32200	7843
1.32267	7836
1.32333	7829
1.32400	7822
1.32467	7815
1.32533	7808
1.32600	7801
1.32667	7794
1.32733	7786
1.32800	7779
1.32867	7772
1.32933	7764
1.33000	7757
1.33067	7750
1.33133	7742
1.33200	7735
1.33267	7728
1.33333	7720
1.33400	7713
1.33467	7705
1.33533	7698
1.33600	7690
1.33667	7683
1.33733	7675
1.33800	7668
1.33867	7660
1.33933	7653
1.34000	7645
1.34067	7638
1.34133	7631
1.34200	7623
1.34267	7616
1.34333	7609
1.34400	7601
1.34467	7594
1.34533	7587
1.34600	7580
1.34667	7573
1.34733	7566
1.34800	7559
1.34867	7552
1.34933	7545
1.35000	7538
1.35067	7532
1.35133	7525
1.35200	7518
1.35267	7512
1.35333	7505
1.35400	7499
1.35467	7493
1.35533	7486
1.35600	7480
1.35667	7474
1.35733	7468
1.35800	7462
1.35867	7455
1.35933	7449
1.36000	7443
1.36067	7437
1.36133	7431
1.36200	7426
1.36267	7420
1.36333	7414
1.36400	7408
1.36467	7403
1.36533	7397
1.36600	7392
1.36667	7386
1.36733	7381
1.36800	7375
1.36867	7370
1.36933	7364
1.37000	7359
1.37067	7354
1.37133	7349
1.37200	7343
1.37267	7338
1.37333	7333
1.37400	7328
1.37467	7323
1.37533	7318
1.37600	7313
1.37667	7308
1.37733	7304
1.37800	7299
1.37867	7294
1.37933	7289
1.38000	7285
1.38067	7280
1.38133	7276
1.38200	7271
1.38267	7267
1.38333	7263
1.38400	7258
1.38467	7254
1.38533	7250
1.38600	7246
1.38667	7242
1.38733	7237
1.38800	7233
1.38867	7229
1.38933	7225
1.39000	7222
1.39067	7218
1.39133	7214
1.39200	7210
1.39267	7206
1.39333	7202
1.39400	7198
1.39467	7194
1.39533	7190
1.39600	7186
1.39667	7182
1.39733	7179
1.39800	7175
1.39867	7171
1.39933	7168
1.40000	7164
1.40067	7161
1.40133	7157
1.40200	7154
1.40267	7150
1.40333	7147
1.40400	7143
1.40467	7140
1.40533	7137
1.40600	7133
1.40667	7130
1.40733	7127
1.40800	7124
1.40867	7121
1.40933	7117
1.41000	7114
1.41067	7111
1.41133	7108
1.41200	7105
1.41267	7102
1.41333	7098
1.41400	7095
1.41467	7092
1.41533	7089
1.41600	7086
1.41667	7083
1.41733	7079
1.41800	7076
1.41867	7073
1.41933	7070
1.42000	7067
1.42067	7064
1.42133	7061
1.42200	7058
1.42267	7055
1.42333	7052
1.42400	7049
1.42467	7046
1.42533	7043
1.42600	7040
1.42667	7037
1.42733	7034
1.42800	7031
1.42867	7028
1.42933	7025
1.43000	7022
1.43067	7020
1.43133	7017
1.43200	7014
1.43267	7011
1.43333	7008
1.43400	7006
1.43467	7003
1.43533	7000
1.43600	6997
1.43667	6994
1.43733	6992
1.43800	6989
1.43867	6986
1.43933	6983
1.44000	6980
1.44067	6978
1.44133	6975
1.44200	6972
1.44267	6969
1.44333	6966
1.44400	6963
1.44467	6961
1.44533	6958
1.44600	6955
1.44667	6952
1.44733	6949
1.44800	6947
1.44867	6944
1.44933	6941
1.45000	6939
1.45067	6936
1.45133	6933
1.45200	6931
1.45267	6928
1.45333	6925
1.45400	6923
1.45467	6920
1.45533	6917
1.45600	6915
1.45667	6912
1.45733	6910
1.45800	6907
1.45867	6905
1.45933	6902
1.46000	6900
1.46067	6897
1.46133	6895
1.46200	6893
1.46267	6890
1.46333	6888
1.46400	6886
1.46467	6883
1.46533	6881
1.46600	6879
1.46667	6877
1.46733	6875
1.46800	6873
1.46867	6871
1.46933	6869
1.47000	6867
1.47067	6865
1.47133	6864
1.47200	6862
1.47267	6860
1.47333	6858
1.47400	6856
1.47467	6855
1.47533	6853
1.47600	6851
1.47667	6849
1.47733	6848
1.47800	6846
1.47867	6844
1.47933	6842
1.48000	6840
1.48067	6838
1.48133	6837
1.48200	6835
1.48267	6833
1.48333	6831
1.48400	6829
1.48467	6827
1.48533	6825
1.48600	6823
1.48667	6821
1.48733	6820
1.48800	6818
1.48867	6816
1.48933	6814
1.49000	6812
1.49067	6809
1.49133	6807
1.49200	6805
1.49267	6803
1.49333	6801
1.49400	6798
1.49467	6796
1.49533	6794
1.49600	6791
1.49667	6789
1.49733	6786
1.49800	6784
1.49867	6781
1.49933	6779
1.50000	6776
1.50067	6774
1.50133	6771
1.50200	6769
1.50267	6766
1.50333	6764
1.50400	6761
1.50467	6759
1.50533	6756
1.50600	6754
1.50667	6751
1.50733	6749
1.50800	6746
1.50867	6744
1.50933	6741
1.51000	6739
1.51067	6736
1.51133	6734
1.51200	6732
1.51267	6729
1.51333	6727
1.51400	6725
1.51467	6723
1.51533	6720
1.51600	6718
1.51667	6716
1.51733	6714
1.51800	6712
1.51867	6710
1.51933	6708
1.52000	6705
1.52067	6703
1.52133	6701
1.52200	6700
1.52267	6698
1.52333	6696
1.52400	6694
1.52467	6692
1.52533	6690
1.52600	6688
1.52667	6687
1.52733	6685
1.52800	6683
1.52867	6682
1.52933	6680
1.53000	6678
1.53067	6677
1.53133	6675
1.53200	6673
1.53267	6671
1.53333	6670
1.53400	6668
1.53467	6666
1.53533	6665
1.53600	6663
1.53667	6661
1.53733	6660
1.53800	6658
1.53867	6657
1.53933	6655
1.54000	6653
1.54067	6652
1.54133	6650
1.54200	6648
1.54267	6647
1.54333	6645
1.54400	6643
1.54467	6641
1.54533	6640
1.54600	6638
1.54667	6636
1.54733	6634
1.54800	6633
1.54867	6631
1.54933	6629
1.55000	6627
1.55067	6626
1.55133	6624
1.55200	6622
1.55267	6620
1.55333	6619
1.55400	6617
1.55467	6615
1.55533	6614
1.55600	6612
1.55667	6610
1.55733	6609
1.55800	6607
1.55867	6606
1.55933	6604
1.56000	6603
1.56067	6601
1.56133	6600
1.56200	6598
1.56267	6597
1.56333	6595
1.56400	6594
1.56467	6593
1.56533	6591
1.56600	6590
1.56667	6589
1.56733	6588
1.56800	6586
1.56867	6585
1.56933	6584
1.57000	6583
1.57067	6581
1.57133	6580
1.57200	6579
1.57267	6578
1.57333	6576
1.57400	6575
1.57467	6574
1.57533	6573
1.57600	6572
1.57667	6570
1.57733	6569
1.57800	6568
1.57867	6566
1.57933	6565
1.58000	6564
1.58067	6563
1.58133	6561
1.58200	6560
1.58267	6559
1.58333	6557
1.58400	6556
1.58467	6555
1.58533	6553
1.58600	6552
1.58667	6551
1.58733	6550
1.58800	6548
1.58867	6547
1.58933	6546
1.59000	6544
1.59067	6543
1.59133	6542
1.59200	6540
1.59267	6539
1.59333	6538
1.59400	6536
1.59467	6535
1.59533	6534
1.59600	6532
1.59667	6531
1.59733	6530
1.59800	6528
1.59867	6527
1.59933	6526
1.60000	6524
1.60067	6523
1.60133	6522
1.60200	6520
1.60267	6519
1.60333	6518
1.60400	6516
1.60467	6515
1.60533	6514
1.60600	6513
1.60667	6511
1.60733	6510
1.60800	6509
1.60867	6508
1.60933	6507
1.61000	6506
1.61067	6505
1.61133	6504
1.61200	6503
1.61267	6502
1.61333	6501
1.61400	6500
1.61467	6499
1.61533	6498
1.61600	6497
1.61667	6496
1.61733	6495
1.61800	6494
1.61867	6493
1.61933	6492
1.62000	6491
1.62067	6490
1.62133	6489
1.62200	6488
1.62267	6487
1.62333	6486
1.62400	6485
1.62467	6485
1.62533	6484
1.62600	6483
1.62667	6482
1.62733	6481
1.62800	6480
1.62867	6479
1.62933	6478
1.63000	6477
1.63067	6476
1.63133	6475
1.63200	6473
1.63267	6472
1.63333	6471
1.63400	6470
1.63467	6469
1.63533	6468
1.63600	6467
1.63667	6467
1.63733	6466
1.63800	6465
1.63867	6464
1.63933	6463
1.64000	6463
1.64067	6462
1.64133	6462
1.64200	6462
1.64267	6461
1.64333	6461
1.64400	6461
1.64467	6460
1.64533	6460
1.64600	6460
1.64667	6460
1.64733	6460
1.64800	6460
1.64867	6459
1.64933	6459
1.65000	6459
1.65067	6459
1.65133	6459
1.65200	6459
1.65267	6459
1.65333	6459
1.65400	6459
1.65467	6459
1.65533	6459
1.65600	6459
1.65667	6458
1.65733	6458
1.65800	6458
1.65867	6458
1.65933	6458
1.66000	6458
1.66067	6457
1.66133	6457
1.66200	6457
1.66267	6457
1.66333	6456
1.66400	6456
1.66467	6455
1.66533	6455
1.66600	6454
1.66667	6454
1.66733	6453
1.66800	6453
1.66867	6452
1.66933	6452
1.67000	6451
1.67067	6450
1.67133	6450
1.67200	6449
1.67267	6448
1.67333	6447
1.67400	6447
1.67467	6446
1.67533	6445
1.67600	6444
1.67667	6443
1.67733	6443
1.67800	6442
1.67867	6441
1.67933	6440
1.68000	6439
1.68067	6438
1.68133	6437
1.68200	6436
1.68267	6435
1.68333	6434
1.68400	6433
1.68467	6431
1.68533	6430
1.68600	6429
1.68667	6428
1.68733	6426
1.68800	6425
1.68867	6424
1.68933	6422
1.69000	6421
1.69067	6419
1.69133	6418
1.69200	6416
1.69267	6414
1.69333	6413
1.69400	6411
1.69467	6410
1.69533	6408
1.69600	6406
1.69667	6405
1.69733	6403
1.69800	6401
1.69867	6400
1.69933	6398
1.70000	6396
1.70067	6394
1.70133	6392
1.70200	6390
1.70267	6389
1.70333	6387
1.70400	6385
1.70467	6383
1.70533	6381
1.70600	6379
1.70667	6377
1.70733	6375
1.70800	6373
1.70867	6372
1.70933	6370
1.71000	6368
1.71067	6366
1.71133	6365
1.71200	6363
1.71267	6362
1.71333	6360
1.71400	6359
1.71467	6358
1.71533	6357
1.71600	6357
1.71667	6357
1.71733	6357
1.71800	6358
1.71867	6359
1.71933	6362
1.72000	6365
1.72067	6370
1.72133	6376
1.72200	6384
1.72267	6395
1.72333	6409
1.72400	6426
1.72467	6447
1.72533	6473
1.72600	6505
1.72667	6545
1.72733	6593
1.72800	6651
1.72867	6721
1.72933	6804
1.73000	6904
1.73067	7022
1.73133	7162
1.73200	7327
1.73267	7520
1.73333	7746
1.73400	8009
1.73467	8314
1.73533	8666
1.73600	9072
1.73667	9537
1.73733	10068
1.73800	10672
1.73867	11357
1.73933	12130
1.74000	13000
1.74067	13975
1.74133	15064
1.74200	16276
1.74267	17620
1.74333	19108
1.74400	20748
1.74467	22553
1.74533	24534
1.74600	26701
1.74667	29064
1.74733	31632
1.74800	34415
1.74867	37420
1.74933	40653
1.75000	44122
1.75067	47832
1.75133	51788
1.75200	55992
1.75267	60448
1.75333	65158
1.75400	70122
1.75467	75336
1.75533	80793
1.75600	86488
1.75667	92408
1.75733	98543
1.75800	104876
1.75867	111392
1.75933	118076
1.76000	124911
1.76067	131877
1.76133	138950
1.76200	146107
1.76267	153321
1.76333	160565
1.76400	167812
1.76467	175033
1.76533	182197
1.76600	189274
1.76667	196234
1.76733	203047
1.76800	209686
1.76867	216123
1.76933	222332
1.77000	228290
1.77067	233974
1.77133	239364
1.77200	244441
1.77267	249190
1.77333	253600
1.77400	257660
1.77467	261365
1.77533	264711
1.77600	267695
1.77667	270318
1.77733	272582
1.77800	274491
1.77867	276051
1.77933	277269
1.78000	278154
1.78067	278716
1.78133	278965
1.78200	278912
1.78267	278571
1.78333	277952
1.78400	277070
1.78467	275938
1.78533	274569
1.78600	272976
1.78667	271174
1.78733	269175
1.78800	266992
1.78867	264639
1.78933	262128
1.79000	259470
1.79067	256679
1.79133	253765
1.79200	250739
1.79267	247612
1.79333	244393
1.79400	241093
1.79467	237721
1.79533	234285
1.79600	230794
1.79667	227255
1.79733	223677
1.79800	220065
1.79867	216428
1.79933	212770
1.80000	209099
1.80067	205419
1.80133	201735
1.80200	198054
1.80267	194379
1.80333	190714
1.80400	187063
1.80467	183431
1.80533	179821
1.80600	176235
1.80667	172677
1.80733	169149
1.80800	165655
1.80867	162195
1.80933	158773
1.81000	155390
1.81067	152047
1.81133	148748
1.81200	145491
1.81267	142280
1.81333	139115
1.81400	135997
1.81467	132926
1.81533	129904
1.81600	126932
1.81667	124008
1.81733	121135
1.81800	118312
1.81867	115539
1.81933	112817
1.82000	110146
1.82067	107525
1.82133	104954
1.82200	102434
1.82267	99964
1.82333	97544
1.82400	95174
1.82467	92853
1.82533	90580
1.82600	88356
1.82667	86180
1.82733	84051
1.82800	81970
1.82867	79934
1.82933	77945
1.83000	76000
1.83067	74101
1.83133	72245
1.83200	70432
1.83267	68662
1.83333	66934
1.83400	65248
1.83467	63602
1.83533	61996
1.83600	60429
1.83667	58901
1.83733	57411
1.83800	55957
1.83867	54541
1.83933	53160
1.84000	51814
1.84067	50503
1.84133	49225
1.84200	47980
1.84267	46768
1.84333	45587
1.84400	44438
1.84467	43319
1.84533	42229
1.84600	41168
1.84667	40136
1.84733	39131
1.84800	38154
1.84867	37203
1.84933	36278
1.85000	35378
1.85067	34503
1.85133	33652
1.85200	32824
1.85267	32020
1.85333	31238
1.85400	30477
1.85467	29738
1.85533	29019
1.85600	28321
1.85667	27643
1.85733	26983
1.85800	26343
1.85867	25721
1.85933	25116
1.86000	24529
1.86067	23958
1.86133	23404
1.86200	22866
1.86267	22343
1.86333	21836
1.86400	21343
1.86467	20865
1.86533	20401
1.86600	19950
1.86667	19512
1.86733	19088
1.86800	18675
1.86867	18275
1.86933	17887
1.87000	17510
1.87067	17144
1.87133	16789
1.87200	16444
1.87267	16110
1.87333	15785
1.87400	15471
1.87467	15165
1.87533	14869
1.87600	14582
1.87667	14303
1.87733	14033
1.87800	13770
1.87867	13516
1.87933	13269
1.88000	13030
1.88067	12798
1.88133	12573
1.88200	12355
1.88267	12143
1.88333	11938
1.88400	11739
1.88467	11546
1.88533	11359
1.88600	11178
1.88667	11002
1.88733	10832
1.88800	10667
1.88867	10506
1.88933	10351
1.89000	10201
1.89067	10055
1.89133	9914
1.89200	9777
1.89267	9644
1.89333	9516
1.89400	9391
1.89467	9270
1.89533	9153
1.89600	9040
1.89667	8930
1.89733	8824
1.89800	8720
1.89867	8620
1.89933	8524
1.90000	8430
1.90067	8339
1.90133	8251
1.90200	8165
1.90267	8082
1.90333	8002
1.90400	7925
1.90467	7849
1.90533	7776
1.90600	7706
1.90667	7637
1.90733	7571
1.90800	7507
1.90867	7445
1.90933	7384
1.91000	7326
1.91067	7269
1.91133	7214
1.91200	7161
1.91267	7109
1.91333	7059
1.91400	7010
1.91467	6963
1.91533	6918
1.91600	6873
1.91667	6830
1.91733	6789
1.91800	6748
1.91867	6709
1.91933	6671
1.92000	6634
1.92067	6599
1.92133	6564
1.92200	6530
1.92267	6497
1.92333	6465
1.92400	6435
1.92467	6405
1.92533	6375
1.92600	6347
1.92667	6319
1.92733	6293
1.92800	6267
1.92867	6241
1.92933	6217
1.93000	6193
1.93067	6169
1.93133	6147
1.93200	6125
1.93267	6103
1.93333	6082
1.93400	6062
1.93467	6042
1.93533	6023
1.93600	6004
1.93667	5986
1.93733	5968
1.93800	5951
1.93867	5934
1.93933	5917
1.94000	5901
1.94067	5886
1.94133	5870
1.94200	5856
1.94267	5841
1.94333	5827
1.94400	5813
1.94467	5799
1.94533	5786
1.94600	5773
1.94667	5761
1.94733	5748
1.94800	5736
1.94867	5724
1.94933	5713
1.95000	5701
1.95067	5690
1.95133	5680
1.95200	5669
1.95267	5659
1.95333	5649
1.95400	5639
1.95467	5629
1.95533	5620
1.95600	5610
1.95667	5601
1.95733	5592
1.95800	5584
1.95867	5575
1.95933	5567
1.96000	5559
1.96067	5551
1.96133	5543
1.96200	5536
1.96267	5529
1.96333	5521
1.96400	5514
1.96467	5508
1.96533	5501
1.96600	5494
1.96667	5488
1.96733	5482
1.96800	5476
1.96867	5470
1.96933	5464
1.97000	5458
1.97067	5452
1.97133	5447
1.97200	5441
1.97267	5436
1.97333	5431
1.97400	5425
1.97467	5420
1.97533	5415
1.97600	5410
1.97667	5406
1.97733	5401
1.97800	5396
1.97867	5392
1.97933	5387
1.98000	5383
1.98067	5378
1.98133	5374
1.98200	5370
1.98267	5366
1.98333	5362
1.98400	5358
1.98467	5354
1.98533	5350
1.98600	5346
1.98667	5342
1.98733	5339
1.98800	5335
1.98867	5332
1.98933	5329
1.99000	5325
1.99067	5322
1.99133	5319
1.99200	5316
1.99267	5313
1.99333	5310
1.99400	5307
1.99467	5304
1.99533	5301
1.99600	5298
1.99667	5295
1.99733	5292
1.99800	5290
1.99867	5287
1.99933	5284
2.00000	5281
2.00067	5279
2.00133	5276
2.00200	5273
2.00267	5271
2.00333	5268
2.00400	5265
2.00467	5263
2.00533	5260
2.00600	5257
2.00667	5255
2.00733	5252
2.00800	5249
2.00867	5247
2.00933	5244
2.01000	5241
2.01067	5239
2.01133	5236
2.01200	5233
2.01267	5231
2.01333	5228
2.01400	5226
2.01467	5223
2.01533	5221
2.01600	5218
2.01667	5216
2.01733	5213
2.01800	5211
2.01867	5208
2.01933	5206
2.02000	5203
2.02067	5201
2.02133	5198
2.02200	5196
2.02267	5193
2.02333	5191
2.02400	5189
2.02467	5186
2.02533	5184
2.02600	5182
2.02667	5179
2.02733	5177
2.02800	5175
2.02867	5173
2.02933	5170
2.03000	5168
2.03067	5166
2.03133	5164
2.03200	5162
2.03267	5159
2.03333	5157
2.03400	5155
2.03467	5153
2.03533	5151
2.03600	5148
2.03667	5146
2.03733	5144
2.03800	5142
2.03867	5140
2.03933	5137
2.04000	5135
2.04067	5133
2.04133	5131
2.04200	5129
2.04267	5127
2.04333	5124
2.04400	5122
2.04467	5120
2.04533	5118
2.04600	5116
2.04667	5114
2.04733	5112
2.04800	5110
2.04867	5108
2.04933	5106
2.05000	5104
2.05067	5102
2.05133	5100
2.05200	5098
2.05267	5096
2.05333	5094
2.05400	5092
2.05467	5091
2.05533	5089
2.05600	5087
2.05667	5085
2.05733	5083
2.05800	5082
2.05867	5080
2.05933	5078
2.06000	5077
2.06067	5075
2.06133	5073
2.06200	5072
2.06267	5070
2.06333	5068
2.06400	5066
2.06467	5065
2.06533	5063
2.06600	5061
2.06667	5060
2.06733	5058
2.06800	5057
2.06867	5055
2.06933	5054
2.07000	5052
2.07067	5051
2.07133	5049
2.07200	5048
2.07267	5046
2.07333	5045
2.07400	5043
2.07467	5042
2.07533	5041
2.07600	5039
2.07667	5038
2.07733	5036
2.07800	5035
2.07867	5034
2.07933	5032
2.08000	5031
2.08067	5029
2.08133	5028
2.08200	5027
2.08267	5025
2.08333	5024
2.08400	5023
2.08467	5021
2.08533	5020
2.08600	5018
2.08667	5017
2.08733	5016
2.08800	5014
2.08867	5013
2.08933	5011
2.09000	5010
2.09067	5009
2.09133	5007
2.09200	5006
2.09267	5005
2.09333	5003
2.09400	5002
2.09467	5001
2.09533	5000
2.09600	4999
2.09667	4998
2.09733	4997
2.09800	4996
2.09867	4994
2.09933	4993
2.10000	4992
2.10067	4991
2.10133	4990
2.10200	4989
2.10267	4988
2.10333	4987
2.10400	4986
2.10467	4985
2.10533	4983
2.10600	4982
2.10667	4981
2.10733	4980
2.10800	4979
2.10867	4978
2.10933	4977
2.11000	4975
2.11067	4974
2.11133	4973
2.11200	4972
2.11267	4970
2.11333	4969
2.11400	4968
2.11467	4967
2.11533	4965
2.11600	4964
2.11667	4963
2.11733	4961
2.11800	4960
2.11867	4959
2.11933	4957
2.12000	4956
2.12067	4955
2.12133	4954
2.12200	4952
2.12267	4951
2.12333	4950
2.12400	4948
2.12467	4947
2.12533	4946
2.12600	4944
2.12667	4943
2.12733	4942
2.12800	4940
2.12867	4939
2.12933	4938
2.13000	4936
2.13067	4935
2.13133	4934
2.13200	4932
2.13267	4931
2.13333	4929
2.13400	4928
2.13467	4926
2.13533	4925
2.13600	4924
2.13667	4922
2.13733	4921
2.13800	4919
2.13867	4918
2.13933	4916
2.14000	4914
2.14067	4913
2.14133	4911
2.14200	4910
2.14267	4908
2.14333	4907
2.14400	4905
2.14467	4904
2.14533	4902
2.14600	4901
2.14667	4899
2.14733	4898
2.14800	4897
2.14867	4895
2.14933	4894
2.15000	4893
2.15067	4891
2.15133	4890
2.15200	4889
2.15267	4887
2.15333	4886
2.15400	4885
2.15467	4884
2.15533	4883
2.15600	4882
2.15667	4881
2.15733	4879
2.15800	4878
2.15867	4877
2.15933	4876
2.16000	4875
2.16067	4874
2.16133	4873
2.16200	4872
2.16267	4872
2.16333	4871
2.16400	4870
2.16467	4869
2.16533	4868
2.16600	4867
2.16667	4866
2.16733	4865
2.16800	4865
2.16867	4864
2.16933	4863
2.17000	4862
2.17067	4861
2.17133	4860
2.17200	4859
2.17267	4859
2.17333	4858
2.17400	4857
2.17467	4856
2.17533	4855
2.17600	4854
2.17667	4853
2.17733	4852
2.17800	4852
2.17867	4851
2.17933	4850
2.18000	4849
2.18067	4848
2.18133	4847
2.18200	4847
2.18267	4846
2.18333	4845
2.18400	4844
2.18467	4843
2.18533	4842
2.18600	4841
2.18667	4840
2.18733	4839
2.18800	4838
2.18867	4837
2.18933	4836
2.19000	4835
2.19067	4834
2.19133	4833
2.19200	4831
2.19267	4830
2.19333	4829
2.19400	4828
2.19467	4827
2.19533	4826
2.19600	4825
2.19667	4823
2.19733	4822
2.19800	4821
2.19867	4820
2.19933	4819
2.20000	4818
2.20067	4817
2.20133	4816
2.20200	4815
2.20267	4813
2.20333	4812
2.20400	4811
2.20467	4810
2.20533	4809
2.20600	4808
2.20667	4807
2.20733	4806
2.20800	4805
2.20867	4804
2.20933	4803
2.21000	4802
2.21067	4801
2.21133	4800
2.21200	4799
2.21267	4798
2.21333	4797
2.21400	4796
2.21467	4795
2.21533	4794
2.21600	4793
2.21667	4792
2.21733	4791
2.21800	4790
2.21867	4789
2.21933	4789
2.22000	4788
2.22067	4787
2.22133	4786
2.22200	4785
2.22267	4784
2.22333	4784
2.22400	4783
2.22467	4782
2.22533	4781
2.22600	4781
2.22667	4780
2.22733	4779
2.22800	4778
2.22867	4778
2.22933	4777
2.23000	4776
2.23067	4775
2.23133	4775
2.23200	4774
2.23267	4773
2.23333	4773
2.23400	4772
2.23467	4772
2.23533	4771
2.23600	4771
2.23667	4770
2.23733	4770
2.23800	4769
2.23867	4769
2.23933	4768
2.24000	4768
2.24067	4768
2.24133	4767
2.24200	4767
2.24267	4767
2.24333	4767
2.24400	4766
2.24467	4766
2.24533	4766
2.24600	4766
2.24667	4766
2.24733	4766
2.24800	4765
2.24867	4765
2.24933	4765
2.25000	4765
2.25067	4765
2.25133	4765
2.25200	4766
2.25267	4766
2.25333	4766
2.25400	4766
2.25467	4766
2.25533	4766
2.25600	4766
2.25667	4766
2.25733	4766
2.25800	4766
2.25867	4766
2.25933	4766
2.26000	4766
2.26067	4765
2.26133	4765
2.26200	4765
2.26267	4765
2.26333	4764
2.26400	4764
2.26467	4763
2.26533	4763
2.26600	4762
2.26667	4762
2.26733	4761
2.26800	4761
2.26867	4760
2.26933	4759
2.27000	4759
2.27067	4758
2.27133	4757
2.27200	4756
2.27267	4755
2.27333	4754
2.27400	4753
2.27467	4753
2.27533	4752
2.27600	4751
2.27667	4750
2.27733	4748
2.27800	4747
2.27867	4746
2.27933	4745
2.28000	4744
2.28067	4743
2.28133	4742
2.28200	4740
2.28267	4739
2.28333	4738
2.28400	4737
2.28467	4735
2.28533	4734
2.28600	4733
2.28667	4732
2.28733	4730
2.28800	4729
2.28867	4728
2.28933	4727
2.29000	4726
2.29067	4724
2.29133	4723
2.29200	4722
2.29267	4721
2.29333	4720
2.29400	4719
2.29467	4718
2.29533	4717
2.29600	4716
2.29667	4715
2.29733	4713
2.29800	4712
2.29867	4711
2.29933	4710
2.30000	4709
2.30067	4708
2.30133	4707
2.30200	4706
2.30267	4705
2.30333	4705
2.30400	4704
2.30467	4703
2.30533	4702
2.30600	4701
2.30667	4701
2.30733	4700
2.30800	4699
2.30867	4699
2.30933	4698
2.31000	4697
2.31067	4697
2.31133	4696
2.31200	4696
2.31267	4695
2.31333	4695
2.31400	4695
2.31467	4694
2.31533	4694
2.31600	4694
2.31667	4693
2.31733	4693
2.31800	4693
2.31867	4693
2.31933	4693
2.32000	4693
2.32067	4693
2.32133	4693
2.32200	4692
2.32267	4692
2.32333	4692
2.32400	4693
2.32467	4693
2.32533	4693
2.32600	4693
2.32667	4693
2.32733	4693
2.32800	4693
2.32867	4693
2.32933	4694
2.33000	4694
2.33067	4694
2.33133	4695
2.33200	4695
2.33267	4695
2.33333	4696
2.33400	4696
2.33467	4697
2.33533	4697
2.33600	4698
2.33667	4698
2.33733	4699
2.33800	4699
2.33867	4700
2.33933	4700
2.34000	4701
2.34067	4701
2.34133	4702
2.34200	4702
2.34267	4703
2.34333	4704
2.34400	4704
2.34467	4705
2.34533	4706
2.34600	4706
2.34667	4707
2.34733	4708
2.34800	4708
2.34867	4709
2.34933	4710
2.35000	4711
2.35067	4711
2.35133	4712
2.35200	4713
2.35267	4714
2.35333	4715
2.35400	4715
2.35467	4716
2.35533	4717
2.35600	4718
2.35667	4719
2.35733	4720
2.35800	4721
2.35867	4722
2.35933	4722
2.36000	4723
2.36067	4724
2.36133	4725
2.36200	4726
2.36267	4726
2.36333	4727
2.36400	4728
2.36467	4729
2.36533	4729
2.36600	4730
2.36667	4731
2.36733	4731
2.36800	4732
2.36867	4732
2.36933	4732
2.37000	4733
2.37067	4733
2.37133	4734
2.37200	4734
2.37267	4734
2.37333	4735
2.37400	4735
2.37467	4735
2.37533	4735
2.37600	4736
2.37667	4736
2.37733	4736
2.37800	4736
2.37867	4736
2.37933	4736
2.38000	4736
2.38067	4735
2.38133	4735
2.38200	4735
2.38267	4735
2.38333	4734
2.38400	4734
2.38467	4734
2.38533	4733
2.38600	4733
2.38667	4732
2.38733	4732
2.38800	4731
2.38867	4731
2.38933	4730
2.39000	4730
2.39067	4729
2.39133	4729
2.39200	4728
2.39267	4727
2.39333	4726
2.39400	4726
2.39467	4725
2.39533	4724
2.39600	4724
2.39667	4723
2.39733	4722
2.39800	4721
2.39867	4720
2.39933	4720
2.40000	4719
2.40067	4718
2.40133	4717
2.40200	4716
2.40267	4716
2.40333	4715
2.40400	4714
2.40467	4713
2.40533	4712
2.40600	4712
2.40667	4711
2.40733	4710
2.40800	4709
2.40867	4709
2.40933	4708
2.41000	4707
2.41067	4706
2.41133	4706
2.41200	4705
2.41267	4704
2.41333	4704
2.41400	4703
2.41467	4702
2.41533	4702
2.41600	4701
2.41667	4701
2.41733	4700
2.41800	4699
2.41867	4699
2.41933	4698
2.42000	4697
2.42067	4697
2.42133	4696
2.42200	4695
2.42267	4695
2.42333	4694
2.42400	4693
2.42467	4692
2.42533	4691
2.42600	4691
2.42667	4690
2.42733	4689
2.42800	4688
2.42867	4687
2.42933	4686
2.43000	4685
2.43067	4684
2.43133	4683
2.43200	4682
2.43267	4681
2.43333	4679
2.43400	4678
2.43467	4677
2.43533	4675
2.43600	4674
2.43667	4672
2.43733	4671
2.43800	4670
2.43867	4668
2.43933	4667
2.44000	4665
2.44067	4663
2.44133	4662
2.44200	4660
2.44267	4659
2.44333	4657
2.44400	4655
2.44467	4654
2.44533	4652
2.44600	4650
2.44667	4648
2.44733	4646
2.44800	4645
2.44867	4643
2.44933	4641
2.45000	4639
2.45067	4637
2.45133	4635
2.45200	4632
2.45267	4630
2.45333	4628
2.45400	4626
2.45467	4624
2.45533	4622
2.45600	4620
2.45667	4618
2.45733	4616
2.45800	4614
2.45867	4611
2.45933	4609
2.46000	4607
2.46067	4605
2.46133	4603
2.46200	4601
2.46267	4599
2.46333	4597
2.46400	4595
2.46467	4593
2.46533	4591
2.46600	4589
2.46667	4587
2.46733	4585
2.46800	4583
2.46867	4581
2.46933	4579
2.47000	4577
2.47067	4575
2.47133	4573
2.47200	4571
2.47267	4569
2.47333	4567
2.47400	4565
2.47467	4563
2.47533	4561
2.47600	4559
2.47667	4557
2.47733	4555
2.47800	4553
2.47867	4551
2.47933	4549
2.48000	4548
2.48067	4546
2.48133	4544
2.48200	4542
2.48267	4540
2.48333	4538
2.48400	4536
2.48467	4535
2.48533	4533
2.48600	4531
2.48667	4529
2.48733	4527
2.48800	4525
2.48867	4523
2.48933	4522
2.49000	4520
2.49067	4518
2.49133	4516
2.49200	4514
2.49267	4512
2.49333	4511
2.49400	4509
2.49467	4507
2.49533	4505
2.49600	4503
2.49667	4502
2.49733	4500
2.49800	4498
2.49867	4496
2.49933	4494
2.50000	4492
2.50067	4491
2.50133	4489
2.50200	4487
2.50267	4486
2.50333	4484
2.50400	4482
2.50467	4480
2.50533	4479
2.50600	4477
2.50667	4475
2.50733	4474
2.50800	4472
2.50867	4471
2.50933	4469
2.51000	4468
2.51067	4466
2.51133	4465
2.51200	4463
2.51267	4462
2.51333	4460
2.51400	4459
2.51467	4457
2.51533	4456
2.51600	4454
2.51667	4453
2.51733	4451
2.51800	4449
2.51867	4448
2.51933	4446
2.52000	4445
2.52067	4443
2.52133	4441
2.52200	4440
2.52267	4438
2.52333	4437
2.52400	4435
2.52467	4433
2.52533	4432
2.52600	4430
2.52667	4428
2.52733	4427
2.52800	4425
2.52867	4424
2.52933	4422
2.53000	4420
2.53067	4418
2.53133	4417
2.53200	4415
2.53267	4413
2.53333	4412
2.53400	4410
2.53467	4408
2.53533	4407
2.53600	4405
2.53667	4403
2.53733	4402
2.53800	4400
2.53867	4398
2.53933	4397
2.54000	4395
2.54067	4394
2.54133	4392
2.54200	4390
2.54267	4389
2.54333	4387
2.54400	4385
2.54467	4384
2.54533	4382
2.54600	4381
2.54667	4379
2.54733	4377
2.54800	4376
2.54867	4374
2.54933	4372
2.55000	4371
2.55067	4369
2.55133	4367
2.55200	4366
2.55267	4364
2.55333	4363
2.55400	4361
2.55467	4359
2.55533	4358
2.55600	4356
2.55667	4355
2.55733	4353
2.55800	4352
2.55867	4350
2.55933	4349
2.56000	4348
2.56067	4346
2.56133	4345
2.56200	4343
2.56267	4342
2.56333	4341
2.56400	4340
2.56467	4338
2.56533	4337
2.56600	4336
2.56667	4335
2.56733	4334
2.56800	4333
2.56867	4332
2.56933	4330
2.57000	4329
2.57067	4328
2.57133	4327
2.57200	4326
2.57267	4325
2.57333	4324
2.57400	4323
2.57467	4321
2.57533	4320
2.57600	4319
2.57667	4318
2.57733	4317
2.57800	4316
2.57867	4315
2.57933	4313
2.58000	4312
2.58067	4311
2.58133	4310
2.58200	4309
2.58267	4308
2.58333	4306
2.58400	4305
2.58467	4304
2.58533	4303
2.58600	4302
2.58667	4301
2.58733	4300
2.58800	4299
2.58867	4298
2.58933	4297
2.59000	4296
2.59067	4295
2.59133	4294
2.59200	4293
2.59267	4292
2.59333	4291
2.59400	4291
2.59467	4290
2.59533	4289
2.59600	4288
2.59667	4287
2.59733	4286
2.59800	4285
2.59867	4285
2.59933	4284
2.60000	4283
2.60067	4282
2.60133	4281
2.60200	4280
2.60267	4280
2.60333	4279
2.60400	4278
2.60467	4277
2.60533	4277
2.60600	4276
2.60667	4275
2.60733	4274
2.60800	4273
2.60867	4273
2.60933	4272
2.61000	4271
2.61067	4270
2.61133	4269
2.61200	4268
2.61267	4267
2.61333	4266
2.61400	4266
2.61467	4265
2.61533	4264
2.61600	4263
2.61667	4262
2.61733	4261
2.61800	4260
2.61867	4259
2.61933	4258
2.62000	4257
2.62067	4256
2.62133	4255
2.62200	4255
2.62267	4254
2.62333	4253
2.62400	4252
2.62467	4251
2.62533	4250
2.62600	4249
2.62667	4248
2.62733	4247
2.62800	4246
2.62867	4245
2.62933	4244
2.63000	4243
2.63067	4242
2.63133	4241
2.63200	4240
2.63267	4239
2.63333	4238
2.63400	4237
2.63467	4236
2.63533	4235
2.63600	4234
2.63667	4232
2.63733	4231
2.63800	4230
2.63867	4229
2.63933	4228
2.64000	4227
2.64067	4226
2.64133	4225
2.64200	4223
2.64267	4222
2.64333	4221
2.64400	4220
2.64467	4219
2.64533	4217
2.64600	4216
2.64667	4215
2.64733	4214
2.64800	4212
2.64867	4211
2.64933	4210
2.65000	4209
2.65067	4207
2.65133	4206
2.65200	4205
2.65267	4203
2.65333	4202
2.65400	4201
2.65467	4199
2.65533	4198
2.65600	4197
2.65667	4195
2.65733	4194
2.65800	4193
2.65867	4191
2.65933	4190
2.66000	4189
2.66067	4187
2.66133	4186
2.66200	4185
2.66267	4184
2.66333	4182
2.66400	4181
2.66467	4180
2.66533	4179
2.66600	4177
2.66667	4176
2.66733	4175
2.66800	4173
2.66867	4172
2.66933	4171
2.67000	4170
2.67067	4168
2.67133	4167
2.67200	4166
2.67267	4164
2.67333	4163
2.67400	4162
2.67467	4160
2.67533	4159
2.67600	4158
2.67667	4156
2.67733	4155
2.67800	4154
2.67867	4152
2.67933	4151
2.68000	4150
2.68067	4149
2.68133	4147
2.68200	4146
2.68267	4145
2.68333	4144
2.68400	4142
2.68467	4141
2.68533	4140
2.68600	4139
2.68667	4138
2.68733	4136
2.68800	4135
2.68867	4134
2.68933	4133
2.69000	4132
2.69067	4131
2.69133	4130
2.69200	4129
2.69267	4128
2.69333	4127
2.69400	4126
2.69467	4125
2.69533	4124
2.69600	4123
2.69667	4122
2.69733	4121
2.69800	4120
2.69867	4119
2.69933	4118
2.70000	4117
2.70067	4116
2.70133	4115
2.70200	4114
2.70267	4113
2.70333	4112
2.70400	4111
2.70467	4110
2.70533	4109
2.70600	4109
2.70667	4108
2.70733	4107
2.70800	4106
2.70867	4105
2.70933	4104
2.71000	4103
2.71067	4103
2.71133	4102
2.71200	4101
2.71267	4100
2.71333	4099
2.71400	4098
2.71467	4097
2.71533	4096
2.71600	4095
2.71667	4094
2.71733	4093
2.71800	4092
2.71867	4091
2.71933	4090
2.72000	4089
2.72067	4088
2.72133	4087
2.72200	4086
2.72267	4085
2.72333	4084
2.72400	4083
2.72467	4082
2.72533	4081
2.72600	4080
2.72667	4079
2.72733	4078
2.72800	4077
2.72867	4076
2.72933	4076
2.73000	4075
2.73067	4074
2.73133	4073
2.73200	4073
2.73267	4072
2.73333	4072
2.73400	4071
2.73467	4070
2.73533	4070
2.73600	4069
2.73667	4069
2.73733	4069
2.73800	4068
2.73867	4068
2.73933	4068
2.74000	4067
2.74067	4067
2.74133	4067
2.74200	4067
2.74267	4066
2.74333	4066
2.74400	4066
2.74467	4065
2.74533	4065
2.74600	4065
2.74667	4065
2.74733	4065
2.74800	4064
2.74867	4064
2.74933	4064
2.75000	4064
2.75067	4064
2.75133	4063
2.75200	4063
2.75267	4063
2.75333	4063
2.75400	4063
2.75467	4063
2.75533	4063
2.75600	4063
2.75667	4063
2.75733	4063
2.75800	4063
2.75867	4063
2.75933	4063
2.76000	4063
2.76067	4063
2.76133	4063
2.76200	4063
2.76267	4064
2.76333	4064
2.76400	4064
2.76467	4064
2.76533	4064
2.76600	4065
2.76667	4065
2.76733	4065
2.76800	4065
2.76867	4066
2.76933	4066
2.77000	4066
2.77067	4067
2.77133	4067
2.77200	4067
2.77267	4068
2.77333	4068
2.77400	4069
2.77467	4069
2.77533	4069
2.77600	4070
2.77667	4070
2.77733	4071
2.77800	4072
2.77867	4072
2.77933	4073
2.78000	4074
2.78067	4074
2.78133	4075
2.78200	4076
2.78267	4076
2.78333	4077
2.78400	4078
2.78467	4079
2.78533	4079
2.78600	4080
2.78667	4081
2.78733	4082
2.78800	4083
2.78867	4084
2.78933	4085
2.79000	4086
2.79067	4087
2.79133	4088
2.79200	4088
2.79267	4089
2.79333	4090
2.79400	4091
2.79467	4092
2.79533	4094
2.79600	4095
2.79667	4096
2.79733	4097
2.79800	4098
2.79867	4099
2.79933	4100
2.80000	4101
2.80067	4101
2.80133	4102
2.80200	4103
2.80267	4104
2.80333	4105
2.80400	4106
2.80467	4107
2.80533	4107
2.80600	4108
2.80667	4109
2.80733	4109
2.80800	4110
2.80867	4111
2.80933	4111
2.81000	4112
2.81067	4113
2.81133	4113
2.81200	4114
2.81267	4114
2.81333	4115
2.81400	4115
2.81467	4116
2.81533	4116
2.81600	4116
2.81667	4117
2.81733	4117
2.81800	4117
2.81867	4118
2.81933	4118
2.82000	4118
2.82067	4118
2.82133	4118
2.82200	4119
2.82267	4119
2.82333	4119
2.82400	4119
2.82467	4119
2.82533	4119
2.82600	4119
2.82667	4119
2.82733	4119
2.82800	4119
2.82867	4118
2.82933	4118
2.83000	4118
2.83067	4118
2.83133	4118
2.83200	4118
2.83267	4118
2.83333	4118
2.83400	4118
2.83467	4118
2.83533	4118
2.83600	4117
2.83667	4117
2.83733	4117
2.83800	4117
2.83867	4117
2.83933	4117
2.84000	4117
2.84067	4117
2.84133	4117
2.84200	4117
2.84267	4117
2.84333	4117
2.84400	4117
2.84467	4117
2.84533	4117
2.84600	4117
2.84667	4117
2.84733	4117
2.84800	4117
2.84867	4117
2.84933	4117
2.85000	4118
2.85067	4118
2.85133	4118
2.85200	4119
2.85267	4119
2.85333	4119
2.85400	4120
2.85467	4120
2.85533	4120
2.85600	4121
2.85667	4121
2.85733	4122
2.85800	4122
2.85867	4123
2.85933	4123
2.86000	4124
2.86067	4124
2.86133	4125
2.86200	4125
2.86267	4126
2.86333	4126
2.86400	4127
2.86467	4127
2.86533	4128
2.86600	4128
2.86667	4129
2.86733	4129
2.86800	4130
2.86867	4130
2.86933	4131
2.87000	4131
2.87067	4131
2.87133	4132
2.87200	4132
2.87267	4133
2.87333	4133
2.87400	4133
2.87467	4134
2.87533	4134
2.87600	4134
2.87667	4134
2.87733	4135
2.87800	4135
2.87867	4135
2.87933	4135
2.88000	4135
2.88067	4135
2.88133	4136
2.88200	4136
2.88267	4136
2.88333	4136
2.88400	4136
2.88467	4136
2.88533	4136
2.88600	4136
2.88667	4136
2.88733	4136
2.88800	4136
2.88867	4136
2.88933	4136
2.89000	4136
2.89067	4136
2.89133	4136
2.89200	4136
2.89267	4135
2.89333	4135
2.89400	4135
2.89467	4135
2.89533	4135
2.89600	4135
2.89667	4135
2.89733	4135
2.89800	4135
2.89867	4135
2.89933	4135
2.90000	4134
2.90067	4134
2.90133	4134
2.90200	4134
2.90267	4134
2.90333	4134
2.90400	4134
2.90467	4134
2.90533	4133
2.90600	4133
2.90667	4133
2.90733	4132
2.90800	4132
2.90867	4132
2.90933	4131
2.91000	4130
2.91067	4130
2.91133	4129
2.91200	4128
2.91267	4127
2.91333	4126
2.91400	4125
2.91467	4124
2.91533	4123
2.91600	4121
2.91667	4120
2.91733	4119
2.91800	4117
2.91867	4115
2.91933	4113
2.92000	4111
2.92067	4109
2.92133	4107
2.92200	4105
2.92267	4103
2.92333	4100
2.92400	4098
2.92467	4095
2.92533	4092
2.92600	4089
2.92667	4086
2.92733	4083
2.92800	4080
2.92867	4077
2.92933	4073
2.93000	4070
2.93067	4066
2.93133	4063
2.93200	4059
2.93267	4055
2.93333	4051
2.93400	4048
2.93467	4044
2.93533	4040
2.93600	4036
2.93667	4032
2.93733	4028
2.93800	4024
2.93867	4020
2.93933	4015
2.94000	4011
2.94067	4007
2.94133	4003
2.94200	3999
2.94267	3994
2.94333	3990
2.94400	3986
2.94467	3982
2.94533	3977
2.94600	3973
2.94667	3969
2.94733	3965
2.94800	3960
2.94867	3956
2.94933	3952
2.95000	3948
2.95067	3944
2.95133	3939
2.95200	3935
2.95267	3931
2.95333	3927
2.95400	3923
2.95467	3919
2.95533	3915
2.95600	3911
2.95667	3907
2.95733	3903
2.95800	3899
2.95867	3895
2.95933	3891
2.96000	3887
2.96067	3884
2.96133	3880
2.96200	3876
2.96267	3872
2.96333	3869
2.96400	3865
2.96467	3862
2.96533	3858
2.96600	3855
2.96667	3851
2.96733	3848
2.96800	3844
2.96867	3841
2.96933	3838
2.97000	3834
2.97067	3831
2.97133	3828
2.97200	3825
2.97267	3822
2.97333	3819
2.97400	3816
2.97467	3813
2.97533	3810
2.97600	3807
2.97667	3804
2.97733	3801
2.97800	3798
2.97867	3795
2.97933	3792
2.98000	3789
2.98067	3787
2.98133	3784
2.98200	3781
2.98267	3778
2.98333	3776
2.98400	3773
2.98467	3771
2.98533	3768
2.98600	3765
2.98667	3763
2.98733	3761
2.98800	3758
2.98867	3756
2.98933	3753
2.99000	3751
2.99067	3748
2.99133	3746
2.99200	3744
2.99267	3741
2.99333	3739
2.99400	3737
2.99467	3734
2.99533	3732
2.99600	3730
2.99667	3728
2.99733	3726
2.99800	3724
2.99867	3722
2.99933	3720
3.00000	3717
3.00067	3715
3.00133	3713
3.00200	3711
3.00267	3709
3.00333	3707
3.00400	3705
3.00467	3703
3.00533	3701
3.00600	3699
3.00667	3697
3.00733	3695
3.00800	3693
3.00867	3691
3.00933	3689
3.01000	3687
3.01067	3685
3.01133	3683
3.01200	3682
3.01267	3680
3.01333	3678
3.01400	3676
3.01467	3674
3.01533	3672
3.01600	3671
3.01667	3669
3.01733	3667
3.01800	3666
3.01867	3664
3.01933	3662
3.02000	3661
3.02067	3659
3.02133	3657
3.02200	3656
3.02267	3654
3.02333	3652
3.02400	3651
3.02467	3649
3.02533	3647
3.02600	3646
3.02667	3644
3.02733	3643
3.02800	3641
3.02867	3640
3.02933	3638
3.03000	3637
3.03067	3635
3.03133	3633
3.03200	3632
3.03267	3631
3.03333	3629
3.03400	3628
3.03467	3626
3.03533	3625
3.03600	3623
3.03667	3622
3.03733	3621
3.03800	3619
3.03867	3618
3.03933	3617
3.04000	3615
3.04067	3614
3.04133	3613
3.04200	3611
3.04267	3610
3.04333	3609
3.04400	3607
3.04467	3606
3.04533	3605
3.04600	3604
3.04667	3603
3.04733	3601
3.04800	3600
3.04867	3599
3.04933	3598
3.05000	3597
3.05067	3596
3.05133	3595
3.05200	3594
3.05267	3593
3.05333	3592
3.05400	3591
3.05467	3590
3.05533	3589
3.05600	3588
3.05667	3587
3.05733	3586
3.05800	3585
3.05867	3584
3.05933	3583
3.06000	3582
3.06067	3581
3.06133	3580
3.06200	3579
3.06267	3578
3.06333	3577
3.06400	3576
3.06467	3576
3.06533	3575
3.06600	3574
3.06667	3573
3.06733	3573
3.06800	3572
3.06867	3571
3.06933	3571
3.07000	3570
3.07067	3570
3.07133	3569
3.07200	3568
3.07267	3568
3.07333	3568
3.07400	3567
3.07467	3567
3.07533	3567
3.07600	3566
3.07667	3566
3.07733	3566
3.07800	3566
3.07867	3565
3.07933	3565
3.08000	3565
3.08067	3564
3.08133	3564
3.08200	3564
3.08267	3564
3.08333	3563
3.08400	3563
3.08467	3563
3.08533	3562
3.08600	3562
3.08667	3562
3.08733	3561
3.08800	3561
3.08867	3561
3.08933	3560
3.09000	3560
3.09067	3560
3.09133	3559
3.09200	3559
3.09267	3558
3.09333	3558
3.09400	3557
3.09467	3557
3.09533	3556
3.09600	3556
3.09667	3555
3.09733	3555
3.09800	3554
3.09867	3554
3.09933	3553
3.10000	3552
3.10067	3552
3.10133	3551
3.10200	3550
3.10267	3550
3.10333	3549
3.10400	3548
3.10467	3547
3.10533	3547
3.10600	3546
3.10667	3545
3.10733	3544
3.10800	3544
3.10867	3543
3.10933	3542
3.11000	3541
3.11067	3540
3.11133	3539
3.11200	3538
3.11267	3537
3.11333	3536
3.11400	3535
3.11467	3534
3.11533	3533
3.11600	3532
3.11667	3531
3.11733	3530
3.11800	3529
3.11867	3527
3.11933	3526
3.12000	3525
3.12067	3524
3.12133	3523
3.12200	3521
3.12267	3520
3.12333	3519
3.12400	3518
3.12467	3517
3.12533	3515
3.12600	3514
3.12667	3513
3.12733	3512
3.12800	3511
3.12867	3509
3.12933	3508
3.13000	3507
3.13067	3506
3.13133	3505
3.13200	3503
3.13267	3502
3.13333	3501
3.13400	3500
3.13467	3499
3.13533	3497
3.13600	3496
3.13667	3495
3.13733	3494
3.13800	3493
3.13867	3491
3.13933	3490
3.14000	3489
3.14067	3488
3.14133	3487
3.14200	3486
3.14267	3485
3.14333	3484
3.14400	3482
3.14467	3481
3.14533	3480
3.14600	3479
3.14667	3478
3.14733	3477
3.14800	3476
3.14867	3475
3.14933	3474
3.15000	3473
3.15067	3472
3.15133	3470
3.15200	3469
3.15267	3468
3.15333	3467
3.15400	3466
3.15467	3465
3.15533	3464
3.15600	3463
3.15667	3462
3.15733	3461
3.15800	3460
3.15867	3459
3.15933	3458
3.16000	3457
3.16067	3456
3.16133	3455
3.16200	3454
3.16267	3453
3.16333	3452
3.16400	3451
3.16467	3450
3.16533	3449
3.16600	3448
3.16667	3447
3.16733	3446
3.16800	3445
3.16867	3444
3.16933	3443
3.17000	3441
3.17067	3440
3.17133	3439
3.17200	3438
3.17267	3437
3.17333	3436
3.17400	3435
3.17467	3434
3.17533	3433
3.17600	3432
3.17667	3431
3.17733	3430
3.17800	3428
3.17867	3427
3.17933	3426
3.18000	3425
3.18067	3424
3.18133	3423
3.18200	3422
3.18267	3421
3.18333	3420
3.18400	3419
3.18467	3418
3.18533	3417
3.18600	3416
3.18667	3415
3.18733	3414
3.18800	3413
3.18867	3412
3.18933	3411
3.19000	3410
3.19067	3409
3.19133	3408
3.19200	3407
3.19267	3407
3.19333	3406
3.19400	3405
3.19467	3404
3.19533	3403
3.19600	3402
3.19667	3401
3.19733	3400
3.19800	3399
3.19867	3398
3.19933	3397
3.20000	3396
3.20067	3395
3.20133	3395
3.20200	3394
3.20267	3393
3.20333	3392
3.20400	3391
3.20467	3390
3.20533	3389
3.20600	3389
3.20667	3388
3.20733	3387
3.20800	3386
3.20867	3385
3.20933	3385
3.21000	3384
3.21067	3383
3.21133	3382
3.21200	3381
3.21267	3381
3.21333	3380
3.21400	3379
3.21467	3378
3.21533	3377
3.21600	3377
3.21667	3376
3.21733	3375
3.21800	3374
3.21867	3374
3.21933	3373
3.22000	3372
3.22067	3372
3.22133	3371
3.22200	3370
3.22267	3370
3.22333	3369
3.22400	3369
3.22467	3368
3.22533	3367
3.22600	3367
3.22667	3366
3.22733	3366
3.22800	3365
3.22867	3364
3.22933	3364
3.23000	3363
3.23067	3363
3.23133	3362
3.23200	3361
3.23267	3361
3.23333	3360
3.23400	3360
3.23467	3359
3.23533	3359
3.23600	3358
3.23667	3358
3.23733	3357
3.23800	3357
3.23867	3356
3.23933	3356
3.24000	3355
3.24067	3355
3.24133	3354
3.24200	3354
3.24267	3354
3.24333	3353
3.24400	3353
3.24467	3352
3.24533	3352
3.24600	3351
3.24667	3351
3.24733	3350
3.24800	3350
3.24867	3349
3.24933	3349
3.25000	3349
3.25067	3348
3.25133	3348
3.25200	3347
3.25267	3347
3.25333	3347
3.25400	3346
3.25467	3346
3.25533	3345
3.25600	3345
3.25667	3344
3.25733	3344
3.25800	3343
3.25867	3343
3.25933	3342
3.26000	3342
3.26067	3341
3.26133	3341
3.26200	3340
3.26267	3340
3.26333	3339
3.26400	3339
3.26467	3338
3.26533	3338
3.26600	3337
3.26667	3337
3.26733	3336
3.26800	3336
3.26867	3336
3.26933	3335
3.27000	3335
3.27067	3334
3.27133	3334
3.27200	3333
3.27267	3333
3.27333	3332
3.27400	3332
3.27467	3332
3.27533	3331
3.27600	3331
3.27667	3330
3.27733	3330
3.27800	3330
3.27867	3329
3.27933	3329
3.28000	3329
3.28067	3328
3.28133	3328
3.28200	3328
3.28267	3327
3.28333	3327
3.28400	3327
3.28467	3326
3.28533	3326
3.28600	3326
3.28667	3325
3.28733	3325
3.28800	3325
3.28867	3324
3.28933	3324
3.29000	3324
3.29067	3323
3.29133	3323
3.29200	3323
3.29267	3322
3.29333	3322
3.29400	3322
3.29467	3322
3.29533	3321
3.29600	3321
3.29667	3321
3.29733	3320
3.29800	3320
3.29867	3320
3.29933	3319
3.30000	3319
3.30067	3319
3.30133	3319
3.30200	3318
3.30267	3318
3.30333	3318
3.30400	3318
3.30467	3318
3.30533	3317
3.30600	3317
3.30667	3317
3.30733	3317
3.30800	3316
3.30867	3316
3.30933	3316
3.31000	3316
3.31067	3315
3.31133	3315
3.31200	3315
3.31267	3314
3.31333	3314
3.31400	3314
3.31467	3313
3.31533	3313
3.31600	3313
3.31667	3313
3.31733	3312
3.31800	3312
3.31867	3312
3.31933	3311
3.32000	3311
3.32067	3311
3.32133	3310
3.32200	3310
3.32267	3310
3.32333	3309
3.32400	3309
3.32467	3309
3.32533	3308
3.32600	3308
3.32667	3308
3.32733	3308
3.32800	3307
3.32867	3307
3.32933	3307
3.33000	3306
3.33067	3306
3.33133	3306
3.33200	3305
3.33267	3305
3.33333	3305
3.33400	3304
3.33467	3304
3.33533	3303
3.33600	3303
3.33667	3303
3.33733	3302
3.33800	3302
3.33867	3302
3.33933	3301
3.34000	3301
3.34067	3301
3.34133	3300
3.34200	3300
3.34267	3300
3.34333	3300
3.34400	3299
3.34467	3299
3.34533	3299
3.34600	3299
3.34667	3299
3.34733	3299
3.34800	3299
3.34867	3298
3.34933	3298
3.35000	3298
3.35067	3298
3.35133	3298
3.35200	3298
3.35267	3298
3.35333	3298
3.35400	3298
3.35467	3297
3.35533	3297
3.35600	3297
3.35667	3297
3.35733	3297
3.35800	3297
3.35867	3297
3.35933	3297
3.36000	3297
3.36067	3297
3.36133	3297
3.36200	3298
3.36267	3298
3.36333	3298
3.36400	3298
3.36467	3298
3.36533	3298
3.36600	3299
3.36667	3299
3.36733	3299
3.36800	3300
3.36867	3300
3.36933	3300
3.37000	3301
3.37067	3301
3.37133	3301
3.37200	3302
3.37267	3302
3.37333	3303
3.37400	3303
3.37467	3303
3.37533	3304
3.37600	3304
3.37667	3305
3.37733	3305
3.37800	3306
3.37867	3306
3.37933	3307
3.38000	3307
3.38067	3308
3.38133	3308
3.38200	3309
3.38267	3310
3.38333	3310
3.38400	3311
3.38467	3311
3.38533	3312
3.38600	3313
3.38667	3314
3.38733	3314
3.38800	3315
3.38867	3316
3.38933	3317
3.39000	3318
3.39067	3318
3.39133	3319
3.39200	3320
3.39267	3321
3.39333	3322
3.39400	3323
3.39467	3324
3.39533	3325
3.39600	3326
3.39667	3327
3.39733	3328
3.39800	3329
3.39867	3330
3.39933	3331
3.40000	3332
3.40067	3334
3.40133	3335
3.40200	3336
3.40267	3337
3.40333	3339
3.40400	3340
3.40467	3341
3.40533	3343
3.40600	3344
3.40667	3346
3.40733	3347
3.40800	3349
3.40867	3351
3.40933	3352
3.41000	3354
3.41067	3356
3.41133	3357
3.41200	3359
3.41267	3361
3.41333	3363
3.41400	3365
3.41467	3367
3.41533	3369
3.41600	3371
3.41667	3374
3.41733	3376
3.41800	3378
3.41867	3381
3.41933	3383
3.42000	3386
3.42067	3388
3.42133	3391
3.42200	3394
3.42267	3396
3.42333	3399
3.42400	3402
3.42467	3405
3.42533	3408
3.42600	3411
3.42667	3414
3.42733	3417
3.42800	3421
3.42867	3424
3.42933	3428
3.43000	3431
3.43067	3435
3.43133	3439
3.43200	3442
3.43267	3446
3.43333	3450
3.43400	3454
3.43467	3459
3.43533	3463
3.43600	3467
3.43667	3472
3.43733	3477
3.43800	3481
3.43867	3486
3.43933	3491
3.44000	3496
3.44067	3501
3.44133	3507
3.44200	3512
3.44267	3517
3.44333	3523
3.44400	3529
3.44467	3534
3.44533	3540
3.44600	3546
3.44667	3553
3.44733	3559
3.44800	3565
3.44867	3572
3.44933	3578
3.45000	3585
3.45067	3592
3.45133	3599
3.45200	3606
3.45267	3613
3.45333	3620
3.45400	3627
3.45467	3635
3.45533	3642
3.45600	3650
3.45667	3657
3.45733	3665
3.45800	3673
3.45867	3681
3.45933	3689
3.46000	3697
3.46067	3705
3.46133	3714
3.46200	3722
3.46267	3730
3.46333	3739
3.46400	3747
3.46467	3756
3.46533	3765
3.46600	3773
3.46667	3782
3.46733	3791
3.46800	3800
3.46867	3809
3.46933	3818
3.47000	3827
3.47067	3836
3.47133	3845
3.47200	3855
3.47267	3864
3.47333	3873
3.47400	3883
3.47467	3892
3.47533	3902
3.47600	3911
3.47667	3921
3.47733	3931
3.47800	3940
3.47867	3950
3.47933	3960
3.48000	3969
3.48067	3979
3.48133	3989
3.48200	3999
3.48267	4009
3.48333	4019
3.48400	4029
3.48467	4040
3.48533	4050
3.48600	4060
3.48667	4071
3.48733	4082
3.48800	4092
3.48867	4103
3.48933	4114
3.49000	4126
3.49067	4137
3.49133	4148
3.49200	4160
3.49267	4172
3.49333	4184
3.49400	4196
3.49467	4209
3.49533	4221
3.49600	4234
3.49667	4248
3.49733	4262
3.49800	4276
3.49867	4290
3.49933	4305
3.50000	4321
3.50067	4337
3.50133	4354
3.50200	4371
3.50267	4389
3.50333	4407
3.50400	4426
3.50467	4446
3.50533	4467
3.50600	4488
3.50667	4510
3.50733	4533
3.50800	4557
3.50867	4582
3.50933	4609
3.51000	4636
3.51067	4664
3.51133	4694
3.51200	4725
3.51267	4757
3.51333	4791
3.51400	4826
3.51467	4863
3.51533	4901
3.51600	4941
3.51667	4983
3.51733	5026
3.51800	5071
3.51867	5118
3.51933	5167
3.52000	5218
3.52067	5271
3.52133	5326
3.52200	5384
3.52267	5443
3.52333	5505
3.52400	5570
3.52467	5636
3.52533	5705
3.52600	5777
3.52667	5851
3.52733	5927
3.52800	6006
3.52867	6088
3.52933	6172
3.53000	6258
3.53067	6348
3.53133	6440
3.53200	6534
3.53267	6632
3.53333	6732
3.53400	6834
3.53467	6940
3.53533	7048
3.53600	7159
3.53667	7272
3.53733	7388
3.53800	7506
3.53867	7628
3.53933	7751
3.54000	7878
3.54067	8006
3.54133	8138
3.54200	8271
3.54267	8408
3.54333	8546
3.54400	8688
3.54467	8831
3.54533	8978
3.54600	9126
3.54667	9276
3.54733	9429
3.54800	9583
3.54867	9740
3.54933	9898
3.55000	10058
3.55067	10219
3.55133	10381
3.55200	10545
3.55267	10710
3.55333	10876
3.55400	11042
3.55467	11209
3.55533	11377
3.55600	11545
3.55667	11712
3.55733	11880
3.55800	12048
3.55867	12216
3.55933	12383
3.56000	12551
3.56067	12717
3.56133	12883
3.56200	13048
3.56267	13212
3.56333	13375
3.56400	13537
3.56467	13698
3.56533	13856
3.56600	14014
3.56667	14169
3.56733	14323
3.56800	14474
3.56867	14623
3.56933	14770
3.57000	14914
3.57067	15056
3.57133	15195
3.57200	15331
3.57267	15464
3.57333	15594
3.57400	15721
3.57467	15845
3.57533	15966
3.57600	16083
3.57667	16197
3.57733	16308
3.57800	16415
3.57867	16519
3.57933	16619
3.58000	16716
3.58067	16810
3.58133	16900
3.58200	16986
3.58267	17069
3.58333	17148
3.58400	17224
3.58467	17296
3.58533	17364
3.58600	17429
3.58667	17491
3.58733	17549
3.58800	17604
3.58867	17655
3.58933	17703
3.59000	17747
3.59067	17789
3.59133	17827
3.59200	17862
3.59267	17893
3.59333	17922
3.59400	17947
3.59467	17969
3.59533	17988
3.59600	18005
3.59667	18018
3.59733	18028
3.59800	18036
3.59867	18040
3.59933	18042
3.60000	18042
3.60067	18038
3.60133	18033
3.60200	18025
3.60267	18014
3.60333	18001
3.60400	17986
3.60467	17969
3.60533	17950
3.60600	17929
3.60667	17906
3.60733	17881
3.60800	17854
3.60867	17825
3.60933	17794
3.61000	17762
3.61067	17727
3.61133	17691
3.61200	17653
3.61267	17614
3.61333	17573
3.61400	17530
3.61467	17485
3.61533	17439
3.61600	17391
3.61667	17342
3.61733	17291
3.61800	17238
3.61867	17184
3.61933	17128
3.62000	17071
3.62067	17012
3.62133	16952
3.62200	16890
3.62267	16826
3.62333	16762
3.62400	16695
3.62467	16628
3.62533	16558
3.62600	16488
3.62667	16416
3.62733	16343
3.62800	16268
3.62867	16192
3.62933	16115
3.63000	16036
3.63067	15956
3.63133	15875
3.63200	15792
3.63267	15709
3.63333	15623
3.63400	15537
3.63467	15450
3.63533	15361
3.63600	15271
3.63667	15180
3.63733	15088
3.63800	14995
3.63867	14900
3.63933	14805
3.64000	14709
3.64067	14612
3.64133	14513
3.64200	14414
3.64267	14314
3.64333	14214
3.64400	14112
3.64467	14010
3.64533	13907
3.64600	13803
3.64667	13699
3.64733	13594
3.64800	13489
3.64867	13383
3.64933	13276
3.65000	13170
3.65067	13063
3.65133	12955
3.65200	12848
3.65267	12740
3.65333	12632
3.65400	12524
3.65467	12416
3.65533	12308
3.65600	12200
3.65667	12092
3.65733	11984
3.65800	11876
3.65867	11768
3.65933	11660
3.66000	11553
3.66067	11446
3.66133	11339
3.66200	11233
3.66267	11127
3.66333	11021
3.66400	10916
3.66467	10812
3.66533	10708
3.66600	10605
3.66667	10502
3.66733	10400
3.66800	10299
3.66867	10198
3.66933	10099
3.67000	10000
3.67067	9902
3.67133	9804
3.67200	9708
3.67267	9613
3.67333	9518
3.67400	9424
3.67467	9332
3.67533	9240
3.67600	9149
3.67667	9059
3.67733	8970
3.67800	8882
3.67867	8796
3.67933	8710
3.68000	8625
3.68067	8541
3.68133	8459
3.68200	8377
3.68267	8296
3.68333	8217
3.68400	8138
3.68467	8061
3.68533	7985
3.68600	7909
3.68667	7835
3.68733	7762
3.68800	7690
3.68867	7619
3.68933	7549
3.69000	7480
3.69067	7412
3.69133	7346
3.69200	7280
3.69267	7215
3.69333	7152
3.69400	7089
3.69467	7027
3.69533	6967
3.69600	6907
3.69667	6849
3.69733	6791
3.69800	6735
3.69867	6679
3.69933	6624
3.70000	6571
3.70067	6518
3.70133	6466
3.70200	6415
3.70267	6365
3.70333	6316
3.70400	6268
3.70467	6220
3.70533	6174
3.70600	6128
3.70667	6084
3.70733	6040
3.70800	5997
3.70867	5954
3.70933	5913
3.71000	5872
3.71067	5832
3.71133	5793
3.71200	5755
3.71267	5717
3.71333	5680
3.71400	5644
3.71467	5608
3.71533	5573
3.71600	5538
3.71667	5505
3.71733	5471
3.71800	5439
3.71867	5407
3.71933	5376
3.72000	5345
3.72067	5315
3.72133	5285
3.72200	5256
3.72267	5227
3.72333	5199
3.72400	5172
3.72467	5145
3.72533	5118
3.72600	5093
3.72667	5067
3.72733	5042
3.72800	5018
3.72867	4994
3.72933	4970
3.73000	4947
3.73067	4924
3.73133	4902
3.73200	4880
3.73267	4859
3.73333	4838
3.73400	4817
3.73467	4797
3.73533	4777
3.73600	4757
3.73667	4738
3.73733	4720
3.73800	4701
3.73867	4683
3.73933	4665
3.74000	4648
3.74067	4631
3.74133	4614
3.74200	4598
3.74267	4581
3.74333	4565
3.74400	4550
3.74467	4534
3.74533	4519
3.74600	4505
3.74667	4490
3.74733	4476
3.74800	4461
3.74867	4448
3.74933	4434
3.75000	4420
3.75067	4407
3.75133	4394
3.75200	4381
3.75267	4369
3.75333	4356
3.75400	4344
3.75467	4332
3.75533	4320
3.75600	4309
3.75667	4297
3.75733	4286
3.75800	4275
3.75867	4264
3.75933	4254
3.76000	4243
3.76067	4233
3.76133	4223
3.76200	4213
3.76267	4203
3.76333	4194
3.76400	4184
3.76467	4175
3.76533	4166
3.76600	4157
3.76667	4148
3.76733	4140
3.76800	4131
3.76867	4123
3.76933	4115
3.77000	4107
3.77067	4099
3.77133	4092
3.77200	4084
3.77267	4077
3.77333	4069
3.77400	4062
3.77467	4055
3.77533	4048
3.77600	4041
3.77667	4035
3.77733	4028
3.77800	4022
3.77867	4015
3.77933	4009
3.78000	4003
3.78067	3997
3.78133	3991
3.78200	3985
3.78267	3979
3.78333	3973
3.78400	3967
3.78467	3962
3.78533	3956
3.78600	3951
3.78667	3945
3.78733	3940
3.78800	3935
3.78867	3929
3.78933	3924
3.79000	3919
3.79067	3914
3.79133	3909
3.79200	3904
3.79267	3899
3.79333	3894
3.79400	3890
3.79467	3885
3.79533	3880
3.79600	3875
3.79667	3870
3.79733	3866
3.79800	3861
3.79867	3856
3.79933	3852
3.80000	3847
3.80067	3843
3.80133	3838
3.80200	3834
3.80267	3830
3.80333	3825
3.80400	3821
3.80467	3817
3.80533	3813
3.80600	3809
3.80667	3804
3.80733	3800
3.80800	3796
3.80867	3792
3.80933	3788
3.81000	3784
3.81067	3780
3.81133	3777
3.81200	3773
3.81267	3769
3.81333	3765
3.81400	3761
3.81467	3758
3.81533	3754
3.81600	3750
3.81667	3747
3.81733	3743
3.81800	3739
3.81867	3736
3.81933	3732
3.82000	3729
3.82067	3725
3.82133	3722
3.82200	3719
3.82267	3715
3.82333	3712
3.82400	3709
3.82467	3706
3.82533	3702
3.82600	3699
3.82667	3696
3.82733	3693
3.82800	3690
3.82867	3687
3.82933	3684
3.83000	3681
3.83067	3679
3.83133	3676
3.83200	3673
3.83267	3670
3.83333	3667
3.83400	3665
3.83467	3662
3.83533	3659
3.83600	3657
3.83667	3654
3.83733	3651
3.83800	3649
3.83867	3646
3.83933	3643
3.84000	3640
3.84067	3638
3.84133	3635
3.84200	3633
3.84267	3630
3.84333	3627
3.84400	3625
3.84467	3622
3.84533	3620
3.84600	3617
3.84667	3614
3.84733	3612
3.84800	3609
3.84867	3607
3.84933	3604
3.85000	3602
3.85067	3599
3.85133	3597
3.85200	3595
3.85267	3592
3.85333	3590
3.85400	3588
3.85467	3586
3.85533	3583
3.85600	3581
3.85667	3579
3.85733	3577
3.85800	3575
3.85867	3573
3.85933	3570
3.86000	3568
3.86067	3566
3.86133	3564
3.86200	3562
3.86267	3560
3.86333	3557
3.86400	3555
3.86467	3553
3.86533	3551
3.86600	3549
3.86667	3547
3.86733	3544
3.86800	3542
3.86867	3540
3.86933	3538
3.87000	3536
3.87067	3534
3.87133	3531
3.87200	3529
3.87267	3527
3.87333	3525
3.87400	3523
3.87467	3521
3.87533	3519
3.87600	3517
3.87667	3515
3.87733	3513
3.87800	3511
3.87867	3509
3.87933	3507
3.88000	3506
3.88067	3504
3.88133	3502
3.88200	3500
3.88267	3498
3.88333	3496
3.88400	3494
3.88467	3492
3.88533	3490
3.88600	3488
3.88667	3486
3.88733	3484
3.88800	3482
3.88867	3480
3.88933	3478
3.89000	3477
3.89067	3475
3.89133	3473
3.89200	3471
3.89267	3469
3.89333	3467
3.89400	3465
3.89467	3464
3.89533	3462
3.89600	3460
3.89667	3458
3.89733	3456
3.89800	3454
3.89867	3452
3.89933	3450
3.90000	3448
3.90067	3447
3.90133	3445
3.90200	3443
3.90267	3441
3.90333	3439
3.90400	3438
3.90467	3436
3.90533	3434
3.90600	3432
3.90667	3431
3.90733	3429
3.90800	3427
3.90867	3426
3.90933	3424
3.91000	3422
3.91067	3421
3.91133	3419
3.91200	3417
3.91267	3416
3.91333	3414
3.91400	3412
3.91467	3411
3.91533	3409
3.91600	3408
3.91667	3406
3.91733	3405
3.91800	3403
3.91867	3402
3.91933	3400
3.92000	3399
3.92067	3398
3.92133	3396
3.92200	3395
3.92267	3393
3.92333	3392
3.92400	3390
3.92467	3389
3.92533	3388
3.92600	3386
3.92667	3385
3.92733	3383
3.92800	3382
3.92867	3381
3.92933	3379
3.93000	3378
3.93067	3376
3.93133	3375
3.93200	3374
3.93267	3372
3.93333	3371
3.93400	3370
3.93467	3368
3.93533	3367
3.93600	3366
3.93667	3364
3.93733	3363
3.93800	3362
3.93867	3361
3.93933	3360
3.94000	3358
3.94067	3357
3.94133	3356
3.94200	3355
3.94267	3354
3.94333	3352
3.94400	3351
3.94467	3350
3.94533	3349
3.94600	3348
3.94667	3347
3.94733	3346
3.94800	3345
3.94867	3344
3.94933	3343
3.95000	3342
3.95067	3341
3.95133	3340
3.95200	3339
3.95267	3338
3.95333	3337
3.95400	3336
3.95467	3335
3.95533	3334
3.95600	3332
3.95667	3331
3.95733	3330
3.95800	3329
3.95867	3328
3.95933	3327
3.96000	3326
3.96067	3325
3.96133	3324
3.96200	3323
3.96267	3322
3.96333	3321
3.96400	3320
3.96467	3319
3.96533	3318
3.96600	3317
3.96667	3316
3.96733	3315
3.96800	3314
3.96867	3313
3.96933	3312
3.97000	3311
3.97067	3311
3.97133	3310
3.97200	3309
3.97267	3308
3.97333	3307
3.97400	3306
3.97467	3305
3.97533	3305
3.97600	3304
3.97667	3303
3.97733	3302
3.97800	3301
3.97867	3300
3.97933	3300
3.98000	3299
3.98067	3298
3.98133	3297
3.98200	3296
3.98267	3296
3.98333	3295
3.98400	3294
3.98467	3293
3.98533	3292
3.98600	3292
3.98667	3291
3.98733	3290
3.98800	3289
3.98867	3288
3.98933	3287
3.99000	3286
3.99067	3286
3.99133	3285
3.99200	3284
3.99267	3283
3.99333	3282
3.99400	3282
3.99467	3281
3.99533	3280
3.99600	3280
3.99667	3279
3.99733	3278
3.99800	3278
3.99867	3277
3.99933	3276
4.00000	3276
4.00067	3275
4.00133	3275
4.00200	3274
4.00267	3273
4.00333	3273
4.00400	3272
4.00467	3272
4.00533	3271
4.00600	3271
4.00667	3271
4.00733	3270
4.00800	3270
4.00867	3270
4.00933	3269
4.01000	3269
4.01067	3268
4.01133	3268
4.01200	3267
4.01267	3267
4.01333	3267
4.01400	3266
4.01467	3266
4.01533	3265
4.01600	3265
4.01667	3265
4.01733	3264
4.01800	3264
4.01867	3263
4.01933	3263
4.02000	3263
4.02067	3262
4.02133	3262
4.02200	3262
4.02267	3262
4.02333	3261
4.02400	3261
4.02467	3261
4.02533	3261
4.02600	3261
4.02667	3261
4.02733	3261
4.02800	3261
4.02867	3261
4.02933	3261
4.03000	3261
4.03067	3261
4.03133	3261
4.03200	3261
4.03267	3262
4.03333	3262
4.03400	3262
4.03467	3262
4.03533	3263
4.03600	3263
4.03667	3263
4.03733	3264
4.03800	3264
4.03867	3265
4.03933	3266
4.04000	3266
4.04067	3267
4.04133	3268
4.04200	3269
4.04267	3270
4.04333	3271
4.04400	3272
4.04467	3273
4.04533	3274
4.04600	3276
4.04667	3277
4.04733	3279
4.04800	3280
4.04867	3282
4.04933	3284
4.05000	3286
4.05067	3288
4.05133	3290
4.05200	3292
4.05267	3295
4.05333	3297
4.05400	3300
4.05467	3303
4.05533	3305
4.05600	3308
4.05667	3312
4.05733	3315
4.05800	3318
4.05867	3322
4.05933	3326
4.06000	3329
4.06067	3334
4.06133	3338
4.06200	3342
4.06267	3347
4.06333	3351
4.06400	3356
4.06467	3361
4.06533	3367
4.06600	3372
4.06667	3378
4.06733	3384
4.06800	3390
4.06867	3396
4.06933	3403
4.07000	3410
4.07067	3417
4.07133	3424
4.07200	3431
4.07267	3439
4.07333	3447
4.07400	3455
4.07467	3464
4.07533	3472
4.07600	3481
4.07667	3491
4.07733	3500
4.07800	3510
4.07867	3520
4.07933	3531
4.08000	3541
4.08067	3552
4.08133	3564
4.08200	3575
4.08267	3587
4.08333	3599
4.08400	3612
4.08467	3624
4.08533	3637
4.08600	3651
4.08667	3664
4.08733	3678
4.08800	3692
4.08867	3707
4.08933	3721
4.09000	3736
4.09067	3752
4.09133	3767
4.09200	3783
4.09267	3799
4.09333	3815
4.09400	3832
4.09467	3849
4.09533	3866
4.09600	3883
4.09667	3901
4.09733	3919
4.09800	3937
4.09867	3955
4.09933	3974
4.10000	3992
4.10067	4011
4.10133	4030
4.10200	4049
4.10267	4069
4.10333	4088
4.10400	4108
4.10467	4128
4.10533	4147
4.10600	4167
4.10667	4187
4.10733	4208
4.10800	4228
4.10867	4248
4.10933	4268
4.11000	4288
4.11067	4308
4.11133	4329
4.11200	4349
4.11267	4369
4.11333	4389
4.11400	4408
4.11467	4428
4.11533	4447
4.11600	4467
4.11667	4486
4.11733	4505
4.11800	4524
4.11867	4543
4.11933	4561
4.12000	4580
4.12067	4598
4.12133	4615
4.12200	4633
4.12267	4650
4.12333	4667
4.12400	4684
4.12467	4701
4.12533	4717
4.12600	4732
4.12667	4748
4.12733	4763
4.12800	4778
4.12867	4792
4.12933	4806
4.13000	4819
4.13067	4832
4.13133	4845
4.13200	4857
4.13267	4868
4.13333	4879
4.13400	4890
4.13467	4900
4.13533	4910
4.13600	4919
4.13667	4928
4.13733	4936
4.13800	4944
4.13867	4951
4.13933	4958
4.14000	4964
4.14067	4970
4.14133	4975
4.14200	4979
4.14267	4983
4.14333	4987
4.14400	4990
4.14467	4992
4.14533	4994
4.14600	4996
4.14667	4997
4.14733	4997
4.14800	4997
4.14867	4996
4.14933	4995
4.15000	4994
4.15067	4992
4.15133	4989
4.15200	4987
4.15267	4983
4.15333	4979
4.15400	4975
4.15467	4971
4.15533	4966
4.15600	4960
4.15667	4954
4.15733	4948
4.15800	4942
4.15867	4935
4.15933	4928
4.16000	4921
4.16067	4913
4.16133	4905
4.16200	4897
4.16267	4889
4.16333	4880
4.16400	4871
4.16467	4862
4.16533	4853
4.16600	4843
4.16667	4833
4.16733	4824
4.16800	4814
4.16867	4803
4.16933	4793
4.17000	4783
4.17067	4772
4.17133	4761
4.17200	4750
4.17267	4740
4.17333	4729
4.17400	4717
4.17467	4706
4.17533	4695
4.17600	4684
4.17667	4673
4.17733	4661
4.17800	4650
4.17867	4639
4.17933	4627
4.18000	4616
4.18067	4605
4.18133	4594
4.18200	4582
4.18267	4571
4.18333	4560
4.18400	4549
4.18467	4538
4.18533	4528
4.18600	4517
4.18667	4507
4.18733	4496
4.18800	4486
4.18867	4476
4.18933	4466
4.19000	4457
4.19067	4447
4.19133	4438
4.19200	4429
4.19267	4420
4.19333	4412
4.19400	4404
4.19467	4396
4.19533	4388
4.19600	4380
4.19667	4373
4.19733	4366
4.19800	4360
4.19867	4354
4.19933	4348
4.20000	4343
4.20067	4337
4.20133	4333
4.20200	4328
4.20267	4325
4.20333	4321
4.20400	4318
4.20467	4315
4.20533	4313
4.20600	4312
4.20667	4310
4.20733	4310
4.20800	4310
4.20867	4310
4.20933	4311
4.21000	4313
4.21067	4315
4.21133	4318
4.21200	4322
4.21267	4326
4.21333	4331
4.21400	4337
4.21467	4343
4.21533	4350
4.21600	4358
4.21667	4366
4.21733	4376
4.21800	4386
4.21867	4397
4.21933	4409
4.22000	4421
4.22067	4435
4.22133	4449
4.22200	4464
4.22267	4480
4.22333	4498
4.22400	4516
4.22467	4535
4.22533	4555
4.22600	4576
4.22667	4598
4.22733	4621
4.22800	4645
4.22867	4671
4.22933	4697
4.23000	4725
4.23067	4753
4.23133	4783
4.23200	4814
4.23267	4846
4.23333	4879
4.23400	4914
4.23467	4949
4.23533	4986
4.23600	5024
4.23667	5063
4.23733	5103
4.23800	5145
4.23867	5188
4.23933	5232
4.24000	5277
4.24067	5324
4.24133	5371
4.24200	5421
4.24267	5471
4.24333	5522
4.24400	5575
4.24467	5629
4.24533	5684
4.24600	5741
4.24667	5798
4.24733	5857
4.24800	5917
4.24867	5978
4.24933	6040
4.25000	6104
4.25067	6168
4.25133	6234
4.25200	6300
4.25267	6368
4.25333	6437
4.25400	6507
4.25467	6578
4.25533	6650
4.25600	6723
4.25667	6797
4.25733	6872
4.25800	6947
4.25867	7024
4.25933	7102
4.26000	7180
4.26067	7259
4.26133	7339
4.26200	7420
4.26267	7502
4.26333	7585
4.26400	7668
4.26467	7752
4.26533	7837
4.26600	7922
4.26667	8008
4.26733	8095
4.26800	8182
4.26867	8270
4.26933	8358
4.27000	8447
4.27067	8537
4.27133	8626
4.27200	8716
4.27267	8806
4.27333	8897
4.27400	8988
4.27467	9078
4.27533	9169
4.27600	9260
4.27667	9351
4.27733	9442
4.27800	9533
4.27867	9624
4.27933	9714
4.28000	9804
4.28067	9894
4.28133	9984
4.28200	10074
4.28267	10163
4.28333	10252
4.28400	10340
4.28467	10428
4.28533	10516
4.28600	10603
4.28667	10690
4.28733	10777
4.28800	10862
4.28867	10948
4.28933	11032
4.29000	11116
4.29067	11199
4.29133	11282
4.29200	11363
4.29267	11444
4.29333	11524
4.29400	11604
4.29467	11682
4.29533	11760
4.29600	11837
4.29667	11912
4.29733	11987
4.29800	12061
4.29867	12134
4.29933	12206
4.30000	12277
4.30067	12347
4.30133	12416
4.30200	12484
4.30267	12551
4.30333	12616
4.30400	12681
4.30467	12744
4.30533	12807
4.30600	12868
4.30667	12928
4.30733	12987
4.30800	13045
4.30867	13101
4.30933	13156
4.31000	13210
4.31067	13263
4.31133	13315
4.31200	13365
4.31267	13414
4.31333	13462
4.31400	13508
4.31467	13553
4.31533	13597
4.31600	13639
4.31667	13680
4.31733	13720
4.31800	13758
4.31867	13794
4.31933	13829
4.32000	13863
4.32067	13895
4.32133	13925
4.32200	13954
4.32267	13981
4.32333	14006
4.32400	14030
4.32467	14053
4.32533	14074
4.32600	14093
4.32667	14111
4.32733	14127
4.32800	14141
4.32867	14154
4.32933	14165
4.33000	14175
4.33067	14183
4.33133	14190
4.33200	14195
4.33267	14199
4.33333	14201
4.33400	14201
4.33467	14200
4.33533	14197
4.33600	14193
4.33667	14187
4.33733	14180
4.33800	14171
4.33867	14160
4.33933	14148
4.34000	14134
4.34067	14119
4.34133	14103
4.34200	14085
4.34267	14065
4.34333	14044
4.34400	14022
4.34467	13998
4.34533	13973
4.34600	13947
4.34667	13919
4.34733	13890
4.34800	13860
4.34867	13829
4.34933	13797
4.35000	13763
4.35067	13728
4.35133	13692
4.35200	13655
4.35267	13617
4.35333	13578
4.35400	13537
4.35467	13496
4.35533	13453
4.35600	13410
4.35667	13365
4.35733	13320
4.35800	13273
4.35867	13226
4.35933	13177
4.36000	13128
4.36067	13078
4.36133	13026
4.36200	12975
4.36267	12922
4.36333	12869
4.36400	12814
4.36467	12760
4.36533	12704
4.36600	12648
4.36667	12591
4.36733	12534
4.36800	12476
4.36867	12418
4.36933	12359
4.37000	12300
4.37067	12240
4.37133	12180
4.37200	12120
4.37267	12059
4.37333	11998
4.37400	11936
4.37467	11874
4.37533	11812
4.37600	11750
4.37667	11687
4.37733	11625
4.37800	11562
4.37867	11499
4.37933	11436
4.38000	11373
4.38067	11310
4.38133	11247
4.38200	11184
4.38267	11121
4.38333	11058
4.38400	10995
4.38467	10932
4.38533	10870
4.38600	10807
4.38667	10745
4.38733	10682
4.38800	10620
4.38867	10558
4.38933	10497
4.39000	10435
4.39067	10374
4.39133	10313
4.39200	10252
4.39267	10192
4.39333	10131
4.39400	10071
4.39467	10012
4.39533	9952
4.39600	9893
4.39667	9835
4.39733	9777
4.39800	9719
4.39867	9662
4.39933	9605
4.40000	9548
4.40067	9492
4.40133	9437
4.40200	9382
4.40267	9327
4.40333	9273
4.40400	9220
4.40467	9167
4.40533	9114
4.40600	9063
4.40667	9011
4.40733	8961
4.40800	8911
4.40867	8861
4.40933	8812
4.41000	8764
4.41067	8717
4.41133	8670
4.41200	8623
4.41267	8578
4.41333	8532
4.41400	8488
4.41467	8444
4.41533	8401
4.41600	8358
4.41667	8316
4.41733	8274
4.41800	8234
4.41867	8193
4.41933	8154
4.42000	8115
4.42067	8076
4.42133	8039
4.42200	8002
4.42267	7965
4.42333	7930
4.42400	7895
4.42467	7860
4.42533	7827
4.42600	7794
4.42667	7761
4.42733	7730
4.42800	7699
4.42867	7669
4.42933	7640
4.43000	7611
4.43067	7583
4.43133	7556
4.43200	7529
4.43267	7504
4.43333	7479
4.43400	7454
4.43467	7431
4.43533	7408
4.43600	7386
4.43667	7364
4.43733	7344
4.43800	7324
4.43867	7304
4.43933	7286
4.44000	7268
4.44067	7251
4.44133	7235
4.44200	7220
4.44267	7205
4.44333	7191
4.44400	7178
4.44467	7166
4.44533	7154
4.44600	7143
4.44667	7133
4.44733	7124
4.44800	7116
4.44867	7108
4.44933	7102
4.45000	7096
4.45067	7091
4.45133	7087
4.45200	7083
4.45267	7081
4.45333	7079
4.45400	7078
4.45467	7078
4.45533	7079
4.45600	7081
4.45667	7083
4.45733	7086
4.45800	7090
4.45867	7095
4.45933	7101
4.46000	7107
4.46067	7115
4.46133	7123
4.46200	7132
4.46267	7142
4.46333	7152
4.46400	7164
4.46467	7176
4.46533	7189
4.46600	7203
4.46667	7218
4.46733	7233
4.46800	7249
4.46867	7266
4.46933	7284
4.47000	7302
4.47067	7322
4.47133	7341
4.47200	7362
4.47267	7383
4.47333	7405
4.47400	7427
4.47467	7450
4.47533	7474
4.47600	7498
4.47667	7522
4.47733	7547
4.47800	7573
4.47867	7599
4.47933	7625
4.48000	7652
4.48067	7680
4.48133	7707
4.48200	7736
4.48267	7764
4.48333	7793
4.48400	7822
4.48467	7852
4.48533	7882
4.48600	7912
4.48667	7942
4.48733	7973
4.48800	8004
4.48867	8034
4.48933	8066
4.49000	8097
4.49067	8128
4.49133	8160
4.49200	8191
4.49267	8222
4.49333	8254
4.49400	8285
4.49467	8316
4.49533	8347
4.49600	8378
4.49667	8408
4.49733	8439
4.49800	8469
4.49867	8499
4.49933	8529
4.50000	8558
4.50067	8587
4.50133	8616
4.50200	8644
4.50267	8672
4.50333	8699
4.50400	8726
4.50467	8753
4.50533	8778
4.50600	8804
4.50667	8828
4.50733	8853
4.50800	8876
4.50867	8899
4.50933	8921
4.51000	8943
4.51067	8964
4.51133	8984
4.51200	9003
4.51267	9022
4.51333	9040
4.51400	9057
4.51467	9074
4.51533	9090
4.51600	9105
4.51667	9119
4.51733	9132
4.51800	9145
4.51867	9156
4.51933	9167
4.52000	9177
4.52067	9187
4.52133	9195
4.52200	9203
4.52267	9210
4.52333	9216
4.52400	9221
4.52467	9226
4.52533	9230
4.52600	9232
4.52667	9235
4.52733	9236
4.52800	9236
4.52867	9236
4.52933	9235
4.53000	9233
4.53067	9231
4.53133	9227
4.53200	9223
4.53267	9219
4.53333	9213
4.53400	9207
4.53467	9200
4.53533	9193
4.53600	9184
4.53667	9176
4.53733	9166
4.53800	9156
4.53867	9146
4.53933	9134
4.54000	9123
4.54067	9110
4.54133	9098
4.54200	9084
4.54267	9070
4.54333	9056
4.54400	9041
4.54467	9026
4.54533	9011
4.54600	8995
4.54667	8979
4.54733	8962
4.54800	8945
4.54867	8927
4.54933	8910
4.55000	8891
4.55067	8873
4.55133	8854
4.55200	8835
4.55267	8815
4.55333	8795
4.55400	8775
4.55467	8754
4.55533	8733
4.55600	8712
4.55667	8691
4.55733	8669
4.55800	8647
4.55867	8625
4.55933	8603
4.56000	8581
4.56067	8559
4.56133	8536
4.56200	8514
4.56267	8491
4.56333	8468
4.56400	8446
4.56467	8423
4.56533	8400
4.56600	8377
4.56667	8354
4.56733	8331
4.56800	8308
4.56867	8285
4.56933	8262
4.57000	8239
4.57067	8216
4.57133	8193
4.57200	8170
4.57267	8147
4.57333	8124
4.57400	8101
4.57467	8078
4.57533	8055
4.57600	8033
4.57667	8010
4.57733	7987
4.57800	7964
4.57867	7942
4.57933	7919
4.58000	7896
4.58067	7874
4.58133	7852
4.58200	7829
4.58267	7807
4.58333	7784
4.58400	7762
4.58467	7740
4.58533	7718
4.58600	7696
4.58667	7673
4.58733	7651
4.58800	7629
4.58867	7607
4.58933	7585
4.59000	7564
4.59067	7542
4.59133	7520
4.59200	7498
4.59267	7477
4.59333	7455
4.59400	7434
4.59467	7413
4.59533	7391
4.59600	7370
4.59667	7349
4.59733	7328
4.59800	7307
4.59867	7286
4.59933	7265
4.60000	7245
4.60067	7224
4.60133	7203
4.60200	7183
4.60267	7163
4.60333	7142
4.60400	7122
4.60467	7102
4.60533	7082
4.60600	7062
4.60667	7042
4.60733	7022
4.60800	7003
4.60867	6983
4.60933	6964
4.61000	6945
4.61067	6925
4.61133	6906
4.61200	6887
4.61267	6869
4.61333	6850
4.61400	6831
4.61467	6813
4.61533	6794
4.61600	6776
4.61667	6758
4.61733	6740
4.61800	6722
4.61867	6704
4.61933	6686
4.62000	6668
4.62067	6650
4.62133	6633
4.62200	6615
4.62267	6598
4.62333	6580
4.62400	6563
4.62467	6546
4.62533	6529
4.62600	6512
4.62667	6496
4.62733	6479
4.62800	6463
4.62867	6446
4.62933	6430
4.63000	6414
4.63067	6398
4.63133	6382
4.63200	6366
4.63267	6351
4.63333	6335
4.63400	6320
4.63467	6304
4.63533	6289
4.63600	6274
4.63667	6259
4.63733	6244
4.63800	6229
4.63867	6214
4.63933	6200
4.64000	6185
4.64067	6171
4.64133	6157
4.64200	6143
4.64267	6129
4.64333	6115
4.64400	6101
4.64467	6088
4.64533	6074
4.64600	6061
4.64667	6048
4.64733	6034
4.64800	6021
4.64867	6008
4.64933	5995
4.65000	5983
4.65067	5970
4.65133	5957
4.65200	5945
4.65267	5933
4.65333	5921
4.65400	5908
4.65467	5896
4.65533	5885
4.65600	5873
4.65667	5861
4.65733	5849
4.65800	5838
4.65867	5826
4.65933	5815
4.66000	5804
4.66067	5793
4.66133	5782
4.66200	5771
4.66267	5760
4.66333	5749
4.66400	5738
4.66467	5728
4.66533	5717
4.66600	5707
4.66667	5696
4.66733	5686
4.66800	5676
4.66867	5666
4.66933	5656
4.67000	5646
4.67067	5636
4.67133	5626
4.67200	5616
4.67267	5607
4.67333	5597
4.67400	5588
4.67467	5578
4.67533	5569
4.67600	5560
4.67667	5550
4.67733	5541
4.67800	5532
4.67867	5523
4.67933	5514
4.68000	5506
4.68067	5497
4.68133	5488
4.68200	5480
4.68267	5471
4.68333	5463
4.68400	5455
4.68467	5446
4.68533	5438
4.68600	5430
4.68667	5423
4.68733	5415
4.68800	5407
4.68867	5399
4.68933	5392
4.69000	5384
4.69067	5377
4.69133	5370
4.69200	5362
4.69267	5355
4.69333	5348
4.69400	5341
4.69467	5334
4.69533	5327
4.69600	5320
4.69667	5314
4.69733	5307
4.69800	5300
4.69867	5294
4.69933	5287
4.70000	5281
4.70067	5275
4.70133	5268
4.70200	5262
4.70267	5256
4.70333	5250
4.70400	5244
4.70467	5238
4.70533	5232
4.70600	5226
4.70667	5220
4.70733	5215
4.70800	5209
4.70867	5204
4.70933	5198
4.71000	5193
4.71067	5188
4.71133	5183
4.71200	5177
4.71267	5172
4.71333	5167
4.71400	5162
4.71467	5157
4.71533	5152
4.71600	5147
4.71667	5142
4.71733	5137
4.71800	5133
4.71867	5128
4.71933	5123
4.72000	5118
4.72067	5114
4.72133	5109
4.72200	5104
4.72267	5100
4.72333	5095
4.72400	5091
4.72467	5086
4.72533	5082
4.72600	5077
4.72667	5073
4.72733	5068
4.72800	5064
4.72867	5060
4.72933	5056
4.73000	5051
4.73067	5047
4.73133	5043
4.73200	5039
4.73267	5035
4.73333	5031
4.73400	5027
4.73467	5023
4.73533	5019
4.73600	5015
4.73667	5011
4.73733	5007
4.73800	5004
4.73867	5000
4.73933	4996
4.74000	4992
4.74067	4989
4.74133	4985
4.74200	4982
4.74267	4978
4.74333	4974
4.74400	4971
4.74467	4967
4.74533	4964
4.74600	4960
4.74667	4957
4.74733	4954
4.74800	4950
4.74867	4947
4.74933	4944
4.75000	4941
4.75067	4938
4.75133	4935
4.75200	4932
4.75267	4929
4.75333	4926
4.75400	4923
4.75467	4920
4.75533	4917
4.75600	4914
4.75667	4912
4.75733	4909
4.75800	4906
4.75867	4904
4.75933	4901
4.76000	4899
4.76067	4897
4.76133	4894
4.76200	4892
4.76267	4890
4.76333	4887
4.76400	4885
4.76467	4883
4.76533	4881
4.76600	4879
4.76667	4877
4.76733	4875
4.76800	4873
4.76867	4871
4.76933	4869
4.77000	4867
4.77067	4866
4.77133	4864
4.77200	4862
4.77267	4860
4.77333	4859
4.77400	4857
4.77467	4855
4.77533	4854
4.77600	4852
4.77667	4851
4.77733	4849
4.77800	4848
4.77867	4846
4.77933	4845
4.78000	4843
4.78067	4842
4.78133	4840
4.78200	4839
4.78267	4837
4.78333	4836
4.78400	4834
4.78467	4833
4.78533	4831
4.78600	4830
4.78667	4829
4.78733	4827
4.78800	4826
4.78867	4825
4.78933	4823
4.79000	4822
4.79067	4821
4.79133	4820
4.79200	4819
4.79267	4817
4.79333	4816
4.79400	4815
4.79467	4814
4.79533	4813
4.79600	4811
4.79667	4810
4.79733	4809
4.79800	4808
4.79867	4806
4.79933	4805
4.80000	4804
4.80067	4803
4.80133	4801
4.80200	4800
4.80267	4799
4.80333	4798
4.80400	4797
4.80467	4795
4.80533	4794
4.80600	4793
4.80667	4792
4.80733	4791
4.80800	4789
4.80867	4788
4.80933	4787
4.81000	4786
4.81067	4784
4.81133	4783
4.81200	4782
4.81267	4781
4.81333	4779
4.81400	4778
4.81467	4777
4.81533	4775
4.81600	4774
4.81667	4773
4.81733	4772
4.81800	4770
4.81867	4769
4.81933	4768
4.82000	4766
4.82067	4765
4.82133	4764
4.82200	4762
4.82267	4761
4.82333	4759
4.82400	4758
4.82467	4757
4.82533	4755
4.82600	4754
4.82667	4752
4.82733	4751
4.82800	4749
4.82867	4748
4.82933	4746
4.83000	4744
4.83067	4743
4.83133	4741
4.83200	4739
4.83267	4738
4.83333	4736
4.83400	4734
4.83467	4732
4.83533	4730
4.83600	4729
4.83667	4727
4.83733	4725
4.83800	4723
4.83867	4721
4.83933	4719
4.84000	4718
4.84067	4716
4.84133	4714
4.84200	4712
4.84267	4711
4.84333	4709
4.84400	4707
4.84467	4705
4.84533	4703
4.84600	4702
4.84667	4700
4.84733	4698
4.84800	4696
4.84867	4694
4.84933	4692
4.85000	4690
4.85067	4689
4.85133	4687
4.85200	4685
4.85267	4683
4.85333	4681
4.85400	4679
4.85467	4677
4.85533	4674
4.85600	4672
4.85667	4670
4.85733	4668
4.85800	4666
4.85867	4664
4.85933	4662
4.86000	4660
4.86067	4658
4.86133	4656
4.86200	4654
4.86267	4652
4.86333	4650
4.86400	4647
4.86467	4645
4.86533	4643
4.86600	4641
4.86667	4639
4.86733	4637
4.86800	4635
4.86867	4632
4.86933	4630
4.87000	4628
4.87067	4626
4.87133	4624
4.87200	4622
4.87267	4620
4.87333	4618
4.87400	4616
4.87467	4614
4.87533	4613
4.87600	4611
4.87667	4609
4.87733	4607
4.87800	4605
4.87867	4603
4.87933	4601
4.88000	4599
4.88067	4597
4.88133	4595
4.88200	4593
4.88267	4591
4.88333	4589
4.88400	4587
4.88467	4585
4.88533	4583
4.88600	4581
4.88667	4579
4.88733	4577
4.88800	4576
4.88867	4574
4.88933	4572
4.89000	4570
4.89067	4568
4.89133	4566
4.89200	4564
4.89267	4562
4.89333	4560
4.89400	4559
4.89467	4557
4.89533	4555
4.89600	4553
4.89667	4551
4.89733	4550
4.89800	4548
4.89867	4546
4.89933	4544
4.90000	4543
4.90067	4541
4.90133	4539
4.90200	4538
4.90267	4536
4.90333	4534
4.90400	4533
4.90467	4531
4.90533	4530
4.90600	4528
4.90667	4527
4.90733	4526
4.90800	4524
4.90867	4523
4.90933	4521
4.91000	4520
4.91067	4519
4.91133	4518
4.91200	4516
4.91267	4515
4.91333	4514
4.91400	4513
4.91467	4512
4.91533	4511
4.91600	4510
4.91667	4509
4.91733	4508
4.91800	4508
4.91867	4507
4.91933	4506
4.92000	4505
4.92067	4505
4.92133	4504
4.92200	4504
4.92267	4503
4.92333	4502
4.92400	4502
4.92467	4502
4.92533	4501
4.92600	4501
4.92667	4501
4.92733	4500
4.92800	4500
4.92867	4500
4.92933	4500
4.93000	4500
4.93067	4500
4.93133	4500
4.93200	4500
4.93267	4500
4.93333	4500
4.93400	4501
4.93467	4501
4.93533	4501
4.93600	4501
4.93667	4502
4.93733	4502
4.93800	4503
4.93867	4503
4.93933	4504
4.94000	4505
4.94067	4506
4.94133	4506
4.94200	4507
4.94267	4508
4.94333	4510
4.94400	4511
4.94467	4512
4.94533	4513
4.94600	4515
4.94667	4516
4.94733	4518
4.94800	4520
4.94867	4521
4.94933	4523
4.95000	4525
4.95067	4527
4.95133	4529
4.95200	4531
4.95267	4533
4.95333	4535
4.95400	4538
4.95467	4540
4.95533	4542
4.95600	4545
4.95667	4547
4.95733	4550
4.95800	4553
4.95867	4555
4.95933	4558
4.96000	4561
4.96067	4564
4.96133	4567
4.96200	4570
4.96267	4573
4.96333	4576
4.96400	4579
4.96467	4582
4.96533	4586
4.96600	4589
4.96667	4592
4.96733	4596
4.96800	4599
4.96867	4602
4.96933	4606
4.97000	4610
4.97067	4613
4.97133	4617
4.97200	4621
4.97267	4625
4.97333	4629
4.97400	4633
4.97467	4637
4.97533	4641
4.97600	4645
4.97667	4650
4.97733	4654
4.97800	4658
4.97867	4663
4.97933	4667
4.98000	4672
4.98067	4676
4.98133	4681
4.98200	4685
4.98267	4690
4.98333	4694
4.98400	4699
4.98467	4703
4.98533	4708
4.98600	4712
4.98667	4717
4.98733	4721
4.98800	4725
4.98867	4730
4.98933	4734
4.99000	4738
4.99067	4742
4.99133	4746
4.99200	4750
4.99267	4754
4.99333	4758
4.99400	4762
4.99467	4766
4.99533	4770
4.99600	4773
4.99667	4777
4.99733	4781
4.99800	4784
4.99867	4788
4.99933	4791
5.00000	4794
5.00067	4797
5.00133	4800
5.00200	4804
5.00267	4806
5.00333	4809
5.00400	4812
5.00467	4815
5.00533	4817
5.00600	4820
5.00667	4822
5.00733	4824
5.00800	4826
5.00867	4828
5.00933	4830
5.01000	4832
5.01067	4833
5.01133	4835
5.01200	4836
5.01267	4838
5.01333	4839
5.01400	4840
5.01467	4841
5.01533	4842
5.01600	4843
5.01667	4843
5.01733	4844
5.01800	4844
5.01867	4845
5.01933	4845
5.02000	4845
5.02067	4845
5.02133	4845
5.02200	4845
5.02267	4844
5.02333	4844
5.02400	4843
5.02467	4843
5.02533	4842
5.02600	4841
5.02667	4840
5.02733	4839
5.02800	4838
5.02867	4836
5.02933	4835
5.03000	4834
5.03067	4832
5.03133	4830
5.03200	4829
5.03267	4827
5.03333	4825
5.03400	4823
5.03467	4821
5.03533	4819
5.03600	4816
5.03667	4814
5.03733	4812
5.03800	4809
5.03867	4807
5.03933	4804
5.04000	4802
5.04067	4799
5.04133	4796
5.04200	4793
5.04267	4790
5.04333	4788
5.04400	4784
5.04467	4781
5.04533	4778
5.04600	4775
5.04667	4772
5.04733	4768
5.04800	4765
5.04867	4762
5.04933	4758
5.05000	4755
5.05067	4751
5.05133	4747
5.05200	4744
5.05267	4740
5.05333	4736
5.05400	4733
5.05467	4729
5.05533	4725
5.05600	4721
5.05667	4718
5.05733	4714
5.05800	4710
5.05867	4706
5.05933	4702
5.06000	4699
5.06067	4695
5.06133	4691
5.06200	4687
5.06267	4683
5.06333	4679
5.06400	4676
5.06467	4672
5.06533	4668
5.06600	4664
5.06667	4661
5.06733	4657
5.06800	4653
5.06867	4649
5.06933	4646
5.07000	4642
5.07067	4639
5.07133	4635
5.07200	4631
5.07267	4628
5.07333	4624
5.07400	4621
5.07467	4618
5.07533	4614
5.07600	4611
5.07667	4607
5.07733	4604
5.07800	4600
5.07867	4597
5.07933	4594
5.08000	4591
5.08067	4587
5.08133	4584
5.08200	4581
5.08267	4578
5.08333	4575
5.08400	4572
5.08467	4569
5.08533	4566
5.08600	4563
5.08667	4561
5.08733	4558
5.08800	4555
5.08867	4553
5.08933	4550
5.09000	4548
5.09067	4545
5.09133	4543
5.09200	4541
5.09267	4539
5.09333	4536
5.09400	4534
5.09467	4532
5.09533	4531
5.09600	4529
5.09667	4527
5.09733	4525
5.09800	4524
5.09867	4522
5.09933	4521
5.10000	4520
5.10067	4518
5.10133	4517
5.10200	4516
5.10267	4515
5.10333	4514
5.10400	4513
5.10467	4513
5.10533	4512
5.10600	4511
5.10667	4511
5.10733	4510
5.10800	4510
5.10867	4509
5.10933	4509
5.11000	4509
5.11067	4509
5.11133	4509
5.11200	4508
5.11267	4508
5.11333	4508
5.11400	4509
5.11467	4509
5.11533	4509
5.11600	4510
5.11667	4510
5.11733	4511
5.11800	4511
5.11867	4512
5.11933	4513
5.12000	4514
5.12067	4515
5.12133	4516
5.12200	4518
5.12267	4519
5.12333	4521
5.12400	4522
5.12467	4524
5.12533	4526
5.12600	4527
5.12667	4529
5.12733	4531
5.12800	4534
5.12867	4536
5.12933	4538
5.13000	4540
5.13067	4543
5.13133	4545
5.13200	4548
5.13267	4551
5.13333	4554
5.13400	4557
5.13467	4560
5.13533	4563
5.13600	4566
5.13667	4570
5.13733	4573
5.13800	4577
5.13867	4581
5.13933	4585
5.14000	4588
5.14067	4592
5.14133	4597
5.14200	4601
5.14267	4605
5.14333	4609
5.14400	4614
5.14467	4618
5.14533	4623
5.14600	4628
5.14667	4632
5.14733	4637
5.14800	4642
5.14867	4647
5.14933	4653
5.15000	4658
5.15067	4663
5.15133	4669
5.15200	4675
5.15267	4681
5.15333	4686
5.15400	4692
5.15467	4698
5.15533	4705
5.15600	4711
5.15667	4717
5.15733	4724
5.15800	4730
5.15867	4737
5.15933	4744
5.16000	4751
5.16067	4758
5.16133	4765
5.16200	4772
5.16267	4779
5.16333	4786
5.16400	4793
5.16467	4801
5.16533	4808
5.16600	4816
5.16667	4824
5.16733	4831
5.16800	4839
5.16867	4847
5.16933	4855
5.17000	4863
5.17067	4871
5.17133	4879
5.17200	4887
5.17267	4895
5.17333	4903
5.17400	4911
5.17467	4920
5.17533	4928
5.17600	4936
5.17667	4944
5.17733	4953
5.17800	4961
5.17867	4969
5.17933	4977
5.18000	4986
5.18067	4994
5.18133	5002
5.18200	5010
5.18267	5018
5.18333	5026
5.18400	5034
5.18467	5042
5.18533	5050
5.18600	5058
5.18667	5066
5.18733	5074
5.18800	5082
5.18867	5090
5.18933	5098
5.19000	5106
5.19067	5113
5.19133	5121
5.19200	5129
5.19267	5136
5.19333	5144
5.19400	5151
5.19467	5158
5.19533	5165
5.19600	5172
5.19667	5179
5.19733	5186
5.19800	5193
5.19867	5200
5.19933	5206
5.20000	5213
5.20067	5219
5.20133	5226
5.20200	5232
5.20267	5238
5.20333	5244
5.20400	5250
5.20467	5256
5.20533	5261
5.20600	5267
5.20667	5272
5.20733	5277
5.20800	5282
5.20867	5287
5.20933	5291
5.21000	5296
5.21067	5300
5.21133	5304
5.21200	5308
5.21267	5312
5.21333	5315
5.21400	5319
5.21467	5322
5.21533	5325
5.21600	5328
5.21667	5330
5.21733	5333
5.21800	5335
5.21867	5337
5.21933	5338
5.22000	5340
5.22067	5341
5.22133	5342
5.22200	5343
5.22267	5343
5.22333	5344
5.22400	5344
5.22467	5344
5.22533	5344
5.22600	5344
5.22667	5343
5.22733	5342
5.22800	5341
5.22867	5340
5.22933	5339
5.23000	5337
5.23067	5335
5.23133	5333
5.23200	5331
5.23267	5329
5.23333	5327
5.23400	5324
5.23467	5321
5.23533	5318
5.23600	5315
5.23667	5312
5.23733	5308
5.23800	5304
5.23867	5301
5.23933	5297
5.24000	5292
5.24067	5288
5.24133	5284
5.24200	5279
5.24267	5274
5.24333	5269
5.24400	5264
5.24467	5259
5.24533	5253
5.24600	5248
5.24667	5242
5.24733	5236
5.24800	5230
5.24867	5224
5.24933	5218
5.25000	5212
5.25067	5206
5.25133	5199
5.25200	5193
5.25267	5186
5.25333	5179
5.25400	5173
5.25467	5166
5.25533	5159
5.25600	5152
5.25667	5145
5.25733	5138
5.25800	5131
5.25867	5124
5.25933	5117
5.26000	5110
5.26067	5102
5.26133	5095
5.26200	5088
5.26267	5080
5.26333	5073
5.26400	5066
5.26467	5058
5.26533	5051
5.26600	5043
5.26667	5036
5.26733	5028
5.26800	5021
5.26867	5013
5.26933	5006
5.27000	4998
5.27067	4991
5.27133	4983
5.27200	4975
5.27267	4968
5.27333	4960
5.27400	4953
5.27467	4945
5.27533	4938
5.27600	4930
5.27667	4923
5.27733	4915
5.27800	4908
5.27867	4900
5.27933	4893
5.28000	4885
5.28067	4878
5.28133	4870
5.28200	4863
5.28267	4855
5.28333	4848
5.28400	4841
5.28467	4833
5.28533	4826
5.28600	4819
5.28667	4812
5.28733	4805
5.28800	4798
5.28867	4790
5.28933	4783
5.29000	4776
5.29067	4770
5.29133	4763
5.29200	4756
5.29267	4749
5.29333	4743
5.29400	4736
5.29467	4729
5.29533	4723
5.29600	4716
5.29667	4710
5.29733	4704
5.29800	4697
5.29867	4691
5.29933	4685
5.30000	4679
5.30067	4673
5.30133	4667
5.30200	4661
5.30267	4655
5.30333	4649
5.30400	4644
5.30467	4638
5.30533	4632
5.30600	4627
5.30667	4621
5.30733	4616
5.30800	4611
5.30867	4606
5.30933	4600
5.31000	4595
5.31067	4590
5.31133	4585
5.31200	4581
5.31267	4576
5.31333	4571
5.31400	4566
5.31467	4562
5.31533	4558
5.31600	4553
5.31667	4549
5.31733	4545
5.31800	4540
5.31867	4536
5.31933	4532
5.32000	4528
5.32067	4525
5.32133	4521
5.32200	4517
5.32267	4513
5.32333	4510
5.32400	4506
5.32467	4503
5.32533	4499
5.32600	4496
5.32667	4493
5.32733	4490
5.32800	4486
5.32867	4483
5.32933	4480
5.33000	4477
5.33067	4474
5.33133	4471
5.33200	4468
5.33267	4465
5.33333	4463
5.33400	4460
5.33467	4457
5.33533	4455
5.33600	4452
5.33667	4450
5.33733	4447
5.33800	4445
5.33867	4443
5.33933	4441
5.34000	4439
5.34067	4437
5.34133	4435
5.34200	4433
5.34267	4431
5.34333	4429
5.34400	4427
5.34467	4425
5.34533	4423
5.34600	4421
5.34667	4420
5.34733	4418
5.34800	4416
5.34867	4415
5.34933	4413
5.35000	4412
5.35067	4410
5.35133	4409
5.35200	4408
5.35267	4406
5.35333	4405
5.35400	4404
5.35467	4403
5.35533	4402
5.35600	4401
5.35667	4399
5.35733	4398
5.35800	4398
5.35867	4397
5.35933	4396
5.36000	4395
5.36067	4394
5.36133	4393
5.36200	4392
5.36267	4392
5.36333	4391
5.36400	4390
5.36467	4390
5.36533	4389
5.36600	4389
5.36667	4388
5.36733	4388
5.36800	4387
5.36867	4386
5.36933	4386
5.37000	4385
5.37067	4385
5.37133	4384
5.37200	4384
5.37267	4383
5.37333	4383
5.37400	4382
5.37467	4382
5.37533	4381
5.37600	4381
5.37667	4380
5.37733	4380
5.37800	4379
5.37867	4379
5.37933	4378
5.38000	4378
5.38067	4378
5.38133	4377
5.38200	4377
5.38267	4376
5.38333	4376
5.38400	4376
5.38467	4375
5.38533	4375
5.38600	4375
5.38667	4374
5.38733	4374
5.38800	4374
5.38867	4373
5.38933	4373
5.39000	4373
5.39067	4372
5.39133	4372
5.39200	4372
5.39267	4371
5.39333	4371
5.39400	4370
5.39467	4370
5.39533	4369
5.39600	4369
5.39667	4369
5.39733	4368
5.39800	4368
5.39867	4367
5.39933	4367
5.40000	4366
5.40067	4365
5.40133	4365
5.40200	4364
5.40267	4364
5.40333	4363
5.40400	4363
5.40467	4362
5.40533	4361
5.40600	4361
5.40667	4360
5.40733	4359
5.40800	4359
5.40867	4358
5.40933	4357
5.41000	4356
5.41067	4355
5.41133	4354
5.41200	4354
5.41267	4353
5.41333	4352
5.41400	4351
5.41467	4350
5.41533	4349
5.41600	4348
5.41667	4347
5.41733	4345
5.41800	4344
5.41867	4343
5.41933	4342
5.42000	4340
5.42067	4339
5.42133	4338
5.42200	4337
5.42267	4335
5.42333	4334
5.42400	4333
5.42467	4332
5.42533	4330
5.42600	4329
5.42667	4327
5.42733	4326
5.42800	4325
5.42867	4323
5.42933	4322
5.43000	4320
5.43067	4319
5.43133	4318
5.43200	4316
5.43267	4315
5.43333	4313
5.43400	4312
5.43467	4310
5.43533	4308
5.43600	4307
5.43667	4305
5.43733	4304
5.43800	4302
5.43867	4300
5.43933	4299
5.44000	4297
5.44067	4295
5.44133	4293
5.44200	4292
5.44267	4290
5.44333	4288
5.44400	4286
5.44467	4284
5.44533	4283
5.44600	4281
5.44667	4279
5.44733	4277
5.44800	4275
5.44867	4273
5.44933	4271
5.45000	4269
5.45067	4267
5.45133	4265
5.45200	4263
5.45267	4261
5.45333	4259
5.45400	4257
5.45467	4255
5.45533	4253
5.45600	4251
5.45667	4249
5.45733	4247
5.45800	4245
5.45867	4243
5.45933	4241
5.46000	4239
5.46067	4237
5.46133	4236
5.46200	4234
5.46267	4232
5.46333	4230
5.46400	4229
5.46467	4227
5.46533	4225
5.46600	4223
5.46667	4222
5.46733	4220
5.46800	4218
5.46867	4217
5.46933	4215
5.47000	4213
5.47067	4212
5.47133	4210
5.47200	4209
5.47267	4207
5.47333	4205
5.47400	4204
5.47467	4202
5.47533	4201
5.47600	4199
5.47667	4198
5.47733	4197
5.47800	4195
5.47867	4194
5.47933	4193
5.48000	4191
5.48067	4190
5.48133	4189
5.48200	4188
5.48267	4187
5.48333	4186
5.48400	4185
5.48467	4184
5.48533	4183
5.48600	4182
5.48667	4181
5.48733	4181
5.48800	4180
5.48867	4179
5.48933	4179
5.49000	4178
5.49067	4177
5.49133	4177
5.49200	4177
5.49267	4176
5.49333	4176
5.49400	4176
5.49467	4175
5.49533	4175
5.49600	4175
5.49667	4175
5.49733	4175
5.49800	4175
5.49867	4175
5.49933	4175
5.50000	4176
5.50067	4176
5.50133	4176
5.50200	4177
5.50267	4177
5.50333	4178
5.50400	4179
5.50467	4179
5.50533	4180
5.50600	4181
5.50667	4182
5.50733	4184
5.50800	4185
5.50867	4186
5.50933	4188
5.51000	4189
5.51067	4191
5.51133	4193
5.51200	4195
5.51267	4197
5.51333	4199
5.51400	4201
5.51467	4203
5.51533	4206
5.51600	4208
5.51667	4211
5.51733	4214
5.51800	4217
5.51867	4220
5.51933	4223
5.52000	4227
5.52067	4230
5.52133	4234
5.52200	4237
5.52267	4241
5.52333	4245
5.52400	4249
5.52467	4253
5.52533	4258
5.52600	4262
5.52667	4267
5.52733	4271
5.52800	4276
5.52867	4281
5.52933	4286
5.53000	4292
5.53067	4297
5.53133	4302
5.53200	4308
5.53267	4314
5.53333	4320
5.53400	4326
5.53467	4333
5.53533	4339
5.53600	4346
5.53667	4353
5.53733	4360
5.53800	4367
5.53867	4375
5.53933	4382
5.54000	4390
5.54067	4398
5.54133	4406
5.54200	4414
5.54267	4423
5.54333	4432
5.54400	4441
5.54467	4450
5.54533	4459
5.54600	4468
5.54667	4478
5.54733	4487
5.54800	4497
5.54867	4507
5.54933	4517
5.55000	4528
5.55067	4538
5.55133	4549
5.55200	4560
5.55267	4571
5.55333	4582
5.55400	4593
5.55467	4604
5.55533	4616
5.55600	4628
5.55667	4639
5.55733	4652
5.55800	4664
5.55867	4676
5.55933	4689
5.56000	4701
5.56067	4714
5.56133	4727
5.56200	4740
5.56267	4754
5.56333	4767
5.56400	4781
5.56467	4794
5.56533	4808
5.56600	4822
5.56667	4836
5.56733	4850
5.56800	4864
5.56867	4879
5.56933	4893
5.57000	4908
5.57067	4922
5.57133	4937
5.57200	4952
5.57267	4966
5.57333	4981
5.57400	4996
5.57467	5011
5.57533	5027
5.57600	5042
5.57667	5057
5.57733	5072
5.57800	5088
5.57867	5103
5.57933	5118
5.58000	5134
5.58067	5149
5.58133	5165
5.58200	5180
5.58267	5195
5.58333	5211
5.58400	5226
5.58467	5241
5.58533	5257
5.58600	5272
5.58667	5287
5.58733	5302
5.58800	5317
5.58867	5332
5.58933	5347
5.59000	5362
5.59067	5377
5.59133	5392
5.59200	5406
5.59267	5421
5.59333	5435
5.59400	5449
5.59467	5463
5.59533	5477
5.59600	5491
5.59667	5505
5.59733	5519
5.59800	5532
5.59867	5546
5.59933	5559
5.60000	5572
5.60067	5585
5.60133	5598
5.60200	5610
5.60267	5622
5.60333	5635
5.60400	5647
5.60467	5659
5.60533	5670
5.60600	5682
5.60667	5693
5.60733	5704
5.60800	5715
5.60867	5726
5.60933	5736
5.61000	5747
5.61067	5757
5.61133	5767
5.61200	5776
5.61267	5786
5.61333	5795
5.61400	5804
5.61467	5813
5.61533	5822
5.61600	5830
5.61667	5839
5.61733	5847
5.61800	5854
5.61867	5862
5.61933	5869
5.62000	5876
5.62067	5883
5.62133	5890
5.62200	5896
5.62267	5902
5.62333	5908
5.62400	5913
5.62467	5919
5.62533	5924
5.62600	5929
5.62667	5933
5.62733	5938
5.62800	5942
5.62867	5946
5.62933	5949
5.63000	5952
5.63067	5956
5.63133	5958
5.63200	5961
5.63267	5963
5.63333	5965
5.63400	5967
5.63467	5969
5.63533	5970
5.63600	5972
5.63667	5973
5.63733	5974
5.63800	5974
5.63867	5975
5.63933	5975
5.64000	5976
5.64067	5975
5.64133	5975
5.64200	5975
5.64267	5974
5.64333	5973
5.64400	5972
5.64467	5971
5.64533	5970
5.64600	5969
5.64667	5967
5.64733	5965
5.64800	5963
5.64867	5961
5.64933	5959
5.65000	5957
5.65067	5954
5.65133	5952
5.65200	5949
5.65267	5946
5.65333	5943
5.65400	5940
5.65467	5936
5.65533	5933
5.65600	5929
5.65667	5925
5.65733	5921
5.65800	5917
5.65867	5913
5.65933	5909
5.66000	5904
5.66067	5900
5.66133	5895
5.66200	5890
5.66267	5885
5.66333	5880
5.66400	5875
5.66467	5870
5.66533	5865
5.66600	5860
5.66667	5854
5.66733	5848
5.66800	5843
5.66867	5837
5.66933	5831
5.67000	5825
5.67067	5819
5.67133	5813
5.67200	5807
5.67267	5801
5.67333	5794
5.67400	5788
5.67467	5782
5.67533	5775
5.67600	5769
5.67667	5762
5.67733	5756
5.67800	5749
5.67867	5743
5.67933	5736
5.68000	5729
5.68067	5722
5.68133	5716
5.68200	5709
5.68267	5702
5.68333	5695
5.68400	5688
5.68467	5681
5.68533	5675
5.68600	5668
5.68667	5661
5.68733	5654
5.68800	5647
5.68867	5640
5.68933	5633
5.69000	5626
5.69067	5619
5.69133	5612
5.69200	5605
5.69267	5598
5.69333	5590
5.69400	5583
5.69467	5576
5.69533	5569
5.69600	5562
5.69667	5555
5.69733	5548
5.69800	5542
5.69867	5535
5.69933	5528
5.70000	5521
5.70067	5514
5.70133	5507
5.70200	5500
5.70267	5493
5.70333	5487
5.70400	5480
5.70467	5473
5.70533	5466
5.70600	5460
5.70667	5453
5.70733	5446
5.70800	5440
5.70867	5433
5.70933	5427
5.71000	5420
5.71067	5413
5.71133	5407
5.71200	5400
5.71267	5394
5.71333	5387
5.71400	5381
5.71467	5374
5.71533	5368
5.71600	5361
5.71667	5355
5.71733	5349
5.71800	5342
5.71867	5336
5.71933	5329
5.72000	5323
5.72067	5317
5.72133	5310
5.72200	5304
5.72267	5298
5.72333	5292
5.72400	5285
5.72467	5279
5.72533	5273
5.72600	5267
5.72667	5261
5.72733	5255
5.72800	5249
5.72867	5242
5.72933	5236
5.73000	5230
5.73067	5224
5.73133	5218
5.73200	5213
5.73267	5207
5.73333	5201
5.73400	5195
5.73467	5189
5.73533	5183
5.73600	5178
5.73667	5172
5.73733	5166
5.73800	5161
5.73867	5155
5.73933	5150
5.74000	5144
5.74067	5139
5.74133	5134
5.74200	5128
5.74267	5123
5.74333	5118
5.74400	5112
5.74467	5107
5.74533	5102
5.74600	5097
5.74667	5092
5.74733	5087
5.74800	5083
5.74867	5078
5.74933	5073
5.75000	5068
5.75067	5064
5.75133	5059
5.75200	5054
5.75267	5050
5.75333	5045
5.75400	5041
5.75467	5037
5.75533	5032
5.75600	5028
5.75667	5024
5.75733	5019
5.75800	5015
5.75867	5011
5.75933	5007
5.76000	5003
5.76067	4999
5.76133	4995
5.76200	4991
5.76267	4987
5.76333	4983
5.76400	4979
5.76467	4975
5.76533	4971
5.76600	4967
5.76667	4964
5.76733	4960
5.76800	4956
5.76867	4953
5.76933	4949
5.77000	4945
5.77067	4942
5.77133	4938
5.77200	4935
5.77267	4931
5.77333	4928
5.77400	4924
5.77467	4921
5.77533	4918
5.77600	4914
5.77667	4911
5.77733	4908
5.77800	4905
5.77867	4902
5.77933	4899
5.78000	4896
5.78067	4893
5.78133	4890
5.78200	4887
5.78267	4884
5.78333	4881
5.78400	4878
5.78467	4876
5.78533	4873
5.78600	4870
5.78667	4868
5.78733	4865
5.78800	4863
5.78867	4860
5.78933	4857
5.79000	4855
5.79067	4852
5.79133	4850
5.79200	4848
5.79267	4845
5.79333	4843
5.79400	4841
5.79467	4838
5.79533	4836
5.79600	4834
5.79667	4832
5.79733	4829
5.79800	4827
5.79867	4825
5.79933	4823
5.80000	4821
5.80067	4819
5.80133	4817
5.80200	4815
5.80267	4813
5.80333	4811
5.80400	4809
5.80467	4807
5.80533	4806
5.80600	4804
5.80667	4802
5.80733	4800
5.80800	4799
5.80867	4797
5.80933	4796
5.81000	4794
5.81067	4792
5.81133	4791
5.81200	4789
5.81267	4788
5.81333	4787
5.81400	4785
5.81467	4784
5.81533	4782
5.81600	4781
5.81667	4780
5.81733	4778
5.81800	4777
5.81867	4776
5.81933	4775
5.82000	4774
5.82067	4773
5.82133	4771
5.82200	4770
5.82267	4769
5.82333	4768
5.82400	4767
5.82467	4766
5.82533	4765
5.82600	4764
5.82667	4763
5.82733	4762
5.82800	4761
5.82867	4760
5.82933	4760
5.83000	4759
5.83067	4758
5.83133	4757
5.83200	4756
5.83267	4756
5.83333	4755
5.83400	4754
5.83467	4753
5.83533	4752
5.83600	4752
5.83667	4751
5.83733	4750
5.83800	4750
5.83867	4749
5.83933	4748
5.84000	4748
5.84067	4747
5.84133	4746
5.84200	4746
5.84267	4745
5.84333	4744
5.84400	4744
5.84467	4743
5.84533	4742
5.84600	4741
5.84667	4741
5.84733	4740
5.84800	4739
5.84867	4739
5.84933	4738
5.85000	4738
5.85067	4737
5.85133	4736
5.85200	4736
5.85267	4735
5.85333	4734
5.85400	4734
5.85467	4733
5.85533	4733
5.85600	4732
5.85667	4732
5.85733	4732
5.85800	4731
5.85867	4731
5.85933	4731
5.86000	4730
5.86067	4730
5.86133	4730
5.86200	4730
5.86267	4729
5.86333	4729
5.86400	4729
5.86467	4729
5.86533	4728
5.86600	4728
5.86667	4728
5.86733	4728
5.86800	4727
5.86867	4727
5.86933	4727
5.87000	4727
5.87067	4726
5.87133	4726
5.87200	4726
5.87267	4725
5.87333	4725
5.87400	4725
5.87467	4725
5.87533	4724
5.87600	4724
5.87667	4724
5.87733	4723
5.87800	4723
5.87867	4722
5.87933	4722
5.88000	4721
5.88067	4720
5.88133	4720
5.88200	4719
5.88267	4718
5.88333	4718
5.88400	4717
5.88467	4716
5.88533	4716
5.88600	4715
5.88667	4714
5.88733	4713
5.88800	4713
5.88867	4712
5.88933	4711
5.89000	4710
5.89067	4709
5.89133	4709
5.89200	4708
5.89267	4707
5.89333	4706
5.89400	4705
5.89467	4705
5.89533	4704
5.89600	4703
5.89667	4702
5.89733	4701
5.89800	4700
5.89867	4700
5.89933	4699
5.90000	4698
5.90067	4697
5.90133	4696
5.90200	4695
5.90267	4694
5.90333	4693
5.90400	4692
5.90467	4691
5.90533	4690
5.90600	4689
5.90667	4688
5.90733	4687
5.90800	4686
5.90867	4685
5.90933	4684
5.91000	4683
5.91067	4682
5.91133	4681
5.91200	4679
5.91267	4678
5.91333	4677
5.91400	4676
5.91467	4675
5.91533	4674
5.91600	4672
5.91667	4671
5.91733	4670
5.91800	4669
5.91867	4668
5.91933	4667
5.92000	4666
5.92067	4665
5.92133	4664
5.92200	4663
5.92267	4662
5.92333	4661
5.92400	4659
5.92467	4658
5.92533	4657
5.92600	4656
5.92667	4655
5.92733	4654
5.92800	4653
5.92867	4652
5.92933	4651
5.93000	4650
5.93067	4649
5.93133	4648
5.93200	4646
5.93267	4645
5.93333	4644
5.93400	4643
5.93467	4642
5.93533	4641
5.93600	4640
5.93667	4639
5.93733	4637
5.93800	4636
5.93867	4635
5.93933	4634
5.94000	4633
5.94067	4632
5.94133	4631
5.94200	4630
5.94267	4629
5.94333	4628
5.94400	4627
5.94467	4626
5.94533	4625
5.94600	4624
5.94667	4623
5.94733	4622
5.94800	4621
5.94867	4620
5.94933	4618
5.95000	4617
5.95067	4616
5.95133	4615
5.95200	4614
5.95267	4613
5.95333	4612
5.95400	4611
5.95467	4610
5.95533	4610
5.95600	4609
5.95667	4608
5.95733	4607
5.95800	4606
5.95867	4605
5.95933	4604
5.96000	4603
5.96067	4602
5.96133	4602
5.96200	4601
5.96267	4600
5.96333	4599
5.96400	4598
5.96467	4597
5.96533	4597
5.96600	4596
5.96667	4595
5.96733	4595
5.96800	4594
5.96867	4593
5.96933	4593
5.97000	4592
5.97067	4591
5.97133	4591
5.97200	4590
5.97267	4589
5.97333	4589
5.97400	4588
5.97467	4588
5.97533	4587
5.97600	4586
5.97667	4586
5.97733	4585
5.97800	4585
5.97867	4584
5.97933	4583
5.98000	4583
5.98067	4582
5.98133	4582
5.98200	4581
5.98267	4580
5.98333	4580
5.98400	4579
5.98467	4579
5.98533	4578
5.98600	4578
5.98667	4577
5.98733	4577
5.98800	4577
5.98867	4576
5.98933	4576
5.99000	4575
5.99067	4575
5.99133	4574
5.99200	4574
5.99267	4573
5.99333	4573
5.99400	4572
5.99467	4572
5.99533	4571
5.99600	4571
5.99667	4570
5.99733	4570
5.99800	4569
5.99867	4569
5.99933	4569
6.00000	4568
6.00067	4568
6.00133	4567
6.00200	4566
6.00267	4566
6.00333	4565
6.00400	4565
6.00467	4564
6.00533	4564
6.00600	4563
6.00667	4563
6.00733	4562
6.00800	4562
6.00867	4561
6.00933	4561
6.01000	4560
6.01067	4560
6.01133	4559
6.01200	4559
6.01267	4558
6.01333	4558
6.01400	4558
6.01467	4557
6.01533	4557
6.01600	4556
6.01667	4556
6.01733	4555
6.01800	4555
6.01867	4555
6.01933	4554
6.02000	4554
6.02067	4554
6.02133	4553
6.02200	4553
6.02267	4552
6.02333	4552
6.02400	4552
6.02467	4551
6.02533	4551
6.02600	4551
6.02667	4550
6.02733	4550
6.02800	4550
6.02867	4549
6.02933	4549
6.03000	4549
6.03067	4548
6.03133	4548
6.03200	4548
6.03267	4548
6.03333	4548
6.03400	4547
6.03467	4547
6.03533	4547
6.03600	4547
6.03667	4547
6.03733	4547
6.03800	4547
6.03867	4547
6.03933	4547
6.04000	4547
6.04067	4547
6.04133	4548
6.04200	4548
6.04267	4548
6.04333	4548
6.04400	4548
6.04467	4548
6.04533	4548
6.04600	4548
6.04667	4549
6.04733	4549
6.04800	4549
6.04867	4549
6.04933	4549
6.05000	4549
6.05067	4550
6.05133	4550
6.05200	4550
6.05267	4550
6.05333	4551
6.05400	4551
6.05467	4551
6.05533	4551
6.05600	4551
6.05667	4551
6.05733	4552
6.05800	4552
6.05867	4552
6.05933	4552
6.06000	4552
6.06067	4553
6.06133	4553
6.06200	4553
6.06267	4554
6.06333	4554
6.06400	4554
6.06467	4554
6.06533	4555
6.06600	4555
6.06667	4555
6.06733	4555
6.06800	4555
6.06867	4556
6.06933	4556
6.07000	4556
6.07067	4557
6.07133	4557
6.07200	4557
6.07267	4557
6.07333	4557
6.07400	4558
6.07467	4558
6.07533	4558
6.07600	4559
6.07667	4559
6.07733	4559
6.07800	4559
6.07867	4559
6.07933	4560
6.08000	4560
6.08067	4560
6.08133	4560
6.08200	4561
6.08267	4561
6.08333	4561
6.08400	4561
6.08467	4561
6.08533	4561
6.08600	4561
6.08667	4561
6.08733	4562
6.08800	4562
6.08867	4562
6.08933	4562
6.09000	4562
6.09067	4562
6.09133	4562
6.09200	4562
6.09267	4563
6.09333	4563
6.09400	4563
6.09467	4563
6.09533	4563
6.09600	4563
6.09667	4563
6.09733	4564
6.09800	4564
6.09867	4564
6.09933	4564
6.10000	4564
6.10067	4564
6.10133	4564
6.10200	4564
6.10267	4564
6.10333	4564
6.10400	4564
6.10467	4564
6.10533	4564
6.10600	4564
6.10667	4563
6.10733	4563
6.10800	4563
6.10867	4563
6.10933	4562
6.11000	4562
6.11067	4562
6.11133	4561
6.11200	4561
6.11267	4561
6.11333	4560
6.11400	4560
6.11467	4559
6.11533	4559
6.11600	4558
6.11667	4558
6.11733	4557
6.11800	4557
6.11867	4556
6.11933	4555
6.12000	4555
6.12067	4554
6.12133	4553
6.12200	4553
6.12267	4552
6.12333	4551
6.12400	4550
6.12467	4549
6.12533	4548
6.12600	4547
6.12667	4547
6.12733	4545
6.12800	4544
6.12867	4543
6.12933	4542
6.13000	4541
6.13067	4540
6.13133	4539
6.13200	4538
6.13267	4537
6.13333	4536
6.13400	4534
6.13467	4533
6.13533	4532
6.13600	4531
6.13667	4529
6.13733	4528
6.13800	4527
6.13867	4526
6.13933	4524
6.14000	4523
6.14067	4522
6.14133	4520
6.14200	4519
6.14267	4518
6.14333	4516
6.14400	4515
6.14467	4514
6.14533	4513
6.14600	4511
6.14667	4510
6.14733	4508
6.14800	4507
6.14867	4506
6.14933	4505
6.15000	4503
6.15067	4502
6.15133	4500
6.15200	4499
6.15267	4498
6.15333	4496
6.15400	4495
6.15467	4493
6.15533	4492
6.15600	4490
6.15667	4489
6.15733	4487
6.15800	4486
6.15867	4484
6.15933	4483
6.16000	4482
6.16067	4480
6.16133	4479
6.16200	4477
6.16267	4476
6.16333	4474
6.16400	4473
6.16467	4471
6.16533	4470
6.16600	4468
6.16667	4467
6.16733	4465
6.16800	4464
6.16867	4462
6.16933	4461
6.17000	4460
6.17067	4458
6.17133	4457
6.17200	4455
6.17267	4454
6.17333	4452
6.17400	4451
6.17467	4450
6.17533	4448
6.17600	4447
6.17667	4445
6.17733	4444
6.17800	4443
6.17867	4441
6.17933	4440
6.18000	4439
6.18067	4438
6.18133	4436
6.18200	4435
6.18267	4434
6.18333	4433
6.18400	4431
6.18467	4430
6.18533	4429
6.18600	4428
6.18667	4427
6.18733	4426
6.18800	4425
6.18867	4424
6.18933	4423
6.19000	4422
6.19067	4421
6.19133	4420
6.19200	4419
6.19267	4418
6.19333	4417
6.19400	4417
6.19467	4416
6.19533	4415
6.19600	4414
6.19667	4414
6.19733	4413
6.19800	4412
6.19867	4412
6.19933	4411
6.20000	4410
6.20067	4410
6.20133	4409
6.20200	4408
6.20267	4408
6.20333	4407
6.20400	4406
6.20467	4405
6.20533	4405
6.20600	4404
6.20667	4403
6.20733	4402
6.20800	4401
6.20867	4401
6.20933	4400
6.21000	4399
6.21067	4398
6.21133	4398
6.21200	4397
6.21267	4396
6.21333	4395
6.21400	4395
6.21467	4394
6.21533	4393
6.21600	4393
6.21667	4392
6.21733	4392
6.21800	4391
6.21867	4390
6.21933	4390
6.22000	4389
6.22067	4389
6.22133	4388
6.22200	4388
6.22267	4387
6.22333	4387
6.22400	4387
6.22467	4386
6.22533	4386
6.22600	4385
6.22667	4385
6.22733	4384
6.22800	4384
6.22867	4383
6.22933	4383
6.23000	4383
6.23067	4382
6.23133	4382
6.23200	4381
6.23267	4381
6.23333	4381
6.23400	4380
6.23467	4380
6.23533	4380
6.23600	4379
6.23667	4379
6.23733	4379
6.23800	4378
6.23867	4378
6.23933	4378
6.24000	4377
6.24067	4377
6.24133	4377
6.24200	4377
6.24267	4376
6.24333	4376
6.24400	4376
6.24467	4375
6.24533	4375
6.24600	4375
6.24667	4374
6.24733	4374
6.24800	4374
6.24867	4374
6.24933	4373
6.25000	4373
6.25067	4373
6.25133	4373
6.25200	4372
6.25267	4372
6.25333	4372
6.25400	4371
6.25467	4371
6.25533	4371
6.25600	4371
6.25667	4370
6.25733	4370
6.25800	4370
6.25867	4370
6.25933	4369
6.26000	4369
6.26067	4369
6.26133	4368
6.26200	4368
6.26267	4368
6.26333	4367
6.26400	4367
6.26467	4367
6.26533	4367
6.26600	4366
6.26667	4366
6.26733	4366
6.26800	4365
6.26867	4365
6.26933	4365
6.27000	4365
6.27067	4365
6.27133	4364
6.27200	4364
6.27267	4364
6.27333	4364
6.27400	4364
6.27467	4363
6.27533	4363
6.27600	4363
6.27667	4363
6.27733	4362
6.27800	4362
6.27867	4362
6.27933	4362
6.28000	4361
6.28067	4361
6.28133	4361
6.28200	4361
6.28267	4360
6.28333	4360
6.28400	4359
6.28467	4359
6.28533	4359
6.28600	4358
6.28667	4358
6.28733	4357
6.28800	4357
6.28867	4357
6.28933	4356
6.29000	4356
6.29067	4355
6.29133	4355
6.29200	4355
6.29267	4354
6.29333	4354
6.29400	4354
6.29467	4353
6.29533	4353
6.29600	4353
6.29667	4353
6.29733	4352
6.29800	4352
6.29867	4352
6.29933	4352
6.30000	4352
6.30067	4352
6.30133	4352
6.30200	4352
6.30267	4352
6.30333	4352
6.30400	4352
6.30467	4351
6.30533	4351
6.30600	4351
6.30667	4351
6.30733	4351
6.30800	4351
6.30867	4351
6.30933	4351
6.31000	4351
6.31067	4351
6.31133	4351
6.31200	4351
6.31267	4351
6.31333	4351
6.31400	4351
6.31467	4351
6.31533	4350
6.31600	4350
6.31667	4350
6.31733	4350
6.31800	4350
6.31867	4349
6.31933	4349
6.32000	4349
6.32067	4349
6.32133	4348
6.32200	4348
6.32267	4348
6.32333	4348
6.32400	4347
6.32467	4347
6.32533	4347
6.32600	4346
6.32667	4346
6.32733	4346
6.32800	4346
6.32867	4345
6.32933	4345
6.33000	4345
6.33067	4345
6.33133	4344
6.33200	4344
6.33267	4344
6.33333	4343
6.33400	4343
6.33467	4343
6.33533	4342
6.33600	4342
6.33667	4341
6.33733	4341
6.33800	4340
6.33867	4340
6.33933	4339
6.34000	4339
6.34067	4338
6.34133	4338
6.34200	4337
6.34267	4337
6.34333	4336
6.34400	4336
6.34467	4335
6.34533	4335
6.34600	4334
6.34667	4334
6.34733	4333
6.34800	4333
6.34867	4332
6.34933	4332
6.35000	4331
6.35067	4331
6.35133	4330
6.35200	4330
6.35267	4329
6.35333	4329
6.35400	4329
6.35467	4328
6.35533	4328
6.35600	4327
6.35667	4327
6.35733	4326
6.35800	4326
6.35867	4326
6.35933	4325
6.36000	4325
6.36067	4324
6.36133	4324
6.36200	4324
6.36267	4323
6.36333	4323
6.36400	4323
6.36467	4322
6.36533	4322
6.36600	4322
6.36667	4321
6.36733	4321
6.36800	4321
6.36867	4320
6.36933	4320
6.37000	4320
6.37067	4319
6.37133	4319
6.37200	4319
6.37267	4318
6.37333	4318
6.37400	4318
6.37467	4318
6.37533	4317
6.37600	4317
6.37667	4317
6.37733	4317
6.37800	4316
6.37867	4316
6.37933	4316
6.38000	4316
6.38067	4316
6.38133	4315
6.38200	4315
6.38267	4315
6.38333	4315
6.38400	4314
6.38467	4314
6.38533	4314
6.38600	4314
6.38667	4313
6.38733	4313
6.38800	4313
6.38867	4313
6.38933	4313
6.39000	4312
6.39067	4312
6.39133	4312
6.39200	4312
6.39267	4312
6.39333	4312
6.39400	4312
6.39467	4311
6.39533	4311
6.39600	4311
6.39667	4311
6.39733	4311
6.39800	4310
6.39867	4311
6.39933	4310

