[Header]
Application Name	LabSolutions
Version	5.73
Data File Name	C:\LabSolutions\Data\Project1\stephen\2016-01-06\102.gcd
Output Date	1/11/2016
Output Time	1:20:01 PM

[Configuration]
Instrument Name	WEISSTA-PC-Instrument1
Instrument #	1
Line #	1
# of Detectors	1
Detector ID	DET#2
Detector Name	DFID1
# of Channels	1

[Chromatogram (Ch1)]
Interval(msec)	40
# of Points	9599
Start Time(min)	0.001
End Time(min)	6.399
R.Time (min)	Intensity
0.00067	21
0.00133	21
0.00200	21
0.00267	21
0.00333	21
0.00400	21
0.00467	21
0.00533	21
0.00600	21
0.00667	21
0.00733	21
0.00800	20
0.00867	20
0.00933	19
0.01000	18
0.01067	16
0.01133	15
0.01200	12
0.01267	10
0.01333	7
0.01400	3
0.01467	-0
0.01533	-5
0.01600	-9
0.01667	-13
0.01733	-18
0.01800	-23
0.01867	-29
0.01933	-34
0.02000	-39
0.02067	-44
0.02133	-49
0.02200	-55
0.02267	-60
0.02333	-65
0.02400	-69
0.02467	-74
0.02533	-79
0.02600	-83
0.02667	-87
0.02733	-91
0.02800	-95
0.02867	-98
0.02933	-101
0.03000	-104
0.03067	-107
0.03133	-110
0.03200	-112
0.03267	-115
0.03333	-117
0.03400	-119
0.03467	-120
0.03533	-122
0.03600	-123
0.03667	-125
0.03733	-126
0.03800	-127
0.03867	-127
0.03933	-128
0.04000	-129
0.04067	-129
0.04133	-130
0.04200	-130
0.04267	-130
0.04333	-130
0.04400	-130
0.04467	-130
0.04533	-130
0.04600	-130
0.04667	-130
0.04733	-130
0.04800	-130
0.04867	-129
0.04933	-129
0.05000	-129
0.05067	-129
0.05133	-128
0.05200	-128
0.05267	-128
0.05333	-127
0.05400	-127
0.05467	-127
0.05533	-126
0.05600	-126
0.05667	-125
0.05733	-125
0.05800	-125
0.05867	-124
0.05933	-124
0.06000	-123
0.06067	-123
0.06133	-122
0.06200	-122
0.06267	-121
0.06333	-121
0.06400	-120
0.06467	-119
0.06533	-119
0.06600	-118
0.06667	-118
0.06733	-117
0.06800	-117
0.06867	-116
0.06933	-116
0.07000	-115
0.07067	-115
0.07133	-114
0.07200	-114
0.07267	-113
0.07333	-113
0.07400	-113
0.07467	-112
0.07533	-112
0.07600	-112
0.07667	-111
0.07733	-111
0.07800	-111
0.07867	-110
0.07933	-110
0.08000	-110
0.08067	-110
0.08133	-109
0.08200	-109
0.08267	-109
0.08333	-109
0.08400	-109
0.08467	-108
0.08533	-108
0.08600	-108
0.08667	-106
0.08733	-104
0.08800	-98
0.08867	-80
0.08933	-48
0.09000	3
0.09067	84
0.09133	196
0.09200	360
0.09267	599
0.09333	892
0.09400	1222
0.09467	1602
0.09533	2061
0.09600	2615
0.09667	3296
0.09733	4182
0.09800	5179
0.09867	6198
0.09933	7295
0.10000	8443
0.10067	9660
0.10133	10977
0.10200	12370
0.10267	13797
0.10333	15283
0.10400	16860
0.10467	18465
0.10533	20053
0.10600	21632
0.10667	23196
0.10733	24788
0.10800	26386
0.10867	27939
0.10933	29471
0.11000	30987
0.11067	32497
0.11133	34045
0.11200	35616
0.11267	37119
0.11333	38614
0.11400	40100
0.11467	41538
0.11533	42876
0.11600	44140
0.11667	45357
0.11733	46570
0.11800	47772
0.11867	48951
0.11933	50066
0.12000	51128
0.12067	52110
0.12133	53017
0.12200	53840
0.12267	54557
0.12333	55170
0.12400	55697
0.12467	56185
0.12533	56660
0.12600	57103
0.12667	57464
0.12733	57759
0.12800	57983
0.12867	58162
0.12933	58290
0.13000	58340
0.13067	58314
0.13133	58234
0.13200	58097
0.13267	57896
0.13333	57653
0.13400	57381
0.13467	57142
0.13533	57208
0.13600	58377
0.13667	62788
0.13733	74836
0.13800	103441
0.13867	163793
0.13933	279571
0.14000	480245
0.14067	798874
0.14133	1266372
0.14200	1910812
0.14267	2754733
0.14333	3816597
0.14400	5108376
0.14467	6637488
0.14533	8406935
0.14600	10414252
0.14667	12641260
0.14733	15067670
0.14800	17720196
0.14867	20645143
0.14933	23860477
0.15000	27359559
0.15067	31121807
0.15133	35119859
0.15200	39322354
0.15267	43698433
0.15333	48218691
0.15400	52855772
0.15467	57583574
0.15533	62378049
0.15600	67216505
0.15667	72077594
0.15733	76940920
0.15800	81787200
0.15867	86598088
0.15933	91356940
0.16000	96048264
0.16067	100658094
0.16133	105173201
0.16200	109581031
0.16267	113870267
0.16333	118030932
0.16400	122054568
0.16467	125933847
0.16533	129662814
0.16600	133236217
0.16667	136649591
0.16733	139899127
0.16800	142982048
0.16867	145896037
0.16933	148639753
0.17000	151212498
0.17067	153615104
0.17133	155849229
0.17200	157916663
0.17267	159818521
0.17333	161555605
0.17400	163128813
0.17467	164539777
0.17533	165790702
0.17600	166884579
0.17667	167824820
0.17733	168615263
0.17800	169259922
0.17867	169762760
0.17933	170127632
0.18000	170358408
0.18067	170459021
0.18133	170433406
0.18200	170285726
0.18267	170020261
0.18333	169641311
0.18400	169153118
0.18467	168560006
0.18533	167866157
0.18600	167075778
0.18667	166192935
0.18733	165221748
0.18800	164166236
0.18867	163030498
0.18933	161818519
0.19000	160534343
0.19067	159181959
0.19133	157765374
0.19200	156288530
0.19267	154755300
0.19333	153169483
0.19400	151534846
0.19467	149855083
0.19533	148133867
0.19600	146374768
0.19667	144581247
0.19733	142756688
0.19800	140904433
0.19867	139027970
0.19933	137131014
0.20000	135217260
0.20067	133289842
0.20133	131351180
0.20200	129403114
0.20267	127447255
0.20333	125485086
0.20400	123518148
0.20467	121547997
0.20533	119576290
0.20600	117604659
0.20667	115634763
0.20733	113668237
0.20800	111706694
0.20867	109751684
0.20933	107804704
0.21000	105867184
0.21067	103940490
0.21133	102025914
0.21200	100124665
0.21267	98237871
0.21333	96366578
0.21400	94511768
0.21467	92674341
0.21533	90855138
0.21600	89054918
0.21667	87274387
0.21733	85514175
0.21800	83774862
0.21867	82056955
0.21933	80360911
0.22000	78687120
0.22067	77035929
0.22133	75407631
0.22200	73802481
0.22267	72220691
0.22333	70662438
0.22400	69127848
0.22467	67617020
0.22533	66130024
0.22600	64666903
0.22667	63227676
0.22733	61812334
0.22800	60420841
0.22867	59053140
0.22933	57709154
0.23000	56388783
0.23067	55091915
0.23133	53818418
0.23200	52568148
0.23267	51340943
0.23333	50136634
0.23400	48955032
0.23467	47795948
0.23533	46659172
0.23600	45544494
0.23667	44451691
0.23733	43380539
0.23800	42330804
0.23867	41302246
0.23933	40294624
0.24000	39307691
0.24067	38341191
0.24133	37394868
0.24200	36468461
0.24267	35561705
0.24333	34674334
0.24400	33806076
0.24467	32956659
0.24533	32125809
0.24600	31313250
0.24667	30518704
0.24733	29741892
0.24800	28982535
0.24867	28240352
0.24933	27515066
0.25000	26806398
0.25067	26114068
0.25133	25437801
0.25200	24777318
0.25267	24132347
0.25333	23502613
0.25400	22887844
0.25467	22287766
0.25533	21702110
0.25600	21130607
0.25667	20572996
0.25733	20029030
0.25800	19498470
0.25867	18981087
0.25933	18476652
0.26000	17984944
0.26067	17505736
0.26133	17038793
0.26200	16583858
0.26267	16140657
0.26333	15708906
0.26400	15288316
0.26467	14878604
0.26533	14479495
0.26600	14090723
0.26667	13712032
0.26733	13343175
0.26800	12983916
0.26867	12634027
0.26933	12293285
0.27000	11961475
0.27067	11638388
0.27133	11323815
0.27200	11017555
0.27267	10719410
0.27333	10429185
0.27400	10146689
0.27467	9871735
0.27533	9604139
0.27600	9343721
0.27667	9090305
0.27733	8843719
0.27800	8603793
0.27867	8370363
0.27933	8143266
0.28000	7922341
0.28067	7707432
0.28133	7498388
0.28200	7295060
0.28267	7097301
0.28333	6904969
0.28400	6717924
0.28467	6536030
0.28533	6359155
0.28600	6187168
0.28667	6019941
0.28733	5857350
0.28800	5699274
0.28867	5545593
0.28933	5396191
0.29000	5250956
0.29067	5109777
0.29133	4972546
0.29200	4839158
0.29267	4709511
0.29333	4583504
0.29400	4461040
0.29467	4342021
0.29533	4226356
0.29600	4113953
0.29667	4004724
0.29733	3898583
0.29800	3795444
0.29867	3695226
0.29933	3597847
0.30000	3503231
0.30067	3411302
0.30133	3321984
0.30200	3235206
0.30267	3150898
0.30333	3068990
0.30400	2989418
0.30467	2912117
0.30533	2837024
0.30600	2764078
0.30667	2693220
0.30733	2624392
0.30800	2557538
0.30867	2492602
0.30933	2429533
0.31000	2368278
0.31067	2308787
0.31133	2251012
0.31200	2194906
0.31267	2140423
0.31333	2087518
0.31400	2036147
0.31467	1986270
0.31533	1937846
0.31600	1890837
0.31667	1845205
0.31733	1800915
0.31800	1757934
0.31867	1716227
0.31933	1675766
0.32000	1636520
0.32067	1598461
0.32133	1561563
0.32200	1525802
0.32267	1491154
0.32333	1457597
0.32400	1425112
0.32467	1393681
0.32533	1363286
0.32600	1333915
0.32667	1305554
0.32733	1278194
0.32800	1251826
0.32867	1226443
0.32933	1202042
0.33000	1178619
0.33067	1156175
0.33133	1134710
0.33200	1114227
0.33267	1094726
0.33333	1076207
0.33400	1058670
0.33467	1042112
0.33533	1026526
0.33600	1011902
0.33667	998226
0.33733	985480
0.33800	973645
0.33867	962695
0.33933	952605
0.34000	943345
0.34067	934886
0.34133	927195
0.34200	920242
0.34267	913995
0.34333	908418
0.34400	903481
0.34467	899148
0.34533	895389
0.34600	892171
0.34667	889464
0.34733	887238
0.34800	885466
0.34867	884121
0.34933	883178
0.35000	882616
0.35067	882414
0.35133	882551
0.35200	883010
0.35267	883773
0.35333	884824
0.35400	886145
0.35467	887717
0.35533	889521
0.35600	891540
0.35667	893757
0.35733	896156
0.35800	898721
0.35867	901438
0.35933	904296
0.36000	907281
0.36067	910383
0.36133	913594
0.36200	916906
0.36267	920310
0.36333	923801
0.36400	927372
0.36467	931016
0.36533	934728
0.36600	938503
0.36667	942335
0.36733	946220
0.36800	950152
0.36867	954124
0.36933	958130
0.37000	962168
0.37067	966237
0.37133	970337
0.37200	974468
0.37267	978634
0.37333	982841
0.37400	987094
0.37467	991402
0.37533	995773
0.37600	1000213
0.37667	1004725
0.37733	1009311
0.37800	1013970
0.37867	1018699
0.37933	1023496
0.38000	1028353
0.38067	1033264
0.38133	1038218
0.38200	1043207
0.38267	1048218
0.38333	1053242
0.38400	1058268
0.38467	1063285
0.38533	1068286
0.38600	1073261
0.38667	1078205
0.38733	1083111
0.38800	1087975
0.38867	1092788
0.38933	1097543
0.39000	1102233
0.39067	1106848
0.39133	1111378
0.39200	1115808
0.39267	1120119
0.39333	1124290
0.39400	1128302
0.39467	1132131
0.39533	1135752
0.39600	1139141
0.39667	1142274
0.39733	1145125
0.39800	1147670
0.39867	1149882
0.39933	1151732
0.40000	1153192
0.40067	1154232
0.40133	1154821
0.40200	1154927
0.40267	1154517
0.40333	1153562
0.40400	1152029
0.40467	1149891
0.40533	1147122
0.40600	1143700
0.40667	1139608
0.40733	1134837
0.40800	1129384
0.40867	1123250
0.40933	1116446
0.41000	1108985
0.41067	1100890
0.41133	1092185
0.41200	1082899
0.41267	1073063
0.41333	1062710
0.41400	1051875
0.41467	1040593
0.41533	1028899
0.41600	1016827
0.41667	1004414
0.41733	991692
0.41800	978693
0.41867	965451
0.41933	951995
0.42000	938355
0.42067	924558
0.42133	910633
0.42200	896603
0.42267	882493
0.42333	868326
0.42400	854124
0.42467	839906
0.42533	825692
0.42600	811500
0.42667	797346
0.42733	783245
0.42800	769212
0.42867	755260
0.42933	741401
0.43000	727647
0.43067	714008
0.43133	700493
0.43200	687111
0.43267	673869
0.43333	660776
0.43400	647836
0.43467	635057
0.43533	622443
0.43600	610000
0.43667	597731
0.43733	585641
0.43800	573732
0.43867	562009
0.43933	550472
0.44000	539124
0.44067	527966
0.44133	516999
0.44200	506225
0.44267	495642
0.44333	485251
0.44400	475051
0.44467	465042
0.44533	455224
0.44600	445594
0.44667	436154
0.44733	426903
0.44800	417839
0.44867	408962
0.44933	400270
0.45000	391764
0.45067	383441
0.45133	375300
0.45200	367339
0.45267	359557
0.45333	351951
0.45400	344519
0.45467	337260
0.45533	330170
0.45600	323249
0.45667	316493
0.45733	309900
0.45800	303468
0.45867	297195
0.45933	291078
0.46000	285116
0.46067	279306
0.46133	273647
0.46200	268137
0.46267	262773
0.46333	257555
0.46400	252480
0.46467	247548
0.46533	242758
0.46600	238107
0.46667	233595
0.46733	229219
0.46800	224977
0.46867	220864
0.46933	216876
0.47000	213011
0.47067	209264
0.47133	205633
0.47200	202114
0.47267	198703
0.47333	195398
0.47400	192194
0.47467	189089
0.47533	186079
0.47600	183161
0.47667	180332
0.47733	177589
0.47800	174929
0.47867	172348
0.47933	169846
0.48000	167417
0.48067	165061
0.48133	162775
0.48200	160555
0.48267	158400
0.48333	156308
0.48400	154277
0.48467	152303
0.48533	150386
0.48600	148523
0.48667	146712
0.48733	144952
0.48800	143241
0.48867	141577
0.48933	139957
0.49000	138382
0.49067	136848
0.49133	135355
0.49200	133901
0.49267	132484
0.49333	131104
0.49400	129759
0.49467	128447
0.49533	127169
0.49600	125923
0.49667	124707
0.49733	123521
0.49800	122363
0.49867	121233
0.49933	120128
0.50000	119048
0.50067	117992
0.50133	116958
0.50200	115947
0.50267	114956
0.50333	113985
0.50400	113034
0.50467	112101
0.50533	111185
0.50600	110287
0.50667	109405
0.50733	108539
0.50800	107687
0.50867	106850
0.50933	106028
0.51000	105218
0.51067	104421
0.51133	103637
0.51200	102865
0.51267	102104
0.51333	101355
0.51400	100616
0.51467	99887
0.51533	99169
0.51600	98460
0.51667	97761
0.51733	97071
0.51800	96390
0.51867	95717
0.51933	95052
0.52000	94396
0.52067	93747
0.52133	93106
0.52200	92472
0.52267	91845
0.52333	91225
0.52400	90612
0.52467	90006
0.52533	89406
0.52600	88812
0.52667	88224
0.52733	87643
0.52800	87067
0.52867	86497
0.52933	85932
0.53000	85373
0.53067	84819
0.53133	84270
0.53200	83726
0.53267	83187
0.53333	82652
0.53400	82123
0.53467	81598
0.53533	81078
0.53600	80562
0.53667	80050
0.53733	79543
0.53800	79041
0.53867	78542
0.53933	78048
0.54000	77557
0.54067	77071
0.54133	76589
0.54200	76111
0.54267	75637
0.54333	75167
0.54400	74701
0.54467	74238
0.54533	73780
0.54600	73325
0.54667	72875
0.54733	72428
0.54800	71985
0.54867	71546
0.54933	71111
0.55000	70680
0.55067	70253
0.55133	69831
0.55200	69412
0.55267	68998
0.55333	68588
0.55400	68182
0.55467	67780
0.55533	67383
0.55600	66990
0.55667	66601
0.55733	66216
0.55800	65834
0.55867	65457
0.55933	65083
0.56000	64713
0.56067	64347
0.56133	63984
0.56200	63625
0.56267	63268
0.56333	62915
0.56400	62565
0.56467	62217
0.56533	61873
0.56600	61530
0.56667	61191
0.56733	60854
0.56800	60519
0.56867	60187
0.56933	59857
0.57000	59529
0.57067	59203
0.57133	58880
0.57200	58559
0.57267	58240
0.57333	57923
0.57400	57608
0.57467	57296
0.57533	56985
0.57600	56677
0.57667	56370
0.57733	56065
0.57800	55763
0.57867	55462
0.57933	55163
0.58000	54866
0.58067	54571
0.58133	54278
0.58200	53986
0.58267	53697
0.58333	53409
0.58400	53122
0.58467	52838
0.58533	52555
0.58600	52275
0.58667	51996
0.58733	51719
0.58800	51444
0.58867	51170
0.58933	50899
0.59000	50630
0.59067	50362
0.59133	50096
0.59200	49833
0.59267	49571
0.59333	49311
0.59400	49053
0.59467	48797
0.59533	48543
0.59600	48291
0.59667	48041
0.59733	47793
0.59800	47547
0.59867	47302
0.59933	47060
0.60000	46820
0.60067	46581
0.60133	46345
0.60200	46110
0.60267	45877
0.60333	45647
0.60400	45418
0.60467	45191
0.60533	44966
0.60600	44743
0.60667	44523
0.60733	44304
0.60800	44087
0.60867	43872
0.60933	43659
0.61000	43449
0.61067	43240
0.61133	43034
0.61200	42829
0.61267	42627
0.61333	42427
0.61400	42229
0.61467	42032
0.61533	41838
0.61600	41646
0.61667	41456
0.61733	41268
0.61800	41082
0.61867	40898
0.61933	40716
0.62000	40536
0.62067	40357
0.62133	40180
0.62200	40005
0.62267	39831
0.62333	39659
0.62400	39488
0.62467	39319
0.62533	39151
0.62600	38984
0.62667	38819
0.62733	38655
0.62800	38492
0.62867	38330
0.62933	38170
0.63000	38010
0.63067	37852
0.63133	37695
0.63200	37538
0.63267	37383
0.63333	37229
0.63400	37076
0.63467	36924
0.63533	36773
0.63600	36623
0.63667	36475
0.63733	36327
0.63800	36180
0.63867	36035
0.63933	35890
0.64000	35747
0.64067	35604
0.64133	35463
0.64200	35323
0.64267	35184
0.64333	35046
0.64400	34909
0.64467	34773
0.64533	34638
0.64600	34504
0.64667	34371
0.64733	34239
0.64800	34108
0.64867	33977
0.64933	33848
0.65000	33720
0.65067	33592
0.65133	33466
0.65200	33340
0.65267	33214
0.65333	33090
0.65400	32966
0.65467	32843
0.65533	32721
0.65600	32599
0.65667	32478
0.65733	32357
0.65800	32237
0.65867	32117
0.65933	31998
0.66000	31880
0.66067	31762
0.66133	31644
0.66200	31527
0.66267	31411
0.66333	31295
0.66400	31179
0.66467	31064
0.66533	30950
0.66600	30836
0.66667	30722
0.66733	30609
0.66800	30497
0.66867	30385
0.66933	30273
0.67000	30162
0.67067	30051
0.67133	29941
0.67200	29832
0.67267	29723
0.67333	29614
0.67400	29506
0.67467	29399
0.67533	29292
0.67600	29186
0.67667	29081
0.67733	28976
0.67800	28873
0.67867	28770
0.67933	28668
0.68000	28567
0.68067	28468
0.68133	28370
0.68200	28273
0.68267	28178
0.68333	28085
0.68400	27993
0.68467	27903
0.68533	27816
0.68600	27731
0.68667	27649
0.68733	27570
0.68800	27494
0.68867	27421
0.68933	27352
0.69000	27287
0.69067	27226
0.69133	27169
0.69200	27117
0.69267	27070
0.69333	27027
0.69400	26990
0.69467	26958
0.69533	26931
0.69600	26909
0.69667	26893
0.69733	26881
0.69800	26875
0.69867	26872
0.69933	26874
0.70000	26880
0.70067	26889
0.70133	26902
0.70200	26916
0.70267	26933
0.70333	26951
0.70400	26970
0.70467	26989
0.70533	27008
0.70600	27026
0.70667	27042
0.70733	27056
0.70800	27068
0.70867	27077
0.70933	27082
0.71000	27084
0.71067	27082
0.71133	27076
0.71200	27066
0.71267	27052
0.71333	27033
0.71400	27009
0.71467	26982
0.71533	26950
0.71600	26913
0.71667	26873
0.71733	26828
0.71800	26779
0.71867	26727
0.71933	26671
0.72000	26611
0.72067	26548
0.72133	26482
0.72200	26413
0.72267	26341
0.72333	26267
0.72400	26191
0.72467	26112
0.72533	26031
0.72600	25948
0.72667	25863
0.72733	25777
0.72800	25689
0.72867	25601
0.72933	25511
0.73000	25420
0.73067	25328
0.73133	25236
0.73200	25142
0.73267	25049
0.73333	24955
0.73400	24860
0.73467	24765
0.73533	24670
0.73600	24575
0.73667	24480
0.73733	24385
0.73800	24290
0.73867	24195
0.73933	24100
0.74000	24005
0.74067	23911
0.74133	23816
0.74200	23723
0.74267	23629
0.74333	23536
0.74400	23444
0.74467	23352
0.74533	23260
0.74600	23169
0.74667	23079
0.74733	22989
0.74800	22900
0.74867	22811
0.74933	22723
0.75000	22636
0.75067	22549
0.75133	22463
0.75200	22378
0.75267	22294
0.75333	22210
0.75400	22127
0.75467	22044
0.75533	21963
0.75600	21882
0.75667	21801
0.75733	21722
0.75800	21643
0.75867	21565
0.75933	21488
0.76000	21411
0.76067	21335
0.76133	21260
0.76200	21186
0.76267	21112
0.76333	21039
0.76400	20967
0.76467	20895
0.76533	20824
0.76600	20754
0.76667	20685
0.76733	20617
0.76800	20549
0.76867	20481
0.76933	20415
0.77000	20349
0.77067	20284
0.77133	20220
0.77200	20156
0.77267	20093
0.77333	20031
0.77400	19969
0.77467	19908
0.77533	19848
0.77600	19788
0.77667	19729
0.77733	19671
0.77800	19613
0.77867	19555
0.77933	19499
0.78000	19443
0.78067	19387
0.78133	19332
0.78200	19278
0.78267	19224
0.78333	19171
0.78400	19118
0.78467	19066
0.78533	19014
0.78600	18963
0.78667	18912
0.78733	18862
0.78800	18813
0.78867	18763
0.78933	18715
0.79000	18666
0.79067	18619
0.79133	18571
0.79200	18524
0.79267	18478
0.79333	18432
0.79400	18386
0.79467	18341
0.79533	18297
0.79600	18252
0.79667	18208
0.79733	18165
0.79800	18121
0.79867	18079
0.79933	18036
0.80000	17994
0.80067	17953
0.80133	17911
0.80200	17870
0.80267	17830
0.80333	17790
0.80400	17750
0.80467	17710
0.80533	17671
0.80600	17632
0.80667	17593
0.80733	17555
0.80800	17517
0.80867	17479
0.80933	17441
0.81000	17404
0.81067	17368
0.81133	17331
0.81200	17296
0.81267	17260
0.81333	17225
0.81400	17190
0.81467	17156
0.81533	17122
0.81600	17088
0.81667	17055
0.81733	17022
0.81800	16989
0.81867	16957
0.81933	16925
0.82000	16894
0.82067	16863
0.82133	16832
0.82200	16801
0.82267	16771
0.82333	16741
0.82400	16711
0.82467	16681
0.82533	16652
0.82600	16623
0.82667	16594
0.82733	16565
0.82800	16537
0.82867	16508
0.82933	16480
0.83000	16452
0.83067	16424
0.83133	16397
0.83200	16369
0.83267	16342
0.83333	16314
0.83400	16287
0.83467	16260
0.83533	16233
0.83600	16206
0.83667	16180
0.83733	16153
0.83800	16126
0.83867	16100
0.83933	16074
0.84000	16048
0.84067	16021
0.84133	15995
0.84200	15970
0.84267	15944
0.84333	15918
0.84400	15892
0.84467	15866
0.84533	15841
0.84600	15815
0.84667	15790
0.84733	15764
0.84800	15739
0.84867	15714
0.84933	15689
0.85000	15663
0.85067	15638
0.85133	15613
0.85200	15588
0.85267	15563
0.85333	15538
0.85400	15513
0.85467	15489
0.85533	15464
0.85600	15439
0.85667	15415
0.85733	15390
0.85800	15365
0.85867	15341
0.85933	15317
0.86000	15292
0.86067	15268
0.86133	15243
0.86200	15219
0.86267	15195
0.86333	15171
0.86400	15147
0.86467	15123
0.86533	15099
0.86600	15075
0.86667	15051
0.86733	15027
0.86800	15004
0.86867	14980
0.86933	14957
0.87000	14933
0.87067	14910
0.87133	14886
0.87200	14863
0.87267	14840
0.87333	14817
0.87400	14794
0.87467	14771
0.87533	14749
0.87600	14726
0.87667	14703
0.87733	14681
0.87800	14659
0.87867	14637
0.87933	14615
0.88000	14593
0.88067	14571
0.88133	14550
0.88200	14528
0.88267	14507
0.88333	14486
0.88400	14465
0.88467	14444
0.88533	14423
0.88600	14402
0.88667	14382
0.88733	14361
0.88800	14340
0.88867	14320
0.88933	14300
0.89000	14280
0.89067	14260
0.89133	14240
0.89200	14220
0.89267	14200
0.89333	14181
0.89400	14161
0.89467	14142
0.89533	14123
0.89600	14104
0.89667	14084
0.89733	14065
0.89800	14046
0.89867	14027
0.89933	14008
0.90000	13990
0.90067	13971
0.90133	13952
0.90200	13934
0.90267	13915
0.90333	13897
0.90400	13878
0.90467	13860
0.90533	13842
0.90600	13824
0.90667	13806
0.90733	13788
0.90800	13770
0.90867	13753
0.90933	13735
0.91000	13717
0.91067	13700
0.91133	13682
0.91200	13665
0.91267	13647
0.91333	13630
0.91400	13612
0.91467	13595
0.91533	13578
0.91600	13561
0.91667	13544
0.91733	13527
0.91800	13510
0.91867	13493
0.91933	13476
0.92000	13460
0.92067	13443
0.92133	13426
0.92200	13410
0.92267	13393
0.92333	13377
0.92400	13360
0.92467	13344
0.92533	13328
0.92600	13312
0.92667	13296
0.92733	13280
0.92800	13264
0.92867	13248
0.92933	13233
0.93000	13217
0.93067	13201
0.93133	13186
0.93200	13170
0.93267	13155
0.93333	13140
0.93400	13125
0.93467	13109
0.93533	13094
0.93600	13079
0.93667	13064
0.93733	13049
0.93800	13035
0.93867	13020
0.93933	13005
0.94000	12990
0.94067	12976
0.94133	12961
0.94200	12946
0.94267	12932
0.94333	12917
0.94400	12903
0.94467	12888
0.94533	12874
0.94600	12859
0.94667	12845
0.94733	12830
0.94800	12816
0.94867	12801
0.94933	12787
0.95000	12772
0.95067	12758
0.95133	12744
0.95200	12729
0.95267	12715
0.95333	12701
0.95400	12687
0.95467	12672
0.95533	12658
0.95600	12644
0.95667	12630
0.95733	12616
0.95800	12602
0.95867	12589
0.95933	12575
0.96000	12561
0.96067	12548
0.96133	12534
0.96200	12521
0.96267	12508
0.96333	12494
0.96400	12481
0.96467	12468
0.96533	12455
0.96600	12442
0.96667	12430
0.96733	12417
0.96800	12404
0.96867	12391
0.96933	12379
0.97000	12366
0.97067	12354
0.97133	12341
0.97200	12329
0.97267	12317
0.97333	12304
0.97400	12292
0.97467	12279
0.97533	12267
0.97600	12254
0.97667	12242
0.97733	12229
0.97800	12216
0.97867	12203
0.97933	12191
0.98000	12178
0.98067	12165
0.98133	12152
0.98200	12139
0.98267	12126
0.98333	12112
0.98400	12099
0.98467	12086
0.98533	12073
0.98600	12060
0.98667	12046
0.98733	12033
0.98800	12020
0.98867	12006
0.98933	11993
0.99000	11980
0.99067	11967
0.99133	11953
0.99200	11940
0.99267	11927
0.99333	11913
0.99400	11900
0.99467	11887
0.99533	11874
0.99600	11860
0.99667	11847
0.99733	11834
0.99800	11821
0.99867	11808
0.99933	11795
1.00000	11782
1.00067	11769
1.00133	11756
1.00200	11743
1.00267	11731
1.00333	11718
1.00400	11705
1.00467	11693
1.00533	11680
1.00600	11668
1.00667	11656
1.00733	11643
1.00800	11631
1.00867	11619
1.00933	11607
1.01000	11595
1.01067	11583
1.01133	11572
1.01200	11560
1.01267	11549
1.01333	11538
1.01400	11527
1.01467	11516
1.01533	11506
1.01600	11496
1.01667	11486
1.01733	11476
1.01800	11467
1.01867	11458
1.01933	11449
1.02000	11441
1.02067	11433
1.02133	11425
1.02200	11417
1.02267	11410
1.02333	11403
1.02400	11396
1.02467	11390
1.02533	11384
1.02600	11378
1.02667	11372
1.02733	11367
1.02800	11362
1.02867	11356
1.02933	11351
1.03000	11346
1.03067	11341
1.03133	11337
1.03200	11332
1.03267	11327
1.03333	11322
1.03400	11317
1.03467	11312
1.03533	11307
1.03600	11301
1.03667	11296
1.03733	11291
1.03800	11285
1.03867	11279
1.03933	11273
1.04000	11267
1.04067	11260
1.04133	11254
1.04200	11247
1.04267	11240
1.04333	11233
1.04400	11225
1.04467	11218
1.04533	11210
1.04600	11202
1.04667	11194
1.04733	11185
1.04800	11177
1.04867	11168
1.04933	11159
1.05000	11150
1.05067	11141
1.05133	11132
1.05200	11122
1.05267	11113
1.05333	11103
1.05400	11093
1.05467	11083
1.05533	11073
1.05600	11063
1.05667	11053
1.05733	11043
1.05800	11033
1.05867	11022
1.05933	11012
1.06000	11001
1.06067	10990
1.06133	10979
1.06200	10969
1.06267	10958
1.06333	10947
1.06400	10936
1.06467	10925
1.06533	10914
1.06600	10903
1.06667	10891
1.06733	10880
1.06800	10869
1.06867	10858
1.06933	10846
1.07000	10835
1.07067	10824
1.07133	10812
1.07200	10801
1.07267	10790
1.07333	10778
1.07400	10767
1.07467	10756
1.07533	10745
1.07600	10733
1.07667	10722
1.07733	10711
1.07800	10700
1.07867	10689
1.07933	10677
1.08000	10666
1.08067	10655
1.08133	10644
1.08200	10634
1.08267	10623
1.08333	10612
1.08400	10601
1.08467	10591
1.08533	10580
1.08600	10569
1.08667	10559
1.08733	10548
1.08800	10538
1.08867	10528
1.08933	10517
1.09000	10507
1.09067	10497
1.09133	10486
1.09200	10476
1.09267	10466
1.09333	10456
1.09400	10446
1.09467	10436
1.09533	10426
1.09600	10416
1.09667	10406
1.09733	10396
1.09800	10386
1.09867	10376
1.09933	10366
1.10000	10356
1.10067	10346
1.10133	10337
1.10200	10327
1.10267	10317
1.10333	10308
1.10400	10298
1.10467	10288
1.10533	10279
1.10600	10269
1.10667	10260
1.10733	10250
1.10800	10241
1.10867	10232
1.10933	10222
1.11000	10213
1.11067	10204
1.11133	10194
1.11200	10185
1.11267	10176
1.11333	10167
1.11400	10158
1.11467	10149
1.11533	10141
1.11600	10132
1.11667	10123
1.11733	10115
1.11800	10106
1.11867	10098
1.11933	10090
1.12000	10082
1.12067	10074
1.12133	10066
1.12200	10058
1.12267	10051
1.12333	10044
1.12400	10036
1.12467	10029
1.12533	10023
1.12600	10016
1.12667	10010
1.12733	10003
1.12800	9998
1.12867	9992
1.12933	9987
1.13000	9982
1.13067	9977
1.13133	9973
1.13200	9969
1.13267	9966
1.13333	9963
1.13400	9960
1.13467	9958
1.13533	9956
1.13600	9954
1.13667	9953
1.13733	9952
1.13800	9951
1.13867	9950
1.13933	9950
1.14000	9950
1.14067	9949
1.14133	9950
1.14200	9950
1.14267	9950
1.14333	9950
1.14400	9951
1.14467	9951
1.14533	9951
1.14600	9951
1.14667	9951
1.14733	9950
1.14800	9950
1.14867	9949
1.14933	9948
1.15000	9947
1.15067	9946
1.15133	9944
1.15200	9942
1.15267	9940
1.15333	9937
1.15400	9935
1.15467	9932
1.15533	9928
1.15600	9925
1.15667	9921
1.15733	9917
1.15800	9912
1.15867	9908
1.15933	9903
1.16000	9898
1.16067	9892
1.16133	9887
1.16200	9881
1.16267	9875
1.16333	9869
1.16400	9862
1.16467	9856
1.16533	9849
1.16600	9842
1.16667	9835
1.16733	9828
1.16800	9821
1.16867	9813
1.16933	9806
1.17000	9798
1.17067	9790
1.17133	9783
1.17200	9775
1.17267	9767
1.17333	9759
1.17400	9751
1.17467	9743
1.17533	9734
1.17600	9726
1.17667	9718
1.17733	9710
1.17800	9701
1.17867	9693
1.17933	9685
1.18000	9677
1.18067	9668
1.18133	9660
1.18200	9652
1.18267	9643
1.18333	9635
1.18400	9627
1.18467	9619
1.18533	9610
1.18600	9602
1.18667	9594
1.18733	9586
1.18800	9578
1.18867	9570
1.18933	9562
1.19000	9554
1.19067	9547
1.19133	9539
1.19200	9531
1.19267	9524
1.19333	9517
1.19400	9509
1.19467	9502
1.19533	9495
1.19600	9488
1.19667	9481
1.19733	9474
1.19800	9468
1.19867	9461
1.19933	9455
1.20000	9448
1.20067	9442
1.20133	9436
1.20200	9430
1.20267	9424
1.20333	9419
1.20400	9413
1.20467	9408
1.20533	9402
1.20600	9397
1.20667	9392
1.20733	9387
1.20800	9382
1.20867	9377
1.20933	9372
1.21000	9368
1.21067	9363
1.21133	9359
1.21200	9354
1.21267	9350
1.21333	9346
1.21400	9342
1.21467	9338
1.21533	9334
1.21600	9330
1.21667	9326
1.21733	9322
1.21800	9318
1.21867	9315
1.21933	9311
1.22000	9308
1.22067	9304
1.22133	9301
1.22200	9297
1.22267	9294
1.22333	9290
1.22400	9287
1.22467	9284
1.22533	9281
1.22600	9277
1.22667	9274
1.22733	9271
1.22800	9268
1.22867	9264
1.22933	9261
1.23000	9258
1.23067	9255
1.23133	9252
1.23200	9249
1.23267	9246
1.23333	9243
1.23400	9239
1.23467	9236
1.23533	9233
1.23600	9230
1.23667	9227
1.23733	9223
1.23800	9220
1.23867	9217
1.23933	9214
1.24000	9211
1.24067	9207
1.24133	9204
1.24200	9201
1.24267	9198
1.24333	9195
1.24400	9192
1.24467	9189
1.24533	9186
1.24600	9182
1.24667	9179
1.24733	9176
1.24800	9173
1.24867	9170
1.24933	9167
1.25000	9165
1.25067	9162
1.25133	9159
1.25200	9156
1.25267	9153
1.25333	9151
1.25400	9148
1.25467	9145
1.25533	9143
1.25600	9140
1.25667	9138
1.25733	9136
1.25800	9133
1.25867	9131
1.25933	9129
1.26000	9127
1.26067	9125
1.26133	9123
1.26200	9121
1.26267	9119
1.26333	9117
1.26400	9116
1.26467	9114
1.26533	9112
1.26600	9111
1.26667	9110
1.26733	9109
1.26800	9108
1.26867	9107
1.26933	9106
1.27000	9106
1.27067	9105
1.27133	9105
1.27200	9105
1.27267	9105
1.27333	9106
1.27400	9106
1.27467	9107
1.27533	9108
1.27600	9109
1.27667	9110
1.27733	9112
1.27800	9113
1.27867	9115
1.27933	9117
1.28000	9120
1.28067	9122
1.28133	9125
1.28200	9127
1.28267	9130
1.28333	9133
1.28400	9136
1.28467	9139
1.28533	9142
1.28600	9145
1.28667	9148
1.28733	9152
1.28800	9155
1.28867	9158
1.28933	9161
1.29000	9164
1.29067	9166
1.29133	9169
1.29200	9171
1.29267	9174
1.29333	9176
1.29400	9178
1.29467	9179
1.29533	9180
1.29600	9182
1.29667	9183
1.29733	9183
1.29800	9184
1.29867	9184
1.29933	9184
1.30000	9183
1.30067	9182
1.30133	9182
1.30200	9180
1.30267	9179
1.30333	9177
1.30400	9175
1.30467	9173
1.30533	9171
1.30600	9168
1.30667	9166
1.30733	9163
1.30800	9159
1.30867	9156
1.30933	9152
1.31000	9149
1.31067	9145
1.31133	9141
1.31200	9136
1.31267	9132
1.31333	9128
1.31400	9123
1.31467	9118
1.31533	9113
1.31600	9108
1.31667	9103
1.31733	9097
1.31800	9092
1.31867	9087
1.31933	9081
1.32000	9075
1.32067	9069
1.32133	9063
1.32200	9057
1.32267	9051
1.32333	9045
1.32400	9039
1.32467	9032
1.32533	9026
1.32600	9020
1.32667	9013
1.32733	9006
1.32800	9000
1.32867	8993
1.32933	8986
1.33000	8980
1.33067	8973
1.33133	8966
1.33200	8959
1.33267	8952
1.33333	8945
1.33400	8938
1.33467	8931
1.33533	8923
1.33600	8916
1.33667	8909
1.33733	8901
1.33800	8894
1.33867	8887
1.33933	8879
1.34000	8871
1.34067	8864
1.34133	8856
1.34200	8848
1.34267	8841
1.34333	8833
1.34400	8825
1.34467	8817
1.34533	8810
1.34600	8802
1.34667	8794
1.34733	8786
1.34800	8779
1.34867	8771
1.34933	8763
1.35000	8755
1.35067	8748
1.35133	8740
1.35200	8732
1.35267	8725
1.35333	8717
1.35400	8710
1.35467	8702
1.35533	8695
1.35600	8688
1.35667	8680
1.35733	8673
1.35800	8666
1.35867	8659
1.35933	8652
1.36000	8645
1.36067	8639
1.36133	8632
1.36200	8625
1.36267	8619
1.36333	8612
1.36400	8606
1.36467	8599
1.36533	8593
1.36600	8587
1.36667	8581
1.36733	8575
1.36800	8569
1.36867	8563
1.36933	8557
1.37000	8551
1.37067	8546
1.37133	8540
1.37200	8535
1.37267	8529
1.37333	8524
1.37400	8518
1.37467	8513
1.37533	8508
1.37600	8503
1.37667	8498
1.37733	8493
1.37800	8488
1.37867	8483
1.37933	8478
1.38000	8473
1.38067	8468
1.38133	8463
1.38200	8458
1.38267	8454
1.38333	8449
1.38400	8444
1.38467	8439
1.38533	8435
1.38600	8430
1.38667	8425
1.38733	8421
1.38800	8416
1.38867	8412
1.38933	8407
1.39000	8403
1.39067	8398
1.39133	8394
1.39200	8389
1.39267	8384
1.39333	8380
1.39400	8375
1.39467	8371
1.39533	8366
1.39600	8362
1.39667	8357
1.39733	8352
1.39800	8348
1.39867	8343
1.39933	8338
1.40000	8334
1.40067	8329
1.40133	8325
1.40200	8320
1.40267	8315
1.40333	8311
1.40400	8306
1.40467	8301
1.40533	8297
1.40600	8292
1.40667	8288
1.40733	8283
1.40800	8279
1.40867	8274
1.40933	8270
1.41000	8265
1.41067	8261
1.41133	8257
1.41200	8252
1.41267	8248
1.41333	8244
1.41400	8240
1.41467	8236
1.41533	8232
1.41600	8227
1.41667	8223
1.41733	8219
1.41800	8216
1.41867	8212
1.41933	8208
1.42000	8204
1.42067	8200
1.42133	8196
1.42200	8193
1.42267	8189
1.42333	8186
1.42400	8182
1.42467	8179
1.42533	8175
1.42600	8172
1.42667	8169
1.42733	8165
1.42800	8162
1.42867	8159
1.42933	8155
1.43000	8152
1.43067	8149
1.43133	8146
1.43200	8143
1.43267	8140
1.43333	8137
1.43400	8134
1.43467	8131
1.43533	8128
1.43600	8125
1.43667	8122
1.43733	8119
1.43800	8117
1.43867	8114
1.43933	8111
1.44000	8108
1.44067	8105
1.44133	8102
1.44200	8100
1.44267	8097
1.44333	8094
1.44400	8091
1.44467	8088
1.44533	8086
1.44600	8083
1.44667	8080
1.44733	8078
1.44800	8075
1.44867	8072
1.44933	8069
1.45000	8066
1.45067	8064
1.45133	8061
1.45200	8058
1.45267	8055
1.45333	8053
1.45400	8050
1.45467	8048
1.45533	8045
1.45600	8042
1.45667	8040
1.45733	8037
1.45800	8034
1.45867	8032
1.45933	8029
1.46000	8027
1.46067	8024
1.46133	8021
1.46200	8019
1.46267	8016
1.46333	8013
1.46400	8011
1.46467	8008
1.46533	8006
1.46600	8003
1.46667	8001
1.46733	7998
1.46800	7995
1.46867	7993
1.46933	7990
1.47000	7988
1.47067	7985
1.47133	7983
1.47200	7980
1.47267	7978
1.47333	7975
1.47400	7973
1.47467	7970
1.47533	7968
1.47600	7965
1.47667	7963
1.47733	7960
1.47800	7958
1.47867	7955
1.47933	7952
1.48000	7950
1.48067	7947
1.48133	7945
1.48200	7942
1.48267	7939
1.48333	7937
1.48400	7934
1.48467	7932
1.48533	7929
1.48600	7926
1.48667	7924
1.48733	7921
1.48800	7919
1.48867	7916
1.48933	7913
1.49000	7911
1.49067	7908
1.49133	7906
1.49200	7903
1.49267	7900
1.49333	7898
1.49400	7895
1.49467	7892
1.49533	7889
1.49600	7886
1.49667	7884
1.49733	7881
1.49800	7878
1.49867	7875
1.49933	7872
1.50000	7869
1.50067	7866
1.50133	7863
1.50200	7860
1.50267	7857
1.50333	7854
1.50400	7851
1.50467	7848
1.50533	7845
1.50600	7842
1.50667	7839
1.50733	7836
1.50800	7833
1.50867	7829
1.50933	7826
1.51000	7823
1.51067	7820
1.51133	7817
1.51200	7814
1.51267	7810
1.51333	7807
1.51400	7804
1.51467	7801
1.51533	7798
1.51600	7794
1.51667	7791
1.51733	7788
1.51800	7785
1.51867	7782
1.51933	7779
1.52000	7775
1.52067	7772
1.52133	7769
1.52200	7766
1.52267	7764
1.52333	7761
1.52400	7758
1.52467	7755
1.52533	7752
1.52600	7749
1.52667	7747
1.52733	7744
1.52800	7741
1.52867	7739
1.52933	7736
1.53000	7733
1.53067	7731
1.53133	7728
1.53200	7726
1.53267	7723
1.53333	7721
1.53400	7718
1.53467	7716
1.53533	7714
1.53600	7711
1.53667	7709
1.53733	7707
1.53800	7705
1.53867	7703
1.53933	7700
1.54000	7698
1.54067	7696
1.54133	7694
1.54200	7691
1.54267	7689
1.54333	7687
1.54400	7685
1.54467	7682
1.54533	7680
1.54600	7678
1.54667	7676
1.54733	7673
1.54800	7671
1.54867	7668
1.54933	7666
1.55000	7664
1.55067	7661
1.55133	7659
1.55200	7656
1.55267	7654
1.55333	7651
1.55400	7649
1.55467	7646
1.55533	7644
1.55600	7641
1.55667	7639
1.55733	7636
1.55800	7634
1.55867	7631
1.55933	7628
1.56000	7626
1.56067	7623
1.56133	7621
1.56200	7618
1.56267	7616
1.56333	7613
1.56400	7611
1.56467	7608
1.56533	7605
1.56600	7603
1.56667	7600
1.56733	7598
1.56800	7595
1.56867	7593
1.56933	7590
1.57000	7588
1.57067	7585
1.57133	7583
1.57200	7581
1.57267	7578
1.57333	7576
1.57400	7573
1.57467	7571
1.57533	7568
1.57600	7566
1.57667	7564
1.57733	7561
1.57800	7559
1.57867	7557
1.57933	7555
1.58000	7552
1.58067	7550
1.58133	7548
1.58200	7546
1.58267	7543
1.58333	7541
1.58400	7539
1.58467	7537
1.58533	7535
1.58600	7532
1.58667	7530
1.58733	7528
1.58800	7526
1.58867	7524
1.58933	7521
1.59000	7519
1.59067	7517
1.59133	7515
1.59200	7512
1.59267	7510
1.59333	7508
1.59400	7506
1.59467	7503
1.59533	7501
1.59600	7499
1.59667	7497
1.59733	7495
1.59800	7492
1.59867	7490
1.59933	7488
1.60000	7486
1.60067	7484
1.60133	7482
1.60200	7479
1.60267	7477
1.60333	7475
1.60400	7473
1.60467	7470
1.60533	7468
1.60600	7466
1.60667	7464
1.60733	7462
1.60800	7459
1.60867	7457
1.60933	7455
1.61000	7453
1.61067	7451
1.61133	7449
1.61200	7447
1.61267	7445
1.61333	7443
1.61400	7440
1.61467	7438
1.61533	7436
1.61600	7435
1.61667	7433
1.61733	7431
1.61800	7429
1.61867	7428
1.61933	7426
1.62000	7424
1.62067	7423
1.62133	7421
1.62200	7419
1.62267	7418
1.62333	7416
1.62400	7414
1.62467	7413
1.62533	7411
1.62600	7409
1.62667	7408
1.62733	7406
1.62800	7404
1.62867	7403
1.62933	7401
1.63000	7399
1.63067	7398
1.63133	7396
1.63200	7395
1.63267	7393
1.63333	7392
1.63400	7390
1.63467	7388
1.63533	7387
1.63600	7385
1.63667	7384
1.63733	7382
1.63800	7381
1.63867	7379
1.63933	7378
1.64000	7377
1.64067	7375
1.64133	7374
1.64200	7372
1.64267	7371
1.64333	7370
1.64400	7368
1.64467	7367
1.64533	7366
1.64600	7364
1.64667	7363
1.64733	7362
1.64800	7361
1.64867	7360
1.64933	7359
1.65000	7358
1.65067	7357
1.65133	7357
1.65200	7356
1.65267	7355
1.65333	7354
1.65400	7354
1.65467	7353
1.65533	7352
1.65600	7351
1.65667	7351
1.65733	7350
1.65800	7349
1.65867	7349
1.65933	7348
1.66000	7347
1.66067	7347
1.66133	7346
1.66200	7345
1.66267	7344
1.66333	7343
1.66400	7343
1.66467	7342
1.66533	7341
1.66600	7340
1.66667	7339
1.66733	7338
1.66800	7337
1.66867	7335
1.66933	7334
1.67000	7333
1.67067	7332
1.67133	7330
1.67200	7329
1.67267	7327
1.67333	7326
1.67400	7324
1.67467	7323
1.67533	7321
1.67600	7320
1.67667	7318
1.67733	7316
1.67800	7315
1.67867	7313
1.67933	7311
1.68000	7309
1.68067	7308
1.68133	7306
1.68200	7304
1.68267	7302
1.68333	7300
1.68400	7298
1.68467	7296
1.68533	7294
1.68600	7292
1.68667	7290
1.68733	7288
1.68800	7286
1.68867	7284
1.68933	7282
1.69000	7280
1.69067	7278
1.69133	7276
1.69200	7274
1.69267	7272
1.69333	7269
1.69400	7267
1.69467	7265
1.69533	7263
1.69600	7261
1.69667	7258
1.69733	7256
1.69800	7254
1.69867	7251
1.69933	7249
1.70000	7247
1.70067	7244
1.70133	7242
1.70200	7240
1.70267	7237
1.70333	7235
1.70400	7232
1.70467	7230
1.70533	7228
1.70600	7225
1.70667	7223
1.70733	7221
1.70800	7218
1.70867	7216
1.70933	7214
1.71000	7212
1.71067	7210
1.71133	7207
1.71200	7205
1.71267	7203
1.71333	7202
1.71400	7200
1.71467	7199
1.71533	7197
1.71600	7196
1.71667	7196
1.71733	7196
1.71800	7196
1.71867	7197
1.71933	7199
1.72000	7202
1.72067	7207
1.72133	7213
1.72200	7221
1.72267	7231
1.72333	7245
1.72400	7262
1.72467	7283
1.72533	7309
1.72600	7341
1.72667	7381
1.72733	7429
1.72800	7487
1.72867	7557
1.72933	7642
1.73000	7743
1.73067	7863
1.73133	8004
1.73200	8171
1.73267	8366
1.73333	8593
1.73400	8857
1.73467	9162
1.73533	9514
1.73600	9918
1.73667	10380
1.73733	10907
1.73800	11505
1.73867	12182
1.73933	12946
1.74000	13803
1.74067	14763
1.74133	15834
1.74200	17026
1.74267	18346
1.74333	19805
1.74400	21412
1.74467	23176
1.74533	25106
1.74600	27211
1.74667	29500
1.74733	31983
1.74800	34667
1.74867	37559
1.74933	40665
1.75000	43989
1.75067	47535
1.75133	51304
1.75200	55294
1.75267	59507
1.75333	63942
1.75400	68595
1.75467	73462
1.75533	78535
1.75600	83805
1.75667	89261
1.75733	94892
1.75800	100687
1.75867	106632
1.75933	112712
1.76000	118908
1.76067	125198
1.76133	131560
1.76200	137968
1.76267	144398
1.76333	150823
1.76400	157217
1.76467	163550
1.76533	169796
1.76600	175927
1.76667	181917
1.76733	187741
1.76800	193373
1.76867	198793
1.76933	203980
1.77000	208916
1.77067	213584
1.77133	217971
1.77200	222062
1.77267	225848
1.77333	229318
1.77400	232468
1.77467	235293
1.77533	237793
1.77600	239969
1.77667	241824
1.77733	243363
1.77800	244592
1.77867	245517
1.77933	246147
1.78000	246491
1.78067	246559
1.78133	246363
1.78200	245912
1.78267	245220
1.78333	244299
1.78400	243162
1.78467	241821
1.78533	240288
1.78600	238576
1.78667	236698
1.78733	234664
1.78800	232486
1.78867	230176
1.78933	227745
1.79000	225202
1.79067	222559
1.79133	219825
1.79200	217009
1.79267	214120
1.79333	211166
1.79400	208156
1.79467	205098
1.79533	201998
1.79600	198863
1.79667	195699
1.79733	192513
1.79800	189310
1.79867	186095
1.79933	182873
1.80000	179650
1.80067	176428
1.80133	173213
1.80200	170008
1.80267	166816
1.80333	163640
1.80400	160484
1.80467	157351
1.80533	154241
1.80600	151159
1.80667	148106
1.80733	145084
1.80800	142095
1.80867	139140
1.80933	136221
1.81000	133339
1.81067	130495
1.81133	127691
1.81200	124927
1.81267	122203
1.81333	119521
1.81400	116882
1.81467	114285
1.81533	111731
1.81600	109221
1.81667	106754
1.81733	104331
1.81800	101952
1.81867	99617
1.81933	97325
1.82000	95077
1.82067	92873
1.82133	90712
1.82200	88595
1.82267	86520
1.82333	84488
1.82400	82498
1.82467	80550
1.82533	78644
1.82600	76779
1.82667	74955
1.82733	73170
1.82800	71426
1.82867	69720
1.82933	68054
1.83000	66425
1.83067	64834
1.83133	63280
1.83200	61762
1.83267	60280
1.83333	58834
1.83400	57422
1.83467	56044
1.83533	54700
1.83600	53389
1.83667	52110
1.83733	50862
1.83800	49646
1.83867	48460
1.83933	47305
1.84000	46178
1.84067	45080
1.84133	44010
1.84200	42968
1.84267	41953
1.84333	40964
1.84400	40001
1.84467	39063
1.84533	38149
1.84600	37260
1.84667	36395
1.84733	35552
1.84800	34732
1.84867	33935
1.84933	33158
1.85000	32403
1.85067	31668
1.85133	30953
1.85200	30258
1.85267	29582
1.85333	28924
1.85400	28285
1.85467	27663
1.85533	27059
1.85600	26471
1.85667	25900
1.85733	25345
1.85800	24805
1.85867	24281
1.85933	23771
1.86000	23276
1.86067	22794
1.86133	22326
1.86200	21872
1.86267	21430
1.86333	21001
1.86400	20584
1.86467	20179
1.86533	19785
1.86600	19403
1.86667	19032
1.86733	18671
1.86800	18321
1.86867	17981
1.86933	17650
1.87000	17329
1.87067	17018
1.87133	16715
1.87200	16421
1.87267	16136
1.87333	15859
1.87400	15590
1.87467	15329
1.87533	15075
1.87600	14829
1.87667	14590
1.87733	14358
1.87800	14132
1.87867	13914
1.87933	13701
1.88000	13495
1.88067	13295
1.88133	13101
1.88200	12913
1.88267	12730
1.88333	12552
1.88400	12380
1.88467	12213
1.88533	12051
1.88600	11893
1.88667	11741
1.88733	11592
1.88800	11448
1.88867	11309
1.88933	11173
1.89000	11041
1.89067	10914
1.89133	10790
1.89200	10669
1.89267	10552
1.89333	10439
1.89400	10329
1.89467	10222
1.89533	10118
1.89600	10018
1.89667	9920
1.89733	9825
1.89800	9733
1.89867	9644
1.89933	9557
1.90000	9473
1.90067	9391
1.90133	9312
1.90200	9235
1.90267	9160
1.90333	9088
1.90400	9017
1.90467	8949
1.90533	8882
1.90600	8818
1.90667	8755
1.90733	8695
1.90800	8636
1.90867	8578
1.90933	8523
1.91000	8469
1.91067	8416
1.91133	8365
1.91200	8315
1.91267	8267
1.91333	8220
1.91400	8174
1.91467	8130
1.91533	8086
1.91600	8044
1.91667	8003
1.91733	7963
1.91800	7924
1.91867	7885
1.91933	7848
1.92000	7812
1.92067	7777
1.92133	7742
1.92200	7709
1.92267	7676
1.92333	7644
1.92400	7613
1.92467	7583
1.92533	7553
1.92600	7524
1.92667	7496
1.92733	7468
1.92800	7441
1.92867	7415
1.92933	7389
1.93000	7364
1.93067	7339
1.93133	7315
1.93200	7292
1.93267	7269
1.93333	7246
1.93400	7224
1.93467	7203
1.93533	7182
1.93600	7162
1.93667	7142
1.93733	7123
1.93800	7104
1.93867	7086
1.93933	7068
1.94000	7050
1.94067	7033
1.94133	7017
1.94200	7000
1.94267	6984
1.94333	6969
1.94400	6954
1.94467	6939
1.94533	6924
1.94600	6910
1.94667	6896
1.94733	6883
1.94800	6870
1.94867	6857
1.94933	6844
1.95000	6832
1.95067	6820
1.95133	6809
1.95200	6797
1.95267	6786
1.95333	6775
1.95400	6764
1.95467	6753
1.95533	6743
1.95600	6733
1.95667	6723
1.95733	6713
1.95800	6704
1.95867	6695
1.95933	6685
1.96000	6677
1.96067	6668
1.96133	6659
1.96200	6651
1.96267	6642
1.96333	6634
1.96400	6626
1.96467	6618
1.96533	6611
1.96600	6603
1.96667	6596
1.96733	6588
1.96800	6581
1.96867	6574
1.96933	6567
1.97000	6561
1.97067	6554
1.97133	6547
1.97200	6541
1.97267	6535
1.97333	6528
1.97400	6522
1.97467	6516
1.97533	6510
1.97600	6504
1.97667	6498
1.97733	6493
1.97800	6487
1.97867	6481
1.97933	6476
1.98000	6470
1.98067	6465
1.98133	6459
1.98200	6454
1.98267	6448
1.98333	6443
1.98400	6438
1.98467	6433
1.98533	6428
1.98600	6423
1.98667	6418
1.98733	6413
1.98800	6408
1.98867	6404
1.98933	6399
1.99000	6395
1.99067	6390
1.99133	6386
1.99200	6382
1.99267	6377
1.99333	6373
1.99400	6369
1.99467	6365
1.99533	6361
1.99600	6357
1.99667	6353
1.99733	6350
1.99800	6346
1.99867	6342
1.99933	6339
2.00000	6335
2.00067	6331
2.00133	6328
2.00200	6324
2.00267	6321
2.00333	6317
2.00400	6313
2.00467	6310
2.00533	6306
2.00600	6302
2.00667	6299
2.00733	6295
2.00800	6291
2.00867	6287
2.00933	6284
2.01000	6280
2.01067	6276
2.01133	6272
2.01200	6269
2.01267	6265
2.01333	6261
2.01400	6257
2.01467	6253
2.01533	6250
2.01600	6246
2.01667	6242
2.01733	6238
2.01800	6234
2.01867	6230
2.01933	6226
2.02000	6222
2.02067	6218
2.02133	6214
2.02200	6211
2.02267	6207
2.02333	6203
2.02400	6199
2.02467	6195
2.02533	6191
2.02600	6187
2.02667	6184
2.02733	6180
2.02800	6176
2.02867	6173
2.02933	6169
2.03000	6165
2.03067	6162
2.03133	6158
2.03200	6154
2.03267	6151
2.03333	6147
2.03400	6144
2.03467	6140
2.03533	6137
2.03600	6134
2.03667	6130
2.03733	6127
2.03800	6124
2.03867	6121
2.03933	6117
2.04000	6114
2.04067	6111
2.04133	6108
2.04200	6105
2.04267	6102
2.04333	6099
2.04400	6096
2.04467	6093
2.04533	6090
2.04600	6087
2.04667	6084
2.04733	6082
2.04800	6079
2.04867	6076
2.04933	6073
2.05000	6070
2.05067	6067
2.05133	6064
2.05200	6061
2.05267	6058
2.05333	6056
2.05400	6053
2.05467	6050
2.05533	6047
2.05600	6044
2.05667	6041
2.05733	6039
2.05800	6036
2.05867	6033
2.05933	6030
2.06000	6027
2.06067	6024
2.06133	6022
2.06200	6019
2.06267	6016
2.06333	6013
2.06400	6011
2.06467	6008
2.06533	6005
2.06600	6003
2.06667	6000
2.06733	5997
2.06800	5994
2.06867	5992
2.06933	5989
2.07000	5986
2.07067	5983
2.07133	5981
2.07200	5978
2.07267	5975
2.07333	5972
2.07400	5970
2.07467	5967
2.07533	5964
2.07600	5962
2.07667	5959
2.07733	5956
2.07800	5954
2.07867	5951
2.07933	5948
2.08000	5946
2.08067	5943
2.08133	5940
2.08200	5937
2.08267	5935
2.08333	5932
2.08400	5929
2.08467	5926
2.08533	5924
2.08600	5921
2.08667	5918
2.08733	5916
2.08800	5913
2.08867	5910
2.08933	5908
2.09000	5905
2.09067	5903
2.09133	5901
2.09200	5898
2.09267	5896
2.09333	5893
2.09400	5891
2.09467	5889
2.09533	5886
2.09600	5884
2.09667	5881
2.09733	5879
2.09800	5877
2.09867	5875
2.09933	5872
2.10000	5870
2.10067	5868
2.10133	5866
2.10200	5863
2.10267	5861
2.10333	5859
2.10400	5857
2.10467	5855
2.10533	5853
2.10600	5851
2.10667	5849
2.10733	5847
2.10800	5845
2.10867	5843
2.10933	5840
2.11000	5838
2.11067	5836
2.11133	5834
2.11200	5832
2.11267	5830
2.11333	5828
2.11400	5826
2.11467	5824
2.11533	5822
2.11600	5820
2.11667	5818
2.11733	5816
2.11800	5814
2.11867	5812
2.11933	5810
2.12000	5808
2.12067	5806
2.12133	5804
2.12200	5802
2.12267	5800
2.12333	5798
2.12400	5796
2.12467	5794
2.12533	5792
2.12600	5790
2.12667	5788
2.12733	5786
2.12800	5784
2.12867	5782
2.12933	5780
2.13000	5778
2.13067	5776
2.13133	5774
2.13200	5772
2.13267	5770
2.13333	5768
2.13400	5766
2.13467	5764
2.13533	5762
2.13600	5760
2.13667	5758
2.13733	5756
2.13800	5754
2.13867	5752
2.13933	5750
2.14000	5748
2.14067	5746
2.14133	5744
2.14200	5742
2.14267	5740
2.14333	5738
2.14400	5736
2.14467	5733
2.14533	5731
2.14600	5729
2.14667	5727
2.14733	5725
2.14800	5723
2.14867	5721
2.14933	5719
2.15000	5717
2.15067	5715
2.15133	5713
2.15200	5711
2.15267	5709
2.15333	5707
2.15400	5705
2.15467	5703
2.15533	5701
2.15600	5699
2.15667	5697
2.15733	5695
2.15800	5693
2.15867	5691
2.15933	5689
2.16000	5687
2.16067	5685
2.16133	5683
2.16200	5681
2.16267	5679
2.16333	5677
2.16400	5675
2.16467	5673
2.16533	5670
2.16600	5668
2.16667	5666
2.16733	5664
2.16800	5662
2.16867	5660
2.16933	5658
2.17000	5656
2.17067	5654
2.17133	5652
2.17200	5650
2.17267	5648
2.17333	5647
2.17400	5645
2.17467	5643
2.17533	5641
2.17600	5639
2.17667	5637
2.17733	5635
2.17800	5633
2.17867	5631
2.17933	5630
2.18000	5628
2.18067	5626
2.18133	5624
2.18200	5622
2.18267	5620
2.18333	5619
2.18400	5617
2.18467	5615
2.18533	5613
2.18600	5611
2.18667	5610
2.18733	5608
2.18800	5606
2.18867	5605
2.18933	5603
2.19000	5601
2.19067	5600
2.19133	5598
2.19200	5596
2.19267	5594
2.19333	5593
2.19400	5591
2.19467	5589
2.19533	5588
2.19600	5586
2.19667	5584
2.19733	5583
2.19800	5581
2.19867	5580
2.19933	5579
2.20000	5577
2.20067	5576
2.20133	5574
2.20200	5573
2.20267	5572
2.20333	5571
2.20400	5569
2.20467	5568
2.20533	5567
2.20600	5566
2.20667	5565
2.20733	5564
2.20800	5563
2.20867	5562
2.20933	5561
2.21000	5560
2.21067	5559
2.21133	5558
2.21200	5558
2.21267	5557
2.21333	5556
2.21400	5556
2.21467	5555
2.21533	5555
2.21600	5554
2.21667	5554
2.21733	5554
2.21800	5553
2.21867	5553
2.21933	5553
2.22000	5552
2.22067	5552
2.22133	5552
2.22200	5552
2.22267	5552
2.22333	5552
2.22400	5552
2.22467	5552
2.22533	5552
2.22600	5552
2.22667	5551
2.22733	5551
2.22800	5551
2.22867	5551
2.22933	5551
2.23000	5550
2.23067	5550
2.23133	5549
2.23200	5549
2.23267	5548
2.23333	5548
2.23400	5547
2.23467	5547
2.23533	5546
2.23600	5545
2.23667	5544
2.23733	5544
2.23800	5543
2.23867	5542
2.23933	5541
2.24000	5541
2.24067	5540
2.24133	5539
2.24200	5538
2.24267	5538
2.24333	5537
2.24400	5536
2.24467	5535
2.24533	5535
2.24600	5534
2.24667	5533
2.24733	5533
2.24800	5532
2.24867	5531
2.24933	5530
2.25000	5530
2.25067	5529
2.25133	5528
2.25200	5527
2.25267	5527
2.25333	5526
2.25400	5525
2.25467	5524
2.25533	5524
2.25600	5523
2.25667	5522
2.25733	5521
2.25800	5520
2.25867	5519
2.25933	5518
2.26000	5517
2.26067	5516
2.26133	5515
2.26200	5514
2.26267	5513
2.26333	5511
2.26400	5510
2.26467	5509
2.26533	5508
2.26600	5506
2.26667	5505
2.26733	5504
2.26800	5502
2.26867	5501
2.26933	5499
2.27000	5498
2.27067	5496
2.27133	5495
2.27200	5493
2.27267	5492
2.27333	5490
2.27400	5488
2.27467	5486
2.27533	5485
2.27600	5483
2.27667	5481
2.27733	5479
2.27800	5478
2.27867	5476
2.27933	5474
2.28000	5472
2.28067	5471
2.28133	5469
2.28200	5467
2.28267	5465
2.28333	5463
2.28400	5461
2.28467	5460
2.28533	5458
2.28600	5456
2.28667	5454
2.28733	5452
2.28800	5451
2.28867	5449
2.28933	5447
2.29000	5445
2.29067	5444
2.29133	5442
2.29200	5440
2.29267	5439
2.29333	5437
2.29400	5435
2.29467	5434
2.29533	5432
2.29600	5431
2.29667	5429
2.29733	5428
2.29800	5427
2.29867	5425
2.29933	5424
2.30000	5423
2.30067	5421
2.30133	5420
2.30200	5419
2.30267	5418
2.30333	5416
2.30400	5415
2.30467	5414
2.30533	5413
2.30600	5412
2.30667	5411
2.30733	5410
2.30800	5409
2.30867	5408
2.30933	5407
2.31000	5406
2.31067	5405
2.31133	5404
2.31200	5403
2.31267	5402
2.31333	5401
2.31400	5400
2.31467	5400
2.31533	5399
2.31600	5398
2.31667	5398
2.31733	5397
2.31800	5397
2.31867	5396
2.31933	5396
2.32000	5395
2.32067	5395
2.32133	5394
2.32200	5394
2.32267	5394
2.32333	5393
2.32400	5393
2.32467	5393
2.32533	5392
2.32600	5392
2.32667	5392
2.32733	5392
2.32800	5392
2.32867	5391
2.32933	5391
2.33000	5391
2.33067	5391
2.33133	5391
2.33200	5391
2.33267	5391
2.33333	5391
2.33400	5391
2.33467	5391
2.33533	5391
2.33600	5391
2.33667	5391
2.33733	5391
2.33800	5391
2.33867	5391
2.33933	5391
2.34000	5392
2.34067	5392
2.34133	5392
2.34200	5392
2.34267	5393
2.34333	5393
2.34400	5393
2.34467	5394
2.34533	5394
2.34600	5394
2.34667	5395
2.34733	5395
2.34800	5396
2.34867	5396
2.34933	5397
2.35000	5397
2.35067	5398
2.35133	5399
2.35200	5400
2.35267	5400
2.35333	5401
2.35400	5402
2.35467	5403
2.35533	5404
2.35600	5404
2.35667	5405
2.35733	5406
2.35800	5407
2.35867	5408
2.35933	5409
2.36000	5410
2.36067	5411
2.36133	5412
2.36200	5412
2.36267	5413
2.36333	5414
2.36400	5415
2.36467	5416
2.36533	5417
2.36600	5418
2.36667	5419
2.36733	5419
2.36800	5420
2.36867	5421
2.36933	5421
2.37000	5422
2.37067	5423
2.37133	5423
2.37200	5424
2.37267	5424
2.37333	5425
2.37400	5425
2.37467	5425
2.37533	5426
2.37600	5426
2.37667	5426
2.37733	5427
2.37800	5427
2.37867	5427
2.37933	5427
2.38000	5427
2.38067	5427
2.38133	5427
2.38200	5426
2.38267	5426
2.38333	5426
2.38400	5425
2.38467	5425
2.38533	5424
2.38600	5423
2.38667	5423
2.38733	5422
2.38800	5422
2.38867	5421
2.38933	5420
2.39000	5420
2.39067	5419
2.39133	5418
2.39200	5417
2.39267	5417
2.39333	5416
2.39400	5415
2.39467	5414
2.39533	5413
2.39600	5412
2.39667	5412
2.39733	5411
2.39800	5410
2.39867	5409
2.39933	5408
2.40000	5407
2.40067	5406
2.40133	5405
2.40200	5404
2.40267	5403
2.40333	5402
2.40400	5401
2.40467	5399
2.40533	5398
2.40600	5397
2.40667	5396
2.40733	5395
2.40800	5394
2.40867	5393
2.40933	5392
2.41000	5390
2.41067	5389
2.41133	5388
2.41200	5387
2.41267	5386
2.41333	5384
2.41400	5383
2.41467	5382
2.41533	5381
2.41600	5380
2.41667	5379
2.41733	5378
2.41800	5376
2.41867	5375
2.41933	5374
2.42000	5373
2.42067	5371
2.42133	5370
2.42200	5369
2.42267	5368
2.42333	5366
2.42400	5365
2.42467	5364
2.42533	5362
2.42600	5361
2.42667	5359
2.42733	5358
2.42800	5356
2.42867	5354
2.42933	5352
2.43000	5351
2.43067	5349
2.43133	5347
2.43200	5345
2.43267	5343
2.43333	5341
2.43400	5339
2.43467	5336
2.43533	5334
2.43600	5332
2.43667	5330
2.43733	5327
2.43800	5325
2.43867	5322
2.43933	5320
2.44000	5318
2.44067	5315
2.44133	5312
2.44200	5310
2.44267	5307
2.44333	5305
2.44400	5302
2.44467	5299
2.44533	5296
2.44600	5294
2.44667	5291
2.44733	5288
2.44800	5285
2.44867	5282
2.44933	5279
2.45000	5277
2.45067	5274
2.45133	5271
2.45200	5268
2.45267	5265
2.45333	5262
2.45400	5260
2.45467	5257
2.45533	5254
2.45600	5251
2.45667	5248
2.45733	5246
2.45800	5243
2.45867	5240
2.45933	5237
2.46000	5234
2.46067	5232
2.46133	5229
2.46200	5226
2.46267	5223
2.46333	5221
2.46400	5218
2.46467	5215
2.46533	5212
2.46600	5210
2.46667	5207
2.46733	5204
2.46800	5202
2.46867	5199
2.46933	5197
2.47000	5194
2.47067	5191
2.47133	5189
2.47200	5186
2.47267	5184
2.47333	5181
2.47400	5178
2.47467	5176
2.47533	5173
2.47600	5171
2.47667	5168
2.47733	5166
2.47800	5163
2.47867	5161
2.47933	5158
2.48000	5156
2.48067	5154
2.48133	5151
2.48200	5149
2.48267	5147
2.48333	5144
2.48400	5142
2.48467	5140
2.48533	5137
2.48600	5135
2.48667	5133
2.48733	5130
2.48800	5128
2.48867	5126
2.48933	5124
2.49000	5121
2.49067	5119
2.49133	5117
2.49200	5115
2.49267	5112
2.49333	5110
2.49400	5108
2.49467	5106
2.49533	5104
2.49600	5102
2.49667	5099
2.49733	5097
2.49800	5095
2.49867	5093
2.49933	5091
2.50000	5089
2.50067	5087
2.50133	5085
2.50200	5083
2.50267	5081
2.50333	5079
2.50400	5077
2.50467	5075
2.50533	5074
2.50600	5072
2.50667	5070
2.50733	5068
2.50800	5066
2.50867	5064
2.50933	5063
2.51000	5061
2.51067	5059
2.51133	5057
2.51200	5056
2.51267	5054
2.51333	5052
2.51400	5050
2.51467	5049
2.51533	5047
2.51600	5045
2.51667	5043
2.51733	5041
2.51800	5040
2.51867	5038
2.51933	5036
2.52000	5034
2.52067	5032
2.52133	5031
2.52200	5029
2.52267	5027
2.52333	5025
2.52400	5024
2.52467	5022
2.52533	5020
2.52600	5019
2.52667	5017
2.52733	5016
2.52800	5014
2.52867	5013
2.52933	5011
2.53000	5009
2.53067	5008
2.53133	5006
2.53200	5005
2.53267	5003
2.53333	5002
2.53400	5000
2.53467	4999
2.53533	4997
2.53600	4995
2.53667	4994
2.53733	4992
2.53800	4991
2.53867	4989
2.53933	4988
2.54000	4986
2.54067	4985
2.54133	4983
2.54200	4982
2.54267	4980
2.54333	4979
2.54400	4978
2.54467	4976
2.54533	4975
2.54600	4973
2.54667	4972
2.54733	4970
2.54800	4969
2.54867	4968
2.54933	4966
2.55000	4965
2.55067	4963
2.55133	4962
2.55200	4961
2.55267	4959
2.55333	4958
2.55400	4957
2.55467	4955
2.55533	4954
2.55600	4952
2.55667	4951
2.55733	4950
2.55800	4948
2.55867	4947
2.55933	4945
2.56000	4944
2.56067	4942
2.56133	4940
2.56200	4939
2.56267	4937
2.56333	4936
2.56400	4934
2.56467	4933
2.56533	4931
2.56600	4930
2.56667	4928
2.56733	4927
2.56800	4926
2.56867	4924
2.56933	4923
2.57000	4921
2.57067	4920
2.57133	4919
2.57200	4917
2.57267	4916
2.57333	4914
2.57400	4913
2.57467	4912
2.57533	4910
2.57600	4909
2.57667	4907
2.57733	4906
2.57800	4905
2.57867	4904
2.57933	4902
2.58000	4901
2.58067	4900
2.58133	4899
2.58200	4897
2.58267	4896
2.58333	4895
2.58400	4894
2.58467	4892
2.58533	4891
2.58600	4890
2.58667	4888
2.58733	4887
2.58800	4886
2.58867	4884
2.58933	4883
2.59000	4882
2.59067	4880
2.59133	4879
2.59200	4877
2.59267	4876
2.59333	4875
2.59400	4873
2.59467	4872
2.59533	4870
2.59600	4869
2.59667	4867
2.59733	4866
2.59800	4864
2.59867	4863
2.59933	4861
2.60000	4860
2.60067	4858
2.60133	4857
2.60200	4855
2.60267	4854
2.60333	4852
2.60400	4851
2.60467	4849
2.60533	4848
2.60600	4846
2.60667	4845
2.60733	4843
2.60800	4842
2.60867	4841
2.60933	4839
2.61000	4838
2.61067	4836
2.61133	4835
2.61200	4833
2.61267	4832
2.61333	4831
2.61400	4829
2.61467	4828
2.61533	4826
2.61600	4825
2.61667	4824
2.61733	4822
2.61800	4821
2.61867	4820
2.61933	4818
2.62000	4817
2.62067	4816
2.62133	4814
2.62200	4813
2.62267	4812
2.62333	4810
2.62400	4809
2.62467	4808
2.62533	4806
2.62600	4805
2.62667	4804
2.62733	4802
2.62800	4801
2.62867	4800
2.62933	4798
2.63000	4797
2.63067	4796
2.63133	4795
2.63200	4793
2.63267	4792
2.63333	4791
2.63400	4789
2.63467	4788
2.63533	4787
2.63600	4786
2.63667	4784
2.63733	4783
2.63800	4782
2.63867	4780
2.63933	4779
2.64000	4778
2.64067	4776
2.64133	4775
2.64200	4774
2.64267	4772
2.64333	4771
2.64400	4770
2.64467	4768
2.64533	4767
2.64600	4765
2.64667	4764
2.64733	4763
2.64800	4761
2.64867	4760
2.64933	4758
2.65000	4757
2.65067	4756
2.65133	4754
2.65200	4753
2.65267	4752
2.65333	4750
2.65400	4749
2.65467	4748
2.65533	4746
2.65600	4745
2.65667	4743
2.65733	4742
2.65800	4741
2.65867	4739
2.65933	4738
2.66000	4736
2.66067	4735
2.66133	4734
2.66200	4732
2.66267	4731
2.66333	4729
2.66400	4728
2.66467	4726
2.66533	4725
2.66600	4724
2.66667	4722
2.66733	4721
2.66800	4719
2.66867	4718
2.66933	4717
2.67000	4715
2.67067	4714
2.67133	4712
2.67200	4711
2.67267	4710
2.67333	4708
2.67400	4707
2.67467	4706
2.67533	4705
2.67600	4703
2.67667	4702
2.67733	4701
2.67800	4699
2.67867	4698
2.67933	4697
2.68000	4696
2.68067	4695
2.68133	4694
2.68200	4692
2.68267	4691
2.68333	4690
2.68400	4689
2.68467	4688
2.68533	4687
2.68600	4686
2.68667	4685
2.68733	4684
2.68800	4683
2.68867	4682
2.68933	4681
2.69000	4680
2.69067	4679
2.69133	4678
2.69200	4677
2.69267	4676
2.69333	4675
2.69400	4674
2.69467	4674
2.69533	4673
2.69600	4672
2.69667	4671
2.69733	4670
2.69800	4669
2.69867	4668
2.69933	4667
2.70000	4666
2.70067	4666
2.70133	4665
2.70200	4664
2.70267	4663
2.70333	4662
2.70400	4662
2.70467	4661
2.70533	4660
2.70600	4659
2.70667	4659
2.70733	4658
2.70800	4657
2.70867	4657
2.70933	4656
2.71000	4655
2.71067	4654
2.71133	4654
2.71200	4653
2.71267	4652
2.71333	4651
2.71400	4651
2.71467	4650
2.71533	4649
2.71600	4648
2.71667	4648
2.71733	4647
2.71800	4646
2.71867	4645
2.71933	4645
2.72000	4644
2.72067	4643
2.72133	4642
2.72200	4642
2.72267	4641
2.72333	4640
2.72400	4639
2.72467	4639
2.72533	4638
2.72600	4637
2.72667	4636
2.72733	4636
2.72800	4635
2.72867	4634
2.72933	4634
2.73000	4633
2.73067	4632
2.73133	4632
2.73200	4631
2.73267	4630
2.73333	4629
2.73400	4629
2.73467	4628
2.73533	4627
2.73600	4627
2.73667	4626
2.73733	4625
2.73800	4624
2.73867	4624
2.73933	4623
2.74000	4622
2.74067	4621
2.74133	4621
2.74200	4620
2.74267	4619
2.74333	4619
2.74400	4618
2.74467	4617
2.74533	4617
2.74600	4616
2.74667	4615
2.74733	4615
2.74800	4614
2.74867	4613
2.74933	4613
2.75000	4612
2.75067	4611
2.75133	4610
2.75200	4610
2.75267	4609
2.75333	4609
2.75400	4608
2.75467	4607
2.75533	4607
2.75600	4606
2.75667	4605
2.75733	4605
2.75800	4604
2.75867	4604
2.75933	4603
2.76000	4603
2.76067	4602
2.76133	4602
2.76200	4601
2.76267	4601
2.76333	4600
2.76400	4600
2.76467	4599
2.76533	4599
2.76600	4599
2.76667	4598
2.76733	4598
2.76800	4598
2.76867	4597
2.76933	4597
2.77000	4597
2.77067	4597
2.77133	4597
2.77200	4597
2.77267	4596
2.77333	4596
2.77400	4596
2.77467	4596
2.77533	4596
2.77600	4597
2.77667	4597
2.77733	4597
2.77800	4597
2.77867	4597
2.77933	4597
2.78000	4598
2.78067	4598
2.78133	4598
2.78200	4599
2.78267	4599
2.78333	4599
2.78400	4600
2.78467	4600
2.78533	4601
2.78600	4601
2.78667	4602
2.78733	4602
2.78800	4603
2.78867	4603
2.78933	4604
2.79000	4605
2.79067	4605
2.79133	4606
2.79200	4606
2.79267	4607
2.79333	4608
2.79400	4608
2.79467	4609
2.79533	4610
2.79600	4610
2.79667	4611
2.79733	4612
2.79800	4612
2.79867	4613
2.79933	4614
2.80000	4614
2.80067	4615
2.80133	4616
2.80200	4617
2.80267	4617
2.80333	4618
2.80400	4619
2.80467	4619
2.80533	4620
2.80600	4621
2.80667	4621
2.80733	4622
2.80800	4623
2.80867	4623
2.80933	4624
2.81000	4625
2.81067	4625
2.81133	4626
2.81200	4626
2.81267	4627
2.81333	4628
2.81400	4628
2.81467	4629
2.81533	4629
2.81600	4629
2.81667	4630
2.81733	4630
2.81800	4631
2.81867	4631
2.81933	4631
2.82000	4632
2.82067	4632
2.82133	4632
2.82200	4633
2.82267	4633
2.82333	4633
2.82400	4633
2.82467	4633
2.82533	4633
2.82600	4633
2.82667	4633
2.82733	4633
2.82800	4633
2.82867	4633
2.82933	4633
2.83000	4633
2.83067	4633
2.83133	4633
2.83200	4632
2.83267	4632
2.83333	4632
2.83400	4632
2.83467	4631
2.83533	4631
2.83600	4631
2.83667	4631
2.83733	4630
2.83800	4630
2.83867	4630
2.83933	4629
2.84000	4629
2.84067	4628
2.84133	4628
2.84200	4628
2.84267	4627
2.84333	4627
2.84400	4627
2.84467	4626
2.84533	4626
2.84600	4626
2.84667	4625
2.84733	4625
2.84800	4625
2.84867	4625
2.84933	4624
2.85000	4624
2.85067	4623
2.85133	4623
2.85200	4623
2.85267	4622
2.85333	4622
2.85400	4622
2.85467	4621
2.85533	4621
2.85600	4621
2.85667	4621
2.85733	4620
2.85800	4620
2.85867	4620
2.85933	4620
2.86000	4620
2.86067	4620
2.86133	4620
2.86200	4620
2.86267	4620
2.86333	4620
2.86400	4620
2.86467	4621
2.86533	4621
2.86600	4621
2.86667	4622
2.86733	4622
2.86800	4623
2.86867	4623
2.86933	4624
2.87000	4625
2.87067	4626
2.87133	4627
2.87200	4628
2.87267	4629
2.87333	4630
2.87400	4631
2.87467	4632
2.87533	4633
2.87600	4635
2.87667	4636
2.87733	4638
2.87800	4640
2.87867	4642
2.87933	4644
2.88000	4646
2.88067	4648
2.88133	4651
2.88200	4653
2.88267	4656
2.88333	4659
2.88400	4662
2.88467	4665
2.88533	4668
2.88600	4671
2.88667	4675
2.88733	4678
2.88800	4682
2.88867	4686
2.88933	4690
2.89000	4694
2.89067	4698
2.89133	4703
2.89200	4707
2.89267	4711
2.89333	4716
2.89400	4721
2.89467	4726
2.89533	4730
2.89600	4735
2.89667	4740
2.89733	4745
2.89800	4750
2.89867	4755
2.89933	4761
2.90000	4766
2.90067	4771
2.90133	4776
2.90200	4781
2.90267	4786
2.90333	4791
2.90400	4796
2.90467	4800
2.90533	4805
2.90600	4809
2.90667	4814
2.90733	4818
2.90800	4822
2.90867	4825
2.90933	4829
2.91000	4833
2.91067	4836
2.91133	4839
2.91200	4842
2.91267	4844
2.91333	4846
2.91400	4849
2.91467	4850
2.91533	4852
2.91600	4853
2.91667	4854
2.91733	4855
2.91800	4855
2.91867	4855
2.91933	4855
2.92000	4855
2.92067	4854
2.92133	4853
2.92200	4851
2.92267	4850
2.92333	4848
2.92400	4846
2.92467	4843
2.92533	4840
2.92600	4837
2.92667	4834
2.92733	4830
2.92800	4826
2.92867	4822
2.92933	4818
2.93000	4813
2.93067	4808
2.93133	4803
2.93200	4798
2.93267	4792
2.93333	4787
2.93400	4781
2.93467	4775
2.93533	4769
2.93600	4763
2.93667	4756
2.93733	4750
2.93800	4743
2.93867	4736
2.93933	4729
2.94000	4722
2.94067	4715
2.94133	4708
2.94200	4701
2.94267	4694
2.94333	4686
2.94400	4679
2.94467	4671
2.94533	4664
2.94600	4656
2.94667	4649
2.94733	4641
2.94800	4634
2.94867	4626
2.94933	4619
2.95000	4611
2.95067	4603
2.95133	4596
2.95200	4588
2.95267	4581
2.95333	4573
2.95400	4566
2.95467	4559
2.95533	4552
2.95600	4544
2.95667	4537
2.95733	4530
2.95800	4523
2.95867	4516
2.95933	4510
2.96000	4503
2.96067	4496
2.96133	4489
2.96200	4483
2.96267	4476
2.96333	4470
2.96400	4464
2.96467	4458
2.96533	4452
2.96600	4446
2.96667	4440
2.96733	4434
2.96800	4428
2.96867	4423
2.96933	4417
2.97000	4412
2.97067	4407
2.97133	4401
2.97200	4396
2.97267	4391
2.97333	4386
2.97400	4381
2.97467	4376
2.97533	4371
2.97600	4367
2.97667	4362
2.97733	4358
2.97800	4353
2.97867	4349
2.97933	4345
2.98000	4341
2.98067	4337
2.98133	4333
2.98200	4329
2.98267	4325
2.98333	4321
2.98400	4318
2.98467	4314
2.98533	4311
2.98600	4307
2.98667	4304
2.98733	4300
2.98800	4297
2.98867	4294
2.98933	4291
2.99000	4288
2.99067	4285
2.99133	4282
2.99200	4279
2.99267	4276
2.99333	4273
2.99400	4270
2.99467	4267
2.99533	4264
2.99600	4261
2.99667	4259
2.99733	4256
2.99800	4253
2.99867	4251
2.99933	4248
3.00000	4245
3.00067	4243
3.00133	4240
3.00200	4238
3.00267	4235
3.00333	4232
3.00400	4230
3.00467	4227
3.00533	4225
3.00600	4222
3.00667	4220
3.00733	4217
3.00800	4215
3.00867	4213
3.00933	4210
3.01000	4208
3.01067	4206
3.01133	4203
3.01200	4201
3.01267	4199
3.01333	4197
3.01400	4194
3.01467	4192
3.01533	4190
3.01600	4188
3.01667	4185
3.01733	4183
3.01800	4181
3.01867	4179
3.01933	4177
3.02000	4175
3.02067	4173
3.02133	4171
3.02200	4169
3.02267	4166
3.02333	4164
3.02400	4162
3.02467	4160
3.02533	4158
3.02600	4156
3.02667	4154
3.02733	4153
3.02800	4151
3.02867	4149
3.02933	4147
3.03000	4145
3.03067	4143
3.03133	4141
3.03200	4139
3.03267	4138
3.03333	4136
3.03400	4134
3.03467	4132
3.03533	4131
3.03600	4129
3.03667	4127
3.03733	4126
3.03800	4124
3.03867	4123
3.03933	4121
3.04000	4120
3.04067	4118
3.04133	4117
3.04200	4115
3.04267	4114
3.04333	4112
3.04400	4111
3.04467	4110
3.04533	4108
3.04600	4107
3.04667	4106
3.04733	4104
3.04800	4103
3.04867	4102
3.04933	4101
3.05000	4099
3.05067	4098
3.05133	4097
3.05200	4096
3.05267	4095
3.05333	4094
3.05400	4093
3.05467	4092
3.05533	4091
3.05600	4090
3.05667	4089
3.05733	4088
3.05800	4087
3.05867	4086
3.05933	4085
3.06000	4084
3.06067	4083
3.06133	4082
3.06200	4081
3.06267	4080
3.06333	4080
3.06400	4079
3.06467	4078
3.06533	4077
3.06600	4076
3.06667	4076
3.06733	4075
3.06800	4074
3.06867	4074
3.06933	4073
3.07000	4072
3.07067	4072
3.07133	4071
3.07200	4070
3.07267	4070
3.07333	4069
3.07400	4069
3.07467	4068
3.07533	4068
3.07600	4067
3.07667	4067
3.07733	4066
3.07800	4066
3.07867	4065
3.07933	4065
3.08000	4064
3.08067	4064
3.08133	4064
3.08200	4063
3.08267	4063
3.08333	4062
3.08400	4062
3.08467	4061
3.08533	4061
3.08600	4060
3.08667	4060
3.08733	4059
3.08800	4059
3.08867	4058
3.08933	4057
3.09000	4057
3.09067	4056
3.09133	4056
3.09200	4055
3.09267	4055
3.09333	4054
3.09400	4053
3.09467	4053
3.09533	4052
3.09600	4051
3.09667	4051
3.09733	4050
3.09800	4049
3.09867	4048
3.09933	4047
3.10000	4047
3.10067	4046
3.10133	4045
3.10200	4044
3.10267	4043
3.10333	4042
3.10400	4041
3.10467	4040
3.10533	4038
3.10600	4037
3.10667	4036
3.10733	4035
3.10800	4034
3.10867	4033
3.10933	4032
3.11000	4031
3.11067	4030
3.11133	4028
3.11200	4027
3.11267	4026
3.11333	4025
3.11400	4023
3.11467	4022
3.11533	4021
3.11600	4020
3.11667	4018
3.11733	4017
3.11800	4016
3.11867	4014
3.11933	4013
3.12000	4012
3.12067	4010
3.12133	4009
3.12200	4008
3.12267	4006
3.12333	4005
3.12400	4004
3.12467	4002
3.12533	4001
3.12600	3999
3.12667	3998
3.12733	3997
3.12800	3995
3.12867	3994
3.12933	3993
3.13000	3991
3.13067	3990
3.13133	3988
3.13200	3987
3.13267	3986
3.13333	3984
3.13400	3983
3.13467	3982
3.13533	3980
3.13600	3979
3.13667	3978
3.13733	3976
3.13800	3975
3.13867	3974
3.13933	3972
3.14000	3971
3.14067	3970
3.14133	3969
3.14200	3967
3.14267	3966
3.14333	3965
3.14400	3964
3.14467	3963
3.14533	3962
3.14600	3961
3.14667	3959
3.14733	3958
3.14800	3957
3.14867	3956
3.14933	3955
3.15000	3954
3.15067	3953
3.15133	3952
3.15200	3951
3.15267	3950
3.15333	3949
3.15400	3948
3.15467	3948
3.15533	3947
3.15600	3946
3.15667	3945
3.15733	3944
3.15800	3943
3.15867	3942
3.15933	3941
3.16000	3940
3.16067	3940
3.16133	3939
3.16200	3938
3.16267	3937
3.16333	3936
3.16400	3936
3.16467	3935
3.16533	3934
3.16600	3933
3.16667	3932
3.16733	3932
3.16800	3931
3.16867	3930
3.16933	3929
3.17000	3928
3.17067	3928
3.17133	3927
3.17200	3926
3.17267	3925
3.17333	3924
3.17400	3924
3.17467	3923
3.17533	3922
3.17600	3921
3.17667	3920
3.17733	3920
3.17800	3919
3.17867	3918
3.17933	3917
3.18000	3917
3.18067	3916
3.18133	3915
3.18200	3914
3.18267	3914
3.18333	3913
3.18400	3912
3.18467	3911
3.18533	3910
3.18600	3909
3.18667	3908
3.18733	3907
3.18800	3907
3.18867	3906
3.18933	3905
3.19000	3904
3.19067	3903
3.19133	3902
3.19200	3901
3.19267	3900
3.19333	3899
3.19400	3898
3.19467	3897
3.19533	3897
3.19600	3896
3.19667	3895
3.19733	3894
3.19800	3893
3.19867	3893
3.19933	3892
3.20000	3891
3.20067	3891
3.20133	3890
3.20200	3889
3.20267	3888
3.20333	3888
3.20400	3887
3.20467	3886
3.20533	3886
3.20600	3885
3.20667	3884
3.20733	3884
3.20800	3883
3.20867	3882
3.20933	3882
3.21000	3881
3.21067	3880
3.21133	3880
3.21200	3879
3.21267	3878
3.21333	3878
3.21400	3877
3.21467	3876
3.21533	3876
3.21600	3875
3.21667	3874
3.21733	3874
3.21800	3873
3.21867	3872
3.21933	3871
3.22000	3871
3.22067	3870
3.22133	3869
3.22200	3869
3.22267	3868
3.22333	3867
3.22400	3866
3.22467	3866
3.22533	3865
3.22600	3864
3.22667	3864
3.22733	3863
3.22800	3862
3.22867	3862
3.22933	3861
3.23000	3860
3.23067	3860
3.23133	3859
3.23200	3858
3.23267	3858
3.23333	3857
3.23400	3856
3.23467	3856
3.23533	3855
3.23600	3855
3.23667	3854
3.23733	3853
3.23800	3853
3.23867	3852
3.23933	3852
3.24000	3851
3.24067	3851
3.24133	3850
3.24200	3849
3.24267	3849
3.24333	3848
3.24400	3848
3.24467	3847
3.24533	3847
3.24600	3846
3.24667	3845
3.24733	3845
3.24800	3844
3.24867	3843
3.24933	3843
3.25000	3842
3.25067	3842
3.25133	3841
3.25200	3840
3.25267	3840
3.25333	3839
3.25400	3839
3.25467	3838
3.25533	3837
3.25600	3837
3.25667	3836
3.25733	3836
3.25800	3835
3.25867	3835
3.25933	3834
3.26000	3834
3.26067	3833
3.26133	3832
3.26200	3832
3.26267	3831
3.26333	3831
3.26400	3830
3.26467	3830
3.26533	3829
3.26600	3829
3.26667	3828
3.26733	3828
3.26800	3827
3.26867	3826
3.26933	3826
3.27000	3825
3.27067	3825
3.27133	3824
3.27200	3824
3.27267	3823
3.27333	3822
3.27400	3822
3.27467	3821
3.27533	3821
3.27600	3820
3.27667	3820
3.27733	3819
3.27800	3819
3.27867	3818
3.27933	3818
3.28000	3817
3.28067	3817
3.28133	3817
3.28200	3816
3.28267	3816
3.28333	3815
3.28400	3815
3.28467	3815
3.28533	3814
3.28600	3814
3.28667	3813
3.28733	3813
3.28800	3812
3.28867	3812
3.28933	3812
3.29000	3811
3.29067	3811
3.29133	3810
3.29200	3810
3.29267	3809
3.29333	3809
3.29400	3808
3.29467	3808
3.29533	3808
3.29600	3807
3.29667	3807
3.29733	3806
3.29800	3806
3.29867	3805
3.29933	3805
3.30000	3805
3.30067	3804
3.30133	3804
3.30200	3803
3.30267	3803
3.30333	3802
3.30400	3802
3.30467	3801
3.30533	3801
3.30600	3801
3.30667	3800
3.30733	3800
3.30800	3799
3.30867	3799
3.30933	3799
3.31000	3798
3.31067	3798
3.31133	3798
3.31200	3797
3.31267	3797
3.31333	3796
3.31400	3796
3.31467	3795
3.31533	3795
3.31600	3794
3.31667	3794
3.31733	3793
3.31800	3793
3.31867	3793
3.31933	3792
3.32000	3792
3.32067	3791
3.32133	3791
3.32200	3790
3.32267	3790
3.32333	3789
3.32400	3789
3.32467	3788
3.32533	3788
3.32600	3787
3.32667	3787
3.32733	3786
3.32800	3786
3.32867	3785
3.32933	3785
3.33000	3784
3.33067	3784
3.33133	3784
3.33200	3783
3.33267	3783
3.33333	3782
3.33400	3782
3.33467	3781
3.33533	3781
3.33600	3781
3.33667	3780
3.33733	3780
3.33800	3779
3.33867	3779
3.33933	3778
3.34000	3778
3.34067	3778
3.34133	3777
3.34200	3777
3.34267	3776
3.34333	3776
3.34400	3775
3.34467	3775
3.34533	3775
3.34600	3774
3.34667	3774
3.34733	3774
3.34800	3774
3.34867	3774
3.34933	3774
3.35000	3774
3.35067	3774
3.35133	3774
3.35200	3774
3.35267	3774
3.35333	3773
3.35400	3773
3.35467	3773
3.35533	3773
3.35600	3773
3.35667	3773
3.35733	3773
3.35800	3773
3.35867	3773
3.35933	3773
3.36000	3773
3.36067	3773
3.36133	3773
3.36200	3774
3.36267	3774
3.36333	3774
3.36400	3774
3.36467	3774
3.36533	3774
3.36600	3774
3.36667	3774
3.36733	3774
3.36800	3774
3.36867	3775
3.36933	3775
3.37000	3775
3.37067	3775
3.37133	3776
3.37200	3776
3.37267	3776
3.37333	3776
3.37400	3777
3.37467	3777
3.37533	3777
3.37600	3778
3.37667	3778
3.37733	3778
3.37800	3779
3.37867	3779
3.37933	3779
3.38000	3780
3.38067	3780
3.38133	3781
3.38200	3781
3.38267	3781
3.38333	3782
3.38400	3782
3.38467	3783
3.38533	3783
3.38600	3783
3.38667	3784
3.38733	3784
3.38800	3784
3.38867	3785
3.38933	3785
3.39000	3785
3.39067	3786
3.39133	3786
3.39200	3786
3.39267	3787
3.39333	3787
3.39400	3788
3.39467	3788
3.39533	3788
3.39600	3789
3.39667	3789
3.39733	3790
3.39800	3790
3.39867	3791
3.39933	3791
3.40000	3791
3.40067	3792
3.40133	3792
3.40200	3792
3.40267	3793
3.40333	3793
3.40400	3794
3.40467	3794
3.40533	3794
3.40600	3795
3.40667	3795
3.40733	3796
3.40800	3796
3.40867	3796
3.40933	3797
3.41000	3797
3.41067	3798
3.41133	3798
3.41200	3799
3.41267	3799
3.41333	3800
3.41400	3800
3.41467	3801
3.41533	3802
3.41600	3802
3.41667	3803
3.41733	3804
3.41800	3804
3.41867	3805
3.41933	3806
3.42000	3807
3.42067	3808
3.42133	3809
3.42200	3810
3.42267	3811
3.42333	3812
3.42400	3813
3.42467	3814
3.42533	3815
3.42600	3816
3.42667	3817
3.42733	3818
3.42800	3819
3.42867	3820
3.42933	3821
3.43000	3823
3.43067	3824
3.43133	3825
3.43200	3826
3.43267	3828
3.43333	3829
3.43400	3830
3.43467	3832
3.43533	3833
3.43600	3834
3.43667	3836
3.43733	3837
3.43800	3839
3.43867	3840
3.43933	3841
3.44000	3843
3.44067	3845
3.44133	3846
3.44200	3848
3.44267	3849
3.44333	3851
3.44400	3853
3.44467	3855
3.44533	3857
3.44600	3858
3.44667	3860
3.44733	3862
3.44800	3864
3.44867	3866
3.44933	3868
3.45000	3871
3.45067	3873
3.45133	3875
3.45200	3877
3.45267	3879
3.45333	3882
3.45400	3884
3.45467	3886
3.45533	3889
3.45600	3891
3.45667	3894
3.45733	3896
3.45800	3899
3.45867	3901
3.45933	3904
3.46000	3906
3.46067	3909
3.46133	3912
3.46200	3914
3.46267	3917
3.46333	3920
3.46400	3922
3.46467	3925
3.46533	3928
3.46600	3931
3.46667	3934
3.46733	3937
3.46800	3940
3.46867	3943
3.46933	3946
3.47000	3949
3.47067	3952
3.47133	3955
3.47200	3958
3.47267	3961
3.47333	3965
3.47400	3968
3.47467	3971
3.47533	3974
3.47600	3978
3.47667	3981
3.47733	3985
3.47800	3988
3.47867	3992
3.47933	3996
3.48000	4000
3.48067	4003
3.48133	4007
3.48200	4011
3.48267	4015
3.48333	4020
3.48400	4024
3.48467	4028
3.48533	4033
3.48600	4038
3.48667	4042
3.48733	4047
3.48800	4052
3.48867	4058
3.48933	4063
3.49000	4069
3.49067	4074
3.49133	4080
3.49200	4086
3.49267	4093
3.49333	4099
3.49400	4106
3.49467	4113
3.49533	4121
3.49600	4128
3.49667	4136
3.49733	4145
3.49800	4154
3.49867	4163
3.49933	4172
3.50000	4182
3.50067	4193
3.50133	4203
3.50200	4215
3.50267	4227
3.50333	4239
3.50400	4252
3.50467	4265
3.50533	4279
3.50600	4294
3.50667	4309
3.50733	4325
3.50800	4342
3.50867	4359
3.50933	4377
3.51000	4396
3.51067	4415
3.51133	4435
3.51200	4456
3.51267	4478
3.51333	4501
3.51400	4525
3.51467	4550
3.51533	4575
3.51600	4602
3.51667	4630
3.51733	4658
3.51800	4688
3.51867	4719
3.51933	4750
3.52000	4783
3.52067	4817
3.52133	4852
3.52200	4888
3.52267	4925
3.52333	4964
3.52400	5003
3.52467	5044
3.52533	5086
3.52600	5129
3.52667	5174
3.52733	5219
3.52800	5266
3.52867	5313
3.52933	5362
3.53000	5412
3.53067	5463
3.53133	5515
3.53200	5568
3.53267	5622
3.53333	5677
3.53400	5733
3.53467	5790
3.53533	5847
3.53600	5906
3.53667	5965
3.53733	6025
3.53800	6085
3.53867	6146
3.53933	6208
3.54000	6270
3.54067	6333
3.54133	6396
3.54200	6460
3.54267	6524
3.54333	6588
3.54400	6652
3.54467	6716
3.54533	6781
3.54600	6845
3.54667	6910
3.54733	6974
3.54800	7038
3.54867	7102
3.54933	7166
3.55000	7229
3.55067	7292
3.55133	7354
3.55200	7416
3.55267	7477
3.55333	7537
3.55400	7597
3.55467	7655
3.55533	7713
3.55600	7770
3.55667	7826
3.55733	7882
3.55800	7936
3.55867	7989
3.55933	8041
3.56000	8091
3.56067	8141
3.56133	8189
3.56200	8236
3.56267	8282
3.56333	8326
3.56400	8369
3.56467	8411
3.56533	8451
3.56600	8489
3.56667	8526
3.56733	8561
3.56800	8594
3.56867	8626
3.56933	8656
3.57000	8685
3.57067	8711
3.57133	8737
3.57200	8760
3.57267	8782
3.57333	8802
3.57400	8821
3.57467	8838
3.57533	8853
3.57600	8867
3.57667	8879
3.57733	8890
3.57800	8899
3.57867	8906
3.57933	8913
3.58000	8917
3.58067	8921
3.58133	8923
3.58200	8923
3.58267	8923
3.58333	8921
3.58400	8918
3.58467	8913
3.58533	8908
3.58600	8901
3.58667	8893
3.58733	8884
3.58800	8874
3.58867	8863
3.58933	8851
3.59000	8838
3.59067	8825
3.59133	8810
3.59200	8794
3.59267	8778
3.59333	8761
3.59400	8743
3.59467	8724
3.59533	8705
3.59600	8685
3.59667	8664
3.59733	8643
3.59800	8621
3.59867	8599
3.59933	8576
3.60000	8553
3.60067	8529
3.60133	8505
3.60200	8480
3.60267	8455
3.60333	8429
3.60400	8403
3.60467	8377
3.60533	8350
3.60600	8323
3.60667	8296
3.60733	8268
3.60800	8240
3.60867	8212
3.60933	8183
3.61000	8154
3.61067	8125
3.61133	8096
3.61200	8066
3.61267	8037
3.61333	8007
3.61400	7976
3.61467	7946
3.61533	7915
3.61600	7884
3.61667	7853
3.61733	7822
3.61800	7791
3.61867	7759
3.61933	7728
3.62000	7696
3.62067	7664
3.62133	7632
3.62200	7599
3.62267	7567
3.62333	7535
3.62400	7502
3.62467	7470
3.62533	7437
3.62600	7404
3.62667	7371
3.62733	7338
3.62800	7305
3.62867	7272
3.62933	7239
3.63000	7205
3.63067	7172
3.63133	7138
3.63200	7104
3.63267	7071
3.63333	7037
3.63400	7003
3.63467	6969
3.63533	6935
3.63600	6901
3.63667	6867
3.63733	6833
3.63800	6798
3.63867	6764
3.63933	6730
3.64000	6696
3.64067	6661
3.64133	6627
3.64200	6593
3.64267	6558
3.64333	6524
3.64400	6490
3.64467	6455
3.64533	6421
3.64600	6387
3.64667	6353
3.64733	6319
3.64800	6286
3.64867	6252
3.64933	6218
3.65000	6185
3.65067	6151
3.65133	6118
3.65200	6085
3.65267	6052
3.65333	6019
3.65400	5987
3.65467	5954
3.65533	5922
3.65600	5890
3.65667	5858
3.65733	5827
3.65800	5795
3.65867	5764
3.65933	5734
3.66000	5703
3.66067	5673
3.66133	5643
3.66200	5613
3.66267	5583
3.66333	5554
3.66400	5525
3.66467	5496
3.66533	5467
3.66600	5439
3.66667	5411
3.66733	5384
3.66800	5356
3.66867	5329
3.66933	5302
3.67000	5276
3.67067	5250
3.67133	5224
3.67200	5198
3.67267	5173
3.67333	5147
3.67400	5123
3.67467	5098
3.67533	5074
3.67600	5050
3.67667	5027
3.67733	5003
3.67800	4980
3.67867	4958
3.67933	4935
3.68000	4913
3.68067	4892
3.68133	4870
3.68200	4849
3.68267	4828
3.68333	4808
3.68400	4788
3.68467	4768
3.68533	4748
3.68600	4729
3.68667	4710
3.68733	4691
3.68800	4673
3.68867	4655
3.68933	4637
3.69000	4619
3.69067	4602
3.69133	4585
3.69200	4569
3.69267	4552
3.69333	4536
3.69400	4520
3.69467	4505
3.69533	4490
3.69600	4475
3.69667	4460
3.69733	4445
3.69800	4431
3.69867	4417
3.69933	4403
3.70000	4390
3.70067	4376
3.70133	4363
3.70200	4350
3.70267	4338
3.70333	4326
3.70400	4313
3.70467	4302
3.70533	4290
3.70600	4278
3.70667	4267
3.70733	4256
3.70800	4245
3.70867	4235
3.70933	4224
3.71000	4214
3.71067	4204
3.71133	4194
3.71200	4184
3.71267	4175
3.71333	4165
3.71400	4156
3.71467	4147
3.71533	4138
3.71600	4129
3.71667	4121
3.71733	4112
3.71800	4104
3.71867	4096
3.71933	4088
3.72000	4080
3.72067	4073
3.72133	4065
3.72200	4058
3.72267	4051
3.72333	4043
3.72400	4036
3.72467	4030
3.72533	4023
3.72600	4016
3.72667	4010
3.72733	4003
3.72800	3997
3.72867	3991
3.72933	3985
3.73000	3979
3.73067	3973
3.73133	3967
3.73200	3961
3.73267	3956
3.73333	3950
3.73400	3945
3.73467	3939
3.73533	3934
3.73600	3929
3.73667	3924
3.73733	3919
3.73800	3914
3.73867	3909
3.73933	3904
3.74000	3899
3.74067	3894
3.74133	3890
3.74200	3885
3.74267	3881
3.74333	3876
3.74400	3872
3.74467	3868
3.74533	3864
3.74600	3860
3.74667	3855
3.74733	3851
3.74800	3848
3.74867	3844
3.74933	3840
3.75000	3836
3.75067	3832
3.75133	3829
3.75200	3825
3.75267	3822
3.75333	3818
3.75400	3815
3.75467	3811
3.75533	3808
3.75600	3805
3.75667	3801
3.75733	3798
3.75800	3795
3.75867	3792
3.75933	3789
3.76000	3786
3.76067	3783
3.76133	3780
3.76200	3777
3.76267	3774
3.76333	3771
3.76400	3769
3.76467	3766
3.76533	3763
3.76600	3760
3.76667	3758
3.76733	3755
3.76800	3752
3.76867	3750
3.76933	3747
3.77000	3745
3.77067	3742
3.77133	3740
3.77200	3738
3.77267	3736
3.77333	3733
3.77400	3731
3.77467	3729
3.77533	3727
3.77600	3725
3.77667	3722
3.77733	3720
3.77800	3718
3.77867	3716
3.77933	3714
3.78000	3712
3.78067	3710
3.78133	3708
3.78200	3706
3.78267	3704
3.78333	3702
3.78400	3701
3.78467	3699
3.78533	3697
3.78600	3695
3.78667	3693
3.78733	3691
3.78800	3689
3.78867	3688
3.78933	3686
3.79000	3684
3.79067	3682
3.79133	3680
3.79200	3679
3.79267	3677
3.79333	3675
3.79400	3674
3.79467	3672
3.79533	3670
3.79600	3669
3.79667	3667
3.79733	3666
3.79800	3664
3.79867	3663
3.79933	3661
3.80000	3660
3.80067	3658
3.80133	3657
3.80200	3655
3.80267	3654
3.80333	3652
3.80400	3651
3.80467	3649
3.80533	3648
3.80600	3647
3.80667	3645
3.80733	3644
3.80800	3643
3.80867	3641
3.80933	3640
3.81000	3639
3.81067	3637
3.81133	3636
3.81200	3634
3.81267	3633
3.81333	3632
3.81400	3630
3.81467	3629
3.81533	3627
3.81600	3626
3.81667	3625
3.81733	3623
3.81800	3622
3.81867	3620
3.81933	3619
3.82000	3617
3.82067	3616
3.82133	3615
3.82200	3613
3.82267	3612
3.82333	3611
3.82400	3609
3.82467	3608
3.82533	3606
3.82600	3605
3.82667	3603
3.82733	3602
3.82800	3600
3.82867	3599
3.82933	3597
3.83000	3596
3.83067	3594
3.83133	3593
3.83200	3592
3.83267	3590
3.83333	3589
3.83400	3587
3.83467	3586
3.83533	3585
3.83600	3583
3.83667	3582
3.83733	3580
3.83800	3579
3.83867	3578
3.83933	3576
3.84000	3575
3.84067	3574
3.84133	3572
3.84200	3571
3.84267	3570
3.84333	3568
3.84400	3567
3.84467	3566
3.84533	3564
3.84600	3563
3.84667	3562
3.84733	3561
3.84800	3559
3.84867	3558
3.84933	3557
3.85000	3556
3.85067	3555
3.85133	3553
3.85200	3552
3.85267	3551
3.85333	3550
3.85400	3549
3.85467	3548
3.85533	3546
3.85600	3545
3.85667	3545
3.85733	3544
3.85800	3543
3.85867	3542
3.85933	3541
3.86000	3540
3.86067	3539
3.86133	3538
3.86200	3537
3.86267	3536
3.86333	3536
3.86400	3535
3.86467	3534
3.86533	3533
3.86600	3532
3.86667	3532
3.86733	3531
3.86800	3530
3.86867	3529
3.86933	3528
3.87000	3527
3.87067	3527
3.87133	3526
3.87200	3525
3.87267	3524
3.87333	3524
3.87400	3523
3.87467	3522
3.87533	3521
3.87600	3521
3.87667	3520
3.87733	3519
3.87800	3519
3.87867	3518
3.87933	3517
3.88000	3517
3.88067	3516
3.88133	3515
3.88200	3515
3.88267	3514
3.88333	3513
3.88400	3513
3.88467	3512
3.88533	3511
3.88600	3511
3.88667	3510
3.88733	3509
3.88800	3509
3.88867	3508
3.88933	3507
3.89000	3507
3.89067	3506
3.89133	3505
3.89200	3505
3.89267	3504
3.89333	3503
3.89400	3503
3.89467	3502
3.89533	3501
3.89600	3501
3.89667	3500
3.89733	3499
3.89800	3499
3.89867	3498
3.89933	3497
3.90000	3497
3.90067	3496
3.90133	3496
3.90200	3495
3.90267	3495
3.90333	3494
3.90400	3493
3.90467	3493
3.90533	3492
3.90600	3492
3.90667	3491
3.90733	3490
3.90800	3489
3.90867	3489
3.90933	3488
3.91000	3487
3.91067	3486
3.91133	3486
3.91200	3485
3.91267	3484
3.91333	3483
3.91400	3483
3.91467	3482
3.91533	3481
3.91600	3480
3.91667	3480
3.91733	3479
3.91800	3478
3.91867	3477
3.91933	3476
3.92000	3476
3.92067	3475
3.92133	3474
3.92200	3473
3.92267	3472
3.92333	3472
3.92400	3471
3.92467	3470
3.92533	3469
3.92600	3469
3.92667	3468
3.92733	3467
3.92800	3467
3.92867	3466
3.92933	3465
3.93000	3465
3.93067	3464
3.93133	3463
3.93200	3463
3.93267	3462
3.93333	3461
3.93400	3461
3.93467	3460
3.93533	3459
3.93600	3459
3.93667	3458
3.93733	3457
3.93800	3456
3.93867	3456
3.93933	3455
3.94000	3454
3.94067	3453
3.94133	3453
3.94200	3452
3.94267	3451
3.94333	3451
3.94400	3450
3.94467	3449
3.94533	3449
3.94600	3448
3.94667	3447
3.94733	3446
3.94800	3446
3.94867	3445
3.94933	3444
3.95000	3444
3.95067	3443
3.95133	3442
3.95200	3442
3.95267	3441
3.95333	3441
3.95400	3440
3.95467	3439
3.95533	3439
3.95600	3438
3.95667	3438
3.95733	3437
3.95800	3436
3.95867	3436
3.95933	3435
3.96000	3435
3.96067	3434
3.96133	3434
3.96200	3433
3.96267	3432
3.96333	3432
3.96400	3431
3.96467	3431
3.96533	3430
3.96600	3430
3.96667	3430
3.96733	3429
3.96800	3429
3.96867	3429
3.96933	3428
3.97000	3428
3.97067	3428
3.97133	3427
3.97200	3427
3.97267	3427
3.97333	3427
3.97400	3426
3.97467	3426
3.97533	3426
3.97600	3425
3.97667	3425
3.97733	3425
3.97800	3425
3.97867	3424
3.97933	3424
3.98000	3424
3.98067	3424
3.98133	3423
3.98200	3423
3.98267	3423
3.98333	3422
3.98400	3422
3.98467	3422
3.98533	3422
3.98600	3422
3.98667	3421
3.98733	3421
3.98800	3421
3.98867	3421
3.98933	3420
3.99000	3420
3.99067	3420
3.99133	3420
3.99200	3420
3.99267	3419
3.99333	3419
3.99400	3419
3.99467	3419
3.99533	3419
3.99600	3419
3.99667	3419
3.99733	3419
3.99800	3418
3.99867	3418
3.99933	3418
4.00000	3418
4.00067	3418
4.00133	3418
4.00200	3418
4.00267	3418
4.00333	3418
4.00400	3419
4.00467	3419
4.00533	3419
4.00600	3419
4.00667	3419
4.00733	3419
4.00800	3419
4.00867	3419
4.00933	3419
4.01000	3420
4.01067	3420
4.01133	3420
4.01200	3420
4.01267	3420
4.01333	3421
4.01400	3421
4.01467	3421
4.01533	3422
4.01600	3422
4.01667	3422
4.01733	3423
4.01800	3423
4.01867	3423
4.01933	3424
4.02000	3424
4.02067	3425
4.02133	3425
4.02200	3426
4.02267	3427
4.02333	3427
4.02400	3428
4.02467	3429
4.02533	3429
4.02600	3430
4.02667	3431
4.02733	3432
4.02800	3432
4.02867	3433
4.02933	3434
4.03000	3435
4.03067	3436
4.03133	3437
4.03200	3438
4.03267	3439
4.03333	3440
4.03400	3441
4.03467	3442
4.03533	3443
4.03600	3444
4.03667	3445
4.03733	3446
4.03800	3448
4.03867	3449
4.03933	3450
4.04000	3451
4.04067	3453
4.04133	3454
4.04200	3455
4.04267	3457
4.04333	3458
4.04400	3460
4.04467	3461
4.04533	3463
4.04600	3464
4.04667	3466
4.04733	3468
4.04800	3469
4.04867	3471
4.04933	3473
4.05000	3475
4.05067	3476
4.05133	3478
4.05200	3480
4.05267	3482
4.05333	3484
4.05400	3486
4.05467	3488
4.05533	3489
4.05600	3491
4.05667	3493
4.05733	3495
4.05800	3497
4.05867	3499
4.05933	3501
4.06000	3504
4.06067	3506
4.06133	3508
4.06200	3510
4.06267	3512
4.06333	3514
4.06400	3517
4.06467	3519
4.06533	3521
4.06600	3523
4.06667	3526
4.06733	3528
4.06800	3531
4.06867	3533
4.06933	3536
4.07000	3538
4.07067	3541
4.07133	3543
4.07200	3546
4.07267	3549
4.07333	3551
4.07400	3554
4.07467	3557
4.07533	3559
4.07600	3562
4.07667	3565
4.07733	3568
4.07800	3571
4.07867	3574
4.07933	3576
4.08000	3579
4.08067	3582
4.08133	3585
4.08200	3588
4.08267	3591
4.08333	3594
4.08400	3597
4.08467	3600
4.08533	3603
4.08600	3606
4.08667	3609
4.08733	3613
4.08800	3616
4.08867	3619
4.08933	3623
4.09000	3626
4.09067	3629
4.09133	3633
4.09200	3636
4.09267	3640
4.09333	3643
4.09400	3647
4.09467	3651
4.09533	3654
4.09600	3658
4.09667	3661
4.09733	3665
4.09800	3669
4.09867	3672
4.09933	3676
4.10000	3679
4.10067	3683
4.10133	3687
4.10200	3690
4.10267	3694
4.10333	3698
4.10400	3701
4.10467	3705
4.10533	3709
4.10600	3712
4.10667	3716
4.10733	3719
4.10800	3723
4.10867	3726
4.10933	3730
4.11000	3733
4.11067	3736
4.11133	3739
4.11200	3743
4.11267	3746
4.11333	3749
4.11400	3752
4.11467	3755
4.11533	3758
4.11600	3761
4.11667	3764
4.11733	3767
4.11800	3770
4.11867	3772
4.11933	3775
4.12000	3778
4.12067	3780
4.12133	3783
4.12200	3785
4.12267	3787
4.12333	3790
4.12400	3792
4.12467	3794
4.12533	3796
4.12600	3798
4.12667	3800
4.12733	3802
4.12800	3804
4.12867	3806
4.12933	3807
4.13000	3809
4.13067	3810
4.13133	3812
4.13200	3813
4.13267	3815
4.13333	3816
4.13400	3817
4.13467	3818
4.13533	3819
4.13600	3820
4.13667	3821
4.13733	3822
4.13800	3823
4.13867	3823
4.13933	3824
4.14000	3825
4.14067	3825
4.14133	3826
4.14200	3826
4.14267	3827
4.14333	3827
4.14400	3827
4.14467	3828
4.14533	3828
4.14600	3828
4.14667	3828
4.14733	3828
4.14800	3828
4.14867	3828
4.14933	3828
4.15000	3828
4.15067	3828
4.15133	3828
4.15200	3828
4.15267	3828
4.15333	3828
4.15400	3828
4.15467	3828
4.15533	3827
4.15600	3827
4.15667	3827
4.15733	3827
4.15800	3827
4.15867	3826
4.15933	3826
4.16000	3826
4.16067	3826
4.16133	3826
4.16200	3826
4.16267	3826
4.16333	3826
4.16400	3826
4.16467	3827
4.16533	3827
4.16600	3827
4.16667	3827
4.16733	3828
4.16800	3828
4.16867	3829
4.16933	3829
4.17000	3830
4.17067	3830
4.17133	3831
4.17200	3832
4.17267	3833
4.17333	3834
4.17400	3836
4.17467	3837
4.17533	3838
4.17600	3840
4.17667	3841
4.17733	3843
4.17800	3845
4.17867	3847
4.17933	3849
4.18000	3851
4.18067	3853
4.18133	3856
4.18200	3858
4.18267	3861
4.18333	3864
4.18400	3866
4.18467	3869
4.18533	3873
4.18600	3876
4.18667	3879
4.18733	3883
4.18800	3886
4.18867	3890
4.18933	3894
4.19000	3898
4.19067	3902
4.19133	3907
4.19200	3911
4.19267	3916
4.19333	3921
4.19400	3926
4.19467	3931
4.19533	3937
4.19600	3942
4.19667	3948
4.19733	3954
4.19800	3960
4.19867	3967
4.19933	3973
4.20000	3980
4.20067	3987
4.20133	3994
4.20200	4002
4.20267	4009
4.20333	4017
4.20400	4025
4.20467	4033
4.20533	4042
4.20600	4051
4.20667	4060
4.20733	4069
4.20800	4078
4.20867	4088
4.20933	4098
4.21000	4109
4.21067	4119
4.21133	4130
4.21200	4141
4.21267	4153
4.21333	4164
4.21400	4176
4.21467	4188
4.21533	4201
4.21600	4214
4.21667	4227
4.21733	4240
4.21800	4254
4.21867	4268
4.21933	4282
4.22000	4297
4.22067	4311
4.22133	4327
4.22200	4342
4.22267	4358
4.22333	4375
4.22400	4392
4.22467	4409
4.22533	4426
4.22600	4444
4.22667	4462
4.22733	4481
4.22800	4500
4.22867	4519
4.22933	4539
4.23000	4559
4.23067	4580
4.23133	4601
4.23200	4622
4.23267	4644
4.23333	4667
4.23400	4689
4.23467	4713
4.23533	4736
4.23600	4761
4.23667	4785
4.23733	4810
4.23800	4836
4.23867	4862
4.23933	4889
4.24000	4916
4.24067	4943
4.24133	4971
4.24200	5000
4.24267	5029
4.24333	5058
4.24400	5088
4.24467	5119
4.24533	5149
4.24600	5181
4.24667	5212
4.24733	5245
4.24800	5278
4.24867	5311
4.24933	5345
4.25000	5379
4.25067	5414
4.25133	5450
4.25200	5486
4.25267	5523
4.25333	5560
4.25400	5598
4.25467	5636
4.25533	5675
4.25600	5714
4.25667	5754
4.25733	5795
4.25800	5836
4.25867	5877
4.25933	5919
4.26000	5961
4.26067	6004
4.26133	6048
4.26200	6091
4.26267	6136
4.26333	6180
4.26400	6225
4.26467	6271
4.26533	6316
4.26600	6363
4.26667	6409
4.26733	6456
4.26800	6503
4.26867	6551
4.26933	6599
4.27000	6647
4.27067	6696
4.27133	6744
4.27200	6794
4.27267	6843
4.27333	6893
4.27400	6943
4.27467	6993
4.27533	7044
4.27600	7095
4.27667	7146
4.27733	7198
4.27800	7250
4.27867	7301
4.27933	7354
4.28000	7406
4.28067	7458
4.28133	7511
4.28200	7564
4.28267	7617
4.28333	7670
4.28400	7723
4.28467	7776
4.28533	7829
4.28600	7882
4.28667	7936
4.28733	7989
4.28800	8043
4.28867	8096
4.28933	8150
4.29000	8204
4.29067	8257
4.29133	8311
4.29200	8364
4.29267	8418
4.29333	8471
4.29400	8525
4.29467	8578
4.29533	8631
4.29600	8684
4.29667	8737
4.29733	8790
4.29800	8842
4.29867	8895
4.29933	8947
4.30000	8998
4.30067	9050
4.30133	9101
4.30200	9152
4.30267	9202
4.30333	9252
4.30400	9302
4.30467	9351
4.30533	9400
4.30600	9449
4.30667	9497
4.30733	9545
4.30800	9592
4.30867	9639
4.30933	9685
4.31000	9731
4.31067	9776
4.31133	9820
4.31200	9864
4.31267	9908
4.31333	9950
4.31400	9992
4.31467	10033
4.31533	10074
4.31600	10114
4.31667	10153
4.31733	10191
4.31800	10229
4.31867	10265
4.31933	10301
4.32000	10337
4.32067	10371
4.32133	10405
4.32200	10437
4.32267	10469
4.32333	10500
4.32400	10531
4.32467	10560
4.32533	10588
4.32600	10616
4.32667	10642
4.32733	10667
4.32800	10692
4.32867	10715
4.32933	10737
4.33000	10758
4.33067	10778
4.33133	10797
4.33200	10814
4.33267	10831
4.33333	10846
4.33400	10860
4.33467	10874
4.33533	10886
4.33600	10897
4.33667	10907
4.33733	10915
4.33800	10923
4.33867	10929
4.33933	10935
4.34000	10939
4.34067	10942
4.34133	10944
4.34200	10945
4.34267	10944
4.34333	10943
4.34400	10940
4.34467	10936
4.34533	10931
4.34600	10925
4.34667	10917
4.34733	10909
4.34800	10899
4.34867	10888
4.34933	10876
4.35000	10863
4.35067	10849
4.35133	10834
4.35200	10818
4.35267	10801
4.35333	10782
4.35400	10763
4.35467	10743
4.35533	10721
4.35600	10699
4.35667	10675
4.35733	10650
4.35800	10625
4.35867	10598
4.35933	10571
4.36000	10542
4.36067	10513
4.36133	10483
4.36200	10452
4.36267	10420
4.36333	10387
4.36400	10353
4.36467	10319
4.36533	10284
4.36600	10249
4.36667	10212
4.36733	10176
4.36800	10138
4.36867	10100
4.36933	10062
4.37000	10023
4.37067	9983
4.37133	9944
4.37200	9903
4.37267	9863
4.37333	9822
4.37400	9781
4.37467	9740
4.37533	9698
4.37600	9656
4.37667	9614
4.37733	9572
4.37800	9529
4.37867	9487
4.37933	9444
4.38000	9401
4.38067	9358
4.38133	9315
4.38200	9272
4.38267	9229
4.38333	9186
4.38400	9143
4.38467	9099
4.38533	9056
4.38600	9013
4.38667	8969
4.38733	8926
4.38800	8883
4.38867	8840
4.38933	8797
4.39000	8755
4.39067	8712
4.39133	8670
4.39200	8628
4.39267	8586
4.39333	8544
4.39400	8503
4.39467	8462
4.39533	8421
4.39600	8380
4.39667	8340
4.39733	8300
4.39800	8260
4.39867	8220
4.39933	8181
4.40000	8142
4.40067	8103
4.40133	8065
4.40200	8027
4.40267	7990
4.40333	7953
4.40400	7916
4.40467	7880
4.40533	7844
4.40600	7808
4.40667	7773
4.40733	7739
4.40800	7704
4.40867	7670
4.40933	7637
4.41000	7604
4.41067	7571
4.41133	7539
4.41200	7507
4.41267	7476
4.41333	7445
4.41400	7415
4.41467	7385
4.41533	7355
4.41600	7326
4.41667	7298
4.41733	7269
4.41800	7242
4.41867	7214
4.41933	7187
4.42000	7161
4.42067	7134
4.42133	7109
4.42200	7083
4.42267	7058
4.42333	7033
4.42400	7009
4.42467	6985
4.42533	6961
4.42600	6938
4.42667	6915
4.42733	6893
4.42800	6871
4.42867	6849
4.42933	6827
4.43000	6806
4.43067	6786
4.43133	6765
4.43200	6746
4.43267	6726
4.43333	6707
4.43400	6688
4.43467	6669
4.43533	6651
4.43600	6633
4.43667	6616
4.43733	6598
4.43800	6582
4.43867	6565
4.43933	6549
4.44000	6533
4.44067	6517
4.44133	6501
4.44200	6486
4.44267	6472
4.44333	6457
4.44400	6443
4.44467	6429
4.44533	6415
4.44600	6402
4.44667	6389
4.44733	6376
4.44800	6364
4.44867	6352
4.44933	6340
4.45000	6328
4.45067	6317
4.45133	6306
4.45200	6295
4.45267	6285
4.45333	6275
4.45400	6265
4.45467	6255
4.45533	6246
4.45600	6236
4.45667	6227
4.45733	6219
4.45800	6210
4.45867	6202
4.45933	6193
4.46000	6185
4.46067	6178
4.46133	6170
4.46200	6163
4.46267	6156
4.46333	6149
4.46400	6142
4.46467	6136
4.46533	6130
4.46600	6124
4.46667	6118
4.46733	6112
4.46800	6107
4.46867	6102
4.46933	6097
4.47000	6092
4.47067	6087
4.47133	6083
4.47200	6078
4.47267	6074
4.47333	6070
4.47400	6066
4.47467	6063
4.47533	6059
4.47600	6056
4.47667	6053
4.47733	6050
4.47800	6047
4.47867	6044
4.47933	6042
4.48000	6039
4.48067	6037
4.48133	6035
4.48200	6033
4.48267	6031
4.48333	6030
4.48400	6028
4.48467	6026
4.48533	6025
4.48600	6024
4.48667	6022
4.48733	6021
4.48800	6020
4.48867	6019
4.48933	6018
4.49000	6017
4.49067	6017
4.49133	6016
4.49200	6015
4.49267	6014
4.49333	6014
4.49400	6013
4.49467	6012
4.49533	6012
4.49600	6011
4.49667	6011
4.49733	6010
4.49800	6010
4.49867	6009
4.49933	6009
4.50000	6009
4.50067	6008
4.50133	6008
4.50200	6007
4.50267	6007
4.50333	6007
4.50400	6007
4.50467	6006
4.50533	6006
4.50600	6006
4.50667	6006
4.50733	6005
4.50800	6005
4.50867	6005
4.50933	6005
4.51000	6005
4.51067	6005
4.51133	6004
4.51200	6004
4.51267	6004
4.51333	6004
4.51400	6004
4.51467	6005
4.51533	6005
4.51600	6005
4.51667	6005
4.51733	6005
4.51800	6005
4.51867	6006
4.51933	6006
4.52000	6006
4.52067	6007
4.52133	6007
4.52200	6008
4.52267	6008
4.52333	6009
4.52400	6010
4.52467	6010
4.52533	6011
4.52600	6012
4.52667	6013
4.52733	6014
4.52800	6015
4.52867	6016
4.52933	6018
4.53000	6019
4.53067	6021
4.53133	6022
4.53200	6024
4.53267	6026
4.53333	6028
4.53400	6030
4.53467	6033
4.53533	6035
4.53600	6038
4.53667	6040
4.53733	6043
4.53800	6046
4.53867	6049
4.53933	6053
4.54000	6056
4.54067	6060
4.54133	6064
4.54200	6068
4.54267	6072
4.54333	6077
4.54400	6082
4.54467	6087
4.54533	6092
4.54600	6097
4.54667	6103
4.54733	6109
4.54800	6115
4.54867	6121
4.54933	6128
4.55000	6135
4.55067	6142
4.55133	6149
4.55200	6157
4.55267	6165
4.55333	6173
4.55400	6182
4.55467	6191
4.55533	6200
4.55600	6210
4.55667	6220
4.55733	6230
4.55800	6240
4.55867	6251
4.55933	6262
4.56000	6273
4.56067	6284
4.56133	6296
4.56200	6308
4.56267	6320
4.56333	6333
4.56400	6346
4.56467	6359
4.56533	6372
4.56600	6385
4.56667	6399
4.56733	6413
4.56800	6427
4.56867	6441
4.56933	6455
4.57000	6469
4.57067	6484
4.57133	6499
4.57200	6513
4.57267	6528
4.57333	6543
4.57400	6558
4.57467	6574
4.57533	6589
4.57600	6604
4.57667	6620
4.57733	6635
4.57800	6650
4.57867	6666
4.57933	6681
4.58000	6697
4.58067	6713
4.58133	6728
4.58200	6744
4.58267	6760
4.58333	6775
4.58400	6791
4.58467	6807
4.58533	6822
4.58600	6838
4.58667	6853
4.58733	6868
4.58800	6884
4.58867	6899
4.58933	6914
4.59000	6929
4.59067	6944
4.59133	6958
4.59200	6973
4.59267	6987
4.59333	7001
4.59400	7015
4.59467	7029
4.59533	7043
4.59600	7057
4.59667	7070
4.59733	7083
4.59800	7096
4.59867	7109
4.59933	7121
4.60000	7134
4.60067	7146
4.60133	7158
4.60200	7169
4.60267	7180
4.60333	7191
4.60400	7202
4.60467	7212
4.60533	7222
4.60600	7232
4.60667	7242
4.60733	7251
4.60800	7260
4.60867	7269
4.60933	7277
4.61000	7285
4.61067	7293
4.61133	7301
4.61200	7308
4.61267	7315
4.61333	7321
4.61400	7327
4.61467	7333
4.61533	7338
4.61600	7344
4.61667	7349
4.61733	7353
4.61800	7357
4.61867	7361
4.61933	7365
4.62000	7369
4.62067	7372
4.62133	7374
4.62200	7377
4.62267	7379
4.62333	7381
4.62400	7383
4.62467	7384
4.62533	7385
4.62600	7386
4.62667	7387
4.62733	7387
4.62800	7387
4.62867	7387
4.62933	7386
4.63000	7386
4.63067	7385
4.63133	7383
4.63200	7382
4.63267	7380
4.63333	7378
4.63400	7376
4.63467	7373
4.63533	7371
4.63600	7368
4.63667	7365
4.63733	7361
4.63800	7358
4.63867	7354
4.63933	7350
4.64000	7345
4.64067	7341
4.64133	7336
4.64200	7331
4.64267	7326
4.64333	7320
4.64400	7315
4.64467	7309
4.64533	7303
4.64600	7297
4.64667	7291
4.64733	7284
4.64800	7278
4.64867	7271
4.64933	7264
4.65000	7257
4.65067	7250
4.65133	7242
4.65200	7235
4.65267	7227
4.65333	7219
4.65400	7211
4.65467	7203
4.65533	7195
4.65600	7186
4.65667	7178
4.65733	7169
4.65800	7161
4.65867	7152
4.65933	7143
4.66000	7134
4.66067	7126
4.66133	7117
4.66200	7108
4.66267	7098
4.66333	7089
4.66400	7080
4.66467	7071
4.66533	7061
4.66600	7052
4.66667	7042
4.66733	7032
4.66800	7023
4.66867	7013
4.66933	7003
4.67000	6993
4.67067	6983
4.67133	6973
4.67200	6963
4.67267	6953
4.67333	6943
4.67400	6933
4.67467	6923
4.67533	6912
4.67600	6902
4.67667	6892
4.67733	6882
4.67800	6872
4.67867	6862
4.67933	6852
4.68000	6842
4.68067	6831
4.68133	6821
4.68200	6811
4.68267	6801
4.68333	6791
4.68400	6781
4.68467	6771
4.68533	6761
4.68600	6752
4.68667	6742
4.68733	6732
4.68800	6722
4.68867	6713
4.68933	6703
4.69000	6693
4.69067	6684
4.69133	6674
4.69200	6664
4.69267	6655
4.69333	6645
4.69400	6636
4.69467	6626
4.69533	6617
4.69600	6608
4.69667	6598
4.69733	6589
4.69800	6580
4.69867	6571
4.69933	6562
4.70000	6553
4.70067	6544
4.70133	6535
4.70200	6527
4.70267	6518
4.70333	6509
4.70400	6501
4.70467	6492
4.70533	6484
4.70600	6475
4.70667	6467
4.70733	6459
4.70800	6450
4.70867	6442
4.70933	6434
4.71000	6427
4.71067	6419
4.71133	6411
4.71200	6404
4.71267	6396
4.71333	6389
4.71400	6382
4.71467	6374
4.71533	6367
4.71600	6360
4.71667	6353
4.71733	6346
4.71800	6339
4.71867	6333
4.71933	6326
4.72000	6319
4.72067	6312
4.72133	6306
4.72200	6299
4.72267	6293
4.72333	6287
4.72400	6280
4.72467	6274
4.72533	6268
4.72600	6262
4.72667	6256
4.72733	6250
4.72800	6245
4.72867	6239
4.72933	6233
4.73000	6228
4.73067	6222
4.73133	6217
4.73200	6211
4.73267	6206
4.73333	6201
4.73400	6195
4.73467	6190
4.73533	6185
4.73600	6180
4.73667	6175
4.73733	6170
4.73800	6165
4.73867	6160
4.73933	6155
4.74000	6150
4.74067	6145
4.74133	6141
4.74200	6136
4.74267	6131
4.74333	6126
4.74400	6122
4.74467	6117
4.74533	6112
4.74600	6108
4.74667	6103
4.74733	6098
4.74800	6093
4.74867	6089
4.74933	6084
4.75000	6079
4.75067	6074
4.75133	6070
4.75200	6065
4.75267	6060
4.75333	6055
4.75400	6051
4.75467	6046
4.75533	6042
4.75600	6037
4.75667	6032
4.75733	6028
4.75800	6023
4.75867	6019
4.75933	6014
4.76000	6010
4.76067	6005
4.76133	6001
4.76200	5997
4.76267	5993
4.76333	5989
4.76400	5985
4.76467	5981
4.76533	5977
4.76600	5973
4.76667	5969
4.76733	5965
4.76800	5961
4.76867	5958
4.76933	5954
4.77000	5950
4.77067	5947
4.77133	5943
4.77200	5940
4.77267	5936
4.77333	5933
4.77400	5929
4.77467	5926
4.77533	5923
4.77600	5919
4.77667	5916
4.77733	5913
4.77800	5910
4.77867	5906
4.77933	5903
4.78000	5900
4.78067	5897
4.78133	5894
4.78200	5891
4.78267	5888
4.78333	5885
4.78400	5882
4.78467	5879
4.78533	5876
4.78600	5873
4.78667	5870
4.78733	5866
4.78800	5863
4.78867	5860
4.78933	5857
4.79000	5854
4.79067	5852
4.79133	5849
4.79200	5846
4.79267	5843
4.79333	5840
4.79400	5837
4.79467	5834
4.79533	5831
4.79600	5828
4.79667	5825
4.79733	5822
4.79800	5820
4.79867	5817
4.79933	5814
4.80000	5811
4.80067	5808
4.80133	5805
4.80200	5802
4.80267	5799
4.80333	5797
4.80400	5794
4.80467	5791
4.80533	5788
4.80600	5785
4.80667	5782
4.80733	5780
4.80800	5777
4.80867	5774
4.80933	5771
4.81000	5768
4.81067	5765
4.81133	5763
4.81200	5760
4.81267	5757
4.81333	5754
4.81400	5751
4.81467	5748
4.81533	5745
4.81600	5742
4.81667	5739
4.81733	5736
4.81800	5733
4.81867	5730
4.81933	5727
4.82000	5724
4.82067	5721
4.82133	5718
4.82200	5715
4.82267	5713
4.82333	5710
4.82400	5707
4.82467	5704
4.82533	5701
4.82600	5698
4.82667	5695
4.82733	5692
4.82800	5689
4.82867	5686
4.82933	5684
4.83000	5681
4.83067	5678
4.83133	5675
4.83200	5672
4.83267	5669
4.83333	5667
4.83400	5664
4.83467	5661
4.83533	5658
4.83600	5655
4.83667	5653
4.83733	5650
4.83800	5647
4.83867	5644
4.83933	5641
4.84000	5638
4.84067	5636
4.84133	5633
4.84200	5630
4.84267	5627
4.84333	5624
4.84400	5622
4.84467	5619
4.84533	5616
4.84600	5613
4.84667	5610
4.84733	5608
4.84800	5605
4.84867	5602
4.84933	5599
4.85000	5596
4.85067	5594
4.85133	5591
4.85200	5588
4.85267	5585
4.85333	5582
4.85400	5580
4.85467	5577
4.85533	5574
4.85600	5572
4.85667	5569
4.85733	5566
4.85800	5563
4.85867	5561
4.85933	5558
4.86000	5555
4.86067	5553
4.86133	5550
4.86200	5547
4.86267	5545
4.86333	5542
4.86400	5540
4.86467	5537
4.86533	5535
4.86600	5533
4.86667	5530
4.86733	5528
4.86800	5525
4.86867	5523
4.86933	5520
4.87000	5518
4.87067	5516
4.87133	5513
4.87200	5511
4.87267	5509
4.87333	5506
4.87400	5504
4.87467	5501
4.87533	5499
4.87600	5497
4.87667	5495
4.87733	5492
4.87800	5490
4.87867	5488
4.87933	5485
4.88000	5483
4.88067	5480
4.88133	5478
4.88200	5476
4.88267	5473
4.88333	5471
4.88400	5469
4.88467	5466
4.88533	5464
4.88600	5462
4.88667	5459
4.88733	5457
4.88800	5454
4.88867	5452
4.88933	5450
4.89000	5447
4.89067	5445
4.89133	5443
4.89200	5440
4.89267	5438
4.89333	5436
4.89400	5433
4.89467	5431
4.89533	5428
4.89600	5426
4.89667	5424
4.89733	5421
4.89800	5419
4.89867	5417
4.89933	5414
4.90000	5412
4.90067	5410
4.90133	5408
4.90200	5405
4.90267	5403
4.90333	5401
4.90400	5399
4.90467	5397
4.90533	5395
4.90600	5392
4.90667	5390
4.90733	5388
4.90800	5386
4.90867	5384
4.90933	5382
4.91000	5380
4.91067	5378
4.91133	5375
4.91200	5373
4.91267	5371
4.91333	5369
4.91400	5367
4.91467	5366
4.91533	5364
4.91600	5362
4.91667	5360
4.91733	5358
4.91800	5356
4.91867	5355
4.91933	5353
4.92000	5351
4.92067	5349
4.92133	5348
4.92200	5346
4.92267	5344
4.92333	5343
4.92400	5341
4.92467	5340
4.92533	5338
4.92600	5337
4.92667	5336
4.92733	5334
4.92800	5333
4.92867	5332
4.92933	5331
4.93000	5330
4.93067	5328
4.93133	5327
4.93200	5326
4.93267	5325
4.93333	5324
4.93400	5322
4.93467	5321
4.93533	5320
4.93600	5319
4.93667	5318
4.93733	5317
4.93800	5316
4.93867	5314
4.93933	5313
4.94000	5312
4.94067	5311
4.94133	5310
4.94200	5309
4.94267	5308
4.94333	5307
4.94400	5306
4.94467	5305
4.94533	5303
4.94600	5302
4.94667	5301
4.94733	5300
4.94800	5299
4.94867	5298
4.94933	5297
4.95000	5296
4.95067	5295
4.95133	5294
4.95200	5292
4.95267	5291
4.95333	5291
4.95400	5290
4.95467	5289
4.95533	5288
4.95600	5287
4.95667	5285
4.95733	5284
4.95800	5283
4.95867	5282
4.95933	5281
4.96000	5280
4.96067	5279
4.96133	5278
4.96200	5277
4.96267	5276
4.96333	5275
4.96400	5274
4.96467	5273
4.96533	5272
4.96600	5271
4.96667	5270
4.96733	5268
4.96800	5267
4.96867	5266
4.96933	5265
4.97000	5264
4.97067	5263
4.97133	5262
4.97200	5261
4.97267	5260
4.97333	5259
4.97400	5258
4.97467	5256
4.97533	5255
4.97600	5254
4.97667	5253
4.97733	5252
4.97800	5250
4.97867	5249
4.97933	5248
4.98000	5247
4.98067	5245
4.98133	5244
4.98200	5243
4.98267	5241
4.98333	5240
4.98400	5238
4.98467	5237
4.98533	5235
4.98600	5234
4.98667	5232
4.98733	5231
4.98800	5229
4.98867	5228
4.98933	5226
4.99000	5224
4.99067	5223
4.99133	5221
4.99200	5220
4.99267	5218
4.99333	5216
4.99400	5215
4.99467	5213
4.99533	5211
4.99600	5210
4.99667	5208
4.99733	5206
4.99800	5205
4.99867	5203
4.99933	5201
5.00000	5200
5.00067	5198
5.00133	5196
5.00200	5195
5.00267	5193
5.00333	5191
5.00400	5190
5.00467	5188
5.00533	5186
5.00600	5185
5.00667	5183
5.00733	5181
5.00800	5180
5.00867	5178
5.00933	5176
5.01000	5174
5.01067	5173
5.01133	5171
5.01200	5169
5.01267	5167
5.01333	5166
5.01400	5164
5.01467	5162
5.01533	5161
5.01600	5159
5.01667	5157
5.01733	5155
5.01800	5154
5.01867	5152
5.01933	5150
5.02000	5148
5.02067	5147
5.02133	5145
5.02200	5143
5.02267	5142
5.02333	5140
5.02400	5138
5.02467	5137
5.02533	5135
5.02600	5133
5.02667	5131
5.02733	5129
5.02800	5128
5.02867	5126
5.02933	5124
5.03000	5122
5.03067	5120
5.03133	5119
5.03200	5117
5.03267	5115
5.03333	5113
5.03400	5112
5.03467	5110
5.03533	5108
5.03600	5107
5.03667	5105
5.03733	5104
5.03800	5102
5.03867	5101
5.03933	5099
5.04000	5098
5.04067	5096
5.04133	5095
5.04200	5093
5.04267	5092
5.04333	5090
5.04400	5089
5.04467	5087
5.04533	5086
5.04600	5084
5.04667	5083
5.04733	5082
5.04800	5080
5.04867	5079
5.04933	5077
5.05000	5076
5.05067	5075
5.05133	5073
5.05200	5072
5.05267	5071
5.05333	5069
5.05400	5068
5.05467	5067
5.05533	5065
5.05600	5064
5.05667	5063
5.05733	5061
5.05800	5060
5.05867	5059
5.05933	5057
5.06000	5056
5.06067	5055
5.06133	5053
5.06200	5052
5.06267	5050
5.06333	5049
5.06400	5048
5.06467	5046
5.06533	5045
5.06600	5043
5.06667	5042
5.06733	5040
5.06800	5039
5.06867	5038
5.06933	5036
5.07000	5035
5.07067	5033
5.07133	5032
5.07200	5031
5.07267	5029
5.07333	5028
5.07400	5027
5.07467	5025
5.07533	5024
5.07600	5023
5.07667	5022
5.07733	5021
5.07800	5019
5.07867	5018
5.07933	5017
5.08000	5016
5.08067	5015
5.08133	5014
5.08200	5013
5.08267	5011
5.08333	5010
5.08400	5009
5.08467	5008
5.08533	5007
5.08600	5006
5.08667	5005
5.08733	5004
5.08800	5003
5.08867	5002
5.08933	5001
5.09000	5000
5.09067	4999
5.09133	4998
5.09200	4997
5.09267	4996
5.09333	4995
5.09400	4995
5.09467	4994
5.09533	4993
5.09600	4992
5.09667	4992
5.09733	4991
5.09800	4990
5.09867	4990
5.09933	4989
5.10000	4988
5.10067	4987
5.10133	4987
5.10200	4986
5.10267	4985
5.10333	4984
5.10400	4984
5.10467	4983
5.10533	4982
5.10600	4982
5.10667	4981
5.10733	4980
5.10800	4980
5.10867	4979
5.10933	4979
5.11000	4978
5.11067	4977
5.11133	4977
5.11200	4976
5.11267	4976
5.11333	4975
5.11400	4975
5.11467	4975
5.11533	4974
5.11600	4974
5.11667	4974
5.11733	4973
5.11800	4973
5.11867	4973
5.11933	4973
5.12000	4973
5.12067	4972
5.12133	4972
5.12200	4972
5.12267	4972
5.12333	4972
5.12400	4973
5.12467	4973
5.12533	4973
5.12600	4973
5.12667	4973
5.12733	4973
5.12800	4973
5.12867	4974
5.12933	4974
5.13000	4974
5.13067	4975
5.13133	4975
5.13200	4976
5.13267	4976
5.13333	4977
5.13400	4977
5.13467	4978
5.13533	4979
5.13600	4980
5.13667	4981
5.13733	4981
5.13800	4983
5.13867	4984
5.13933	4985
5.14000	4986
5.14067	4987
5.14133	4989
5.14200	4990
5.14267	4992
5.14333	4993
5.14400	4995
5.14467	4997
5.14533	4999
5.14600	5001
5.14667	5003
5.14733	5005
5.14800	5007
5.14867	5010
5.14933	5012
5.15000	5014
5.15067	5017
5.15133	5019
5.15200	5022
5.15267	5025
5.15333	5027
5.15400	5030
5.15467	5033
5.15533	5036
5.15600	5039
5.15667	5042
5.15733	5046
5.15800	5049
5.15867	5052
5.15933	5056
5.16000	5059
5.16067	5063
5.16133	5066
5.16200	5070
5.16267	5074
5.16333	5077
5.16400	5081
5.16467	5085
5.16533	5089
5.16600	5093
5.16667	5097
5.16733	5101
5.16800	5106
5.16867	5110
5.16933	5114
5.17000	5119
5.17067	5124
5.17133	5128
5.17200	5133
5.17267	5138
5.17333	5143
5.17400	5147
5.17467	5152
5.17533	5157
5.17600	5162
5.17667	5167
5.17733	5173
5.17800	5178
5.17867	5183
5.17933	5188
5.18000	5193
5.18067	5199
5.18133	5204
5.18200	5210
5.18267	5215
5.18333	5221
5.18400	5226
5.18467	5232
5.18533	5238
5.18600	5244
5.18667	5249
5.18733	5255
5.18800	5261
5.18867	5267
5.18933	5273
5.19000	5279
5.19067	5285
5.19133	5291
5.19200	5297
5.19267	5303
5.19333	5309
5.19400	5315
5.19467	5321
5.19533	5327
5.19600	5333
5.19667	5339
5.19733	5346
5.19800	5352
5.19867	5358
5.19933	5364
5.20000	5370
5.20067	5377
5.20133	5383
5.20200	5389
5.20267	5395
5.20333	5401
5.20400	5407
5.20467	5413
5.20533	5419
5.20600	5425
5.20667	5431
5.20733	5436
5.20800	5442
5.20867	5448
5.20933	5454
5.21000	5459
5.21067	5465
5.21133	5470
5.21200	5476
5.21267	5481
5.21333	5486
5.21400	5491
5.21467	5496
5.21533	5501
5.21600	5506
5.21667	5511
5.21733	5516
5.21800	5521
5.21867	5525
5.21933	5530
5.22000	5534
5.22067	5539
5.22133	5543
5.22200	5547
5.22267	5551
5.22333	5555
5.22400	5559
5.22467	5562
5.22533	5566
5.22600	5569
5.22667	5573
5.22733	5576
5.22800	5579
5.22867	5582
5.22933	5585
5.23000	5588
5.23067	5590
5.23133	5593
5.23200	5595
5.23267	5597
5.23333	5599
5.23400	5601
5.23467	5603
5.23533	5605
5.23600	5607
5.23667	5608
5.23733	5610
5.23800	5611
5.23867	5612
5.23933	5613
5.24000	5614
5.24067	5615
5.24133	5615
5.24200	5616
5.24267	5616
5.24333	5617
5.24400	5617
5.24467	5617
5.24533	5617
5.24600	5617
5.24667	5616
5.24733	5616
5.24800	5615
5.24867	5614
5.24933	5614
5.25000	5613
5.25067	5612
5.25133	5611
5.25200	5610
5.25267	5608
5.25333	5607
5.25400	5606
5.25467	5604
5.25533	5602
5.25600	5601
5.25667	5599
5.25733	5597
5.25800	5595
5.25867	5593
5.25933	5591
5.26000	5588
5.26067	5586
5.26133	5584
5.26200	5581
5.26267	5578
5.26333	5576
5.26400	5573
5.26467	5570
5.26533	5567
5.26600	5564
5.26667	5561
5.26733	5558
5.26800	5555
5.26867	5551
5.26933	5548
5.27000	5545
5.27067	5541
5.27133	5538
5.27200	5534
5.27267	5531
5.27333	5527
5.27400	5523
5.27467	5520
5.27533	5516
5.27600	5512
5.27667	5509
5.27733	5505
5.27800	5501
5.27867	5498
5.27933	5494
5.28000	5490
5.28067	5486
5.28133	5483
5.28200	5479
5.28267	5475
5.28333	5471
5.28400	5467
5.28467	5464
5.28533	5460
5.28600	5456
5.28667	5452
5.28733	5448
5.28800	5445
5.28867	5441
5.28933	5437
5.29000	5433
5.29067	5429
5.29133	5426
5.29200	5422
5.29267	5418
5.29333	5414
5.29400	5411
5.29467	5407
5.29533	5403
5.29600	5400
5.29667	5396
5.29733	5392
5.29800	5389
5.29867	5385
5.29933	5382
5.30000	5378
5.30067	5375
5.30133	5371
5.30200	5368
5.30267	5364
5.30333	5361
5.30400	5357
5.30467	5354
5.30533	5351
5.30600	5347
5.30667	5344
5.30733	5341
5.30800	5337
5.30867	5334
5.30933	5331
5.31000	5328
5.31067	5325
5.31133	5321
5.31200	5318
5.31267	5315
5.31333	5312
5.31400	5309
5.31467	5306
5.31533	5303
5.31600	5300
5.31667	5297
5.31733	5294
5.31800	5292
5.31867	5289
5.31933	5286
5.32000	5283
5.32067	5280
5.32133	5278
5.32200	5275
5.32267	5273
5.32333	5270
5.32400	5267
5.32467	5265
5.32533	5262
5.32600	5260
5.32667	5257
5.32733	5255
5.32800	5252
5.32867	5250
5.32933	5248
5.33000	5245
5.33067	5243
5.33133	5240
5.33200	5238
5.33267	5236
5.33333	5233
5.33400	5231
5.33467	5229
5.33533	5227
5.33600	5224
5.33667	5222
5.33733	5220
5.33800	5218
5.33867	5215
5.33933	5213
5.34000	5211
5.34067	5209
5.34133	5207
5.34200	5204
5.34267	5202
5.34333	5200
5.34400	5198
5.34467	5196
5.34533	5194
5.34600	5192
5.34667	5190
5.34733	5188
5.34800	5185
5.34867	5183
5.34933	5181
5.35000	5179
5.35067	5177
5.35133	5175
5.35200	5174
5.35267	5172
5.35333	5170
5.35400	5168
5.35467	5166
5.35533	5164
5.35600	5162
5.35667	5160
5.35733	5158
5.35800	5157
5.35867	5155
5.35933	5153
5.36000	5151
5.36067	5149
5.36133	5148
5.36200	5146
5.36267	5144
5.36333	5143
5.36400	5141
5.36467	5139
5.36533	5138
5.36600	5136
5.36667	5135
5.36733	5133
5.36800	5132
5.36867	5130
5.36933	5128
5.37000	5127
5.37067	5125
5.37133	5123
5.37200	5122
5.37267	5120
5.37333	5119
5.37400	5117
5.37467	5115
5.37533	5114
5.37600	5112
5.37667	5111
5.37733	5109
5.37800	5108
5.37867	5106
5.37933	5105
5.38000	5103
5.38067	5102
5.38133	5100
5.38200	5098
5.38267	5097
5.38333	5095
5.38400	5094
5.38467	5092
5.38533	5090
5.38600	5089
5.38667	5087
5.38733	5086
5.38800	5084
5.38867	5082
5.38933	5081
5.39000	5079
5.39067	5078
5.39133	5076
5.39200	5075
5.39267	5073
5.39333	5072
5.39400	5070
5.39467	5069
5.39533	5067
5.39600	5066
5.39667	5065
5.39733	5063
5.39800	5062
5.39867	5060
5.39933	5059
5.40000	5057
5.40067	5056
5.40133	5054
5.40200	5053
5.40267	5051
5.40333	5050
5.40400	5048
5.40467	5047
5.40533	5045
5.40600	5044
5.40667	5042
5.40733	5041
5.40800	5040
5.40867	5038
5.40933	5037
5.41000	5035
5.41067	5034
5.41133	5032
5.41200	5031
5.41267	5029
5.41333	5028
5.41400	5027
5.41467	5025
5.41533	5024
5.41600	5023
5.41667	5021
5.41733	5020
5.41800	5019
5.41867	5017
5.41933	5016
5.42000	5015
5.42067	5013
5.42133	5012
5.42200	5011
5.42267	5009
5.42333	5008
5.42400	5007
5.42467	5005
5.42533	5004
5.42600	5002
5.42667	5001
5.42733	4999
5.42800	4998
5.42867	4996
5.42933	4995
5.43000	4993
5.43067	4991
5.43133	4990
5.43200	4988
5.43267	4987
5.43333	4985
5.43400	4983
5.43467	4982
5.43533	4980
5.43600	4979
5.43667	4977
5.43733	4975
5.43800	4974
5.43867	4972
5.43933	4971
5.44000	4969
5.44067	4967
5.44133	4966
5.44200	4964
5.44267	4962
5.44333	4961
5.44400	4959
5.44467	4957
5.44533	4956
5.44600	4954
5.44667	4952
5.44733	4951
5.44800	4949
5.44867	4947
5.44933	4946
5.45000	4944
5.45067	4943
5.45133	4941
5.45200	4940
5.45267	4938
5.45333	4937
5.45400	4935
5.45467	4934
5.45533	4932
5.45600	4931
5.45667	4929
5.45733	4928
5.45800	4926
5.45867	4925
5.45933	4923
5.46000	4922
5.46067	4920
5.46133	4918
5.46200	4917
5.46267	4915
5.46333	4914
5.46400	4912
5.46467	4910
5.46533	4909
5.46600	4907
5.46667	4906
5.46733	4904
5.46800	4903
5.46867	4901
5.46933	4900
5.47000	4898
5.47067	4897
5.47133	4895
5.47200	4894
5.47267	4893
5.47333	4891
5.47400	4890
5.47467	4888
5.47533	4887
5.47600	4886
5.47667	4884
5.47733	4883
5.47800	4882
5.47867	4880
5.47933	4879
5.48000	4878
5.48067	4876
5.48133	4875
5.48200	4874
5.48267	4873
5.48333	4871
5.48400	4870
5.48467	4869
5.48533	4868
5.48600	4867
5.48667	4865
5.48733	4864
5.48800	4863
5.48867	4862
5.48933	4860
5.49000	4859
5.49067	4858
5.49133	4857
5.49200	4855
5.49267	4854
5.49333	4853
5.49400	4851
5.49467	4850
5.49533	4849
5.49600	4848
5.49667	4847
5.49733	4846
5.49800	4844
5.49867	4843
5.49933	4842
5.50000	4841
5.50067	4840
5.50133	4839
5.50200	4838
5.50267	4836
5.50333	4835
5.50400	4834
5.50467	4833
5.50533	4832
5.50600	4831
5.50667	4829
5.50733	4828
5.50800	4827
5.50867	4826
5.50933	4825
5.51000	4823
5.51067	4822
5.51133	4821
5.51200	4820
5.51267	4819
5.51333	4817
5.51400	4816
5.51467	4815
5.51533	4814
5.51600	4813
5.51667	4811
5.51733	4810
5.51800	4809
5.51867	4808
5.51933	4807
5.52000	4806
5.52067	4805
5.52133	4803
5.52200	4802
5.52267	4801
5.52333	4800
5.52400	4799
5.52467	4798
5.52533	4797
5.52600	4796
5.52667	4795
5.52733	4795
5.52800	4794
5.52867	4793
5.52933	4792
5.53000	4791
5.53067	4791
5.53133	4790
5.53200	4789
5.53267	4789
5.53333	4788
5.53400	4787
5.53467	4787
5.53533	4786
5.53600	4785
5.53667	4785
5.53733	4784
5.53800	4783
5.53867	4783
5.53933	4782
5.54000	4782
5.54067	4781
5.54133	4780
5.54200	4780
5.54267	4779
5.54333	4778
5.54400	4778
5.54467	4777
5.54533	4777
5.54600	4776
5.54667	4776
5.54733	4775
5.54800	4775
5.54867	4774
5.54933	4774
5.55000	4773
5.55067	4773
5.55133	4772
5.55200	4772
5.55267	4772
5.55333	4772
5.55400	4771
5.55467	4771
5.55533	4771
5.55600	4770
5.55667	4770
5.55733	4770
5.55800	4770
5.55867	4769
5.55933	4769
5.56000	4769
5.56067	4769
5.56133	4769
5.56200	4769
5.56267	4768
5.56333	4768
5.56400	4768
5.56467	4768
5.56533	4768
5.56600	4768
5.56667	4768
5.56733	4767
5.56800	4767
5.56867	4767
5.56933	4767
5.57000	4767
5.57067	4767
5.57133	4767
5.57200	4766
5.57267	4766
5.57333	4766
5.57400	4766
5.57467	4766
5.57533	4766
5.57600	4765
5.57667	4765
5.57733	4765
5.57800	4765
5.57867	4765
5.57933	4764
5.58000	4764
5.58067	4764
5.58133	4764
5.58200	4764
5.58267	4764
5.58333	4763
5.58400	4763
5.58467	4763
5.58533	4763
5.58600	4763
5.58667	4763
5.58733	4762
5.58800	4762
5.58867	4762
5.58933	4762
5.59000	4762
5.59067	4762
5.59133	4761
5.59200	4761
5.59267	4761
5.59333	4761
5.59400	4761
5.59467	4760
5.59533	4760
5.59600	4760
5.59667	4760
5.59733	4759
5.59800	4759
5.59867	4759
5.59933	4759
5.60000	4758
5.60067	4758
5.60133	4758
5.60200	4757
5.60267	4757
5.60333	4757
5.60400	4756
5.60467	4756
5.60533	4755
5.60600	4755
5.60667	4754
5.60733	4754
5.60800	4753
5.60867	4753
5.60933	4752
5.61000	4752
5.61067	4751
5.61133	4751
5.61200	4750
5.61267	4750
5.61333	4749
5.61400	4748
5.61467	4748
5.61533	4747
5.61600	4747
5.61667	4746
5.61733	4745
5.61800	4745
5.61867	4744
5.61933	4743
5.62000	4743
5.62067	4742
5.62133	4741
5.62200	4741
5.62267	4740
5.62333	4739
5.62400	4739
5.62467	4738
5.62533	4737
5.62600	4736
5.62667	4736
5.62733	4735
5.62800	4734
5.62867	4733
5.62933	4733
5.63000	4732
5.63067	4731
5.63133	4730
5.63200	4730
5.63267	4729
5.63333	4728
5.63400	4727
5.63467	4727
5.63533	4726
5.63600	4725
5.63667	4724
5.63733	4723
5.63800	4723
5.63867	4722
5.63933	4721
5.64000	4720
5.64067	4720
5.64133	4719
5.64200	4718
5.64267	4717
5.64333	4716
5.64400	4716
5.64467	4715
5.64533	4714
5.64600	4713
5.64667	4713
5.64733	4712
5.64800	4711
5.64867	4710
5.64933	4709
5.65000	4708
5.65067	4708
5.65133	4707
5.65200	4706
5.65267	4705
5.65333	4704
5.65400	4703
5.65467	4702
5.65533	4701
5.65600	4700
5.65667	4699
5.65733	4698
5.65800	4697
5.65867	4696
5.65933	4695
5.66000	4694
5.66067	4693
5.66133	4692
5.66200	4691
5.66267	4690
5.66333	4689
5.66400	4688
5.66467	4687
5.66533	4686
5.66600	4685
5.66667	4684
5.66733	4683
5.66800	4682
5.66867	4681
5.66933	4680
5.67000	4679
5.67067	4677
5.67133	4676
5.67200	4675
5.67267	4674
5.67333	4673
5.67400	4672
5.67467	4671
5.67533	4670
5.67600	4669
5.67667	4668
5.67733	4667
5.67800	4666
5.67867	4665
5.67933	4664
5.68000	4663
5.68067	4662
5.68133	4661
5.68200	4660
5.68267	4659
5.68333	4658
5.68400	4657
5.68467	4656
5.68533	4655
5.68600	4654
5.68667	4653
5.68733	4652
5.68800	4651
5.68867	4651
5.68933	4650
5.69000	4649
5.69067	4648
5.69133	4647
5.69200	4646
5.69267	4646
5.69333	4645
5.69400	4644
5.69467	4643
5.69533	4642
5.69600	4642
5.69667	4641
5.69733	4640
5.69800	4639
5.69867	4639
5.69933	4638
5.70000	4637
5.70067	4636
5.70133	4636
5.70200	4635
5.70267	4634
5.70333	4633
5.70400	4632
5.70467	4632
5.70533	4631
5.70600	4630
5.70667	4629
5.70733	4629
5.70800	4628
5.70867	4627
5.70933	4627
5.71000	4626
5.71067	4625
5.71133	4625
5.71200	4624
5.71267	4624
5.71333	4623
5.71400	4623
5.71467	4622
5.71533	4621
5.71600	4621
5.71667	4620
5.71733	4620
5.71800	4619
5.71867	4619
5.71933	4618
5.72000	4617
5.72067	4617
5.72133	4616
5.72200	4616
5.72267	4615
5.72333	4615
5.72400	4614
5.72467	4614
5.72533	4613
5.72600	4613
5.72667	4612
5.72733	4612
5.72800	4611
5.72867	4611
5.72933	4610
5.73000	4610
5.73067	4609
5.73133	4609
5.73200	4608
5.73267	4608
5.73333	4607
5.73400	4607
5.73467	4606
5.73533	4606
5.73600	4605
5.73667	4605
5.73733	4604
5.73800	4604
5.73867	4604
5.73933	4603
5.74000	4603
5.74067	4602
5.74133	4602
5.74200	4602
5.74267	4601
5.74333	4601
5.74400	4600
5.74467	4600
5.74533	4600
5.74600	4599
5.74667	4599
5.74733	4599
5.74800	4599
5.74867	4598
5.74933	4598
5.75000	4598
5.75067	4598
5.75133	4597
5.75200	4597
5.75267	4597
5.75333	4597
5.75400	4597
5.75467	4597
5.75533	4596
5.75600	4596
5.75667	4596
5.75733	4596
5.75800	4596
5.75867	4596
5.75933	4596
5.76000	4596
5.76067	4596
5.76133	4596
5.76200	4596
5.76267	4596
5.76333	4596
5.76400	4596
5.76467	4596
5.76533	4596
5.76600	4596
5.76667	4596
5.76733	4596
5.76800	4596
5.76867	4596
5.76933	4596
5.77000	4596
5.77067	4597
5.77133	4597
5.77200	4597
5.77267	4597
5.77333	4597
5.77400	4598
5.77467	4598
5.77533	4598
5.77600	4598
5.77667	4599
5.77733	4599
5.77800	4599
5.77867	4600
5.77933	4600
5.78000	4600
5.78067	4601
5.78133	4601
5.78200	4601
5.78267	4602
5.78333	4602
5.78400	4602
5.78467	4602
5.78533	4603
5.78600	4603
5.78667	4604
5.78733	4604
5.78800	4604
5.78867	4605
5.78933	4605
5.79000	4606
5.79067	4606
5.79133	4606
5.79200	4607
5.79267	4607
5.79333	4608
5.79400	4608
5.79467	4609
5.79533	4609
5.79600	4610
5.79667	4610
5.79733	4611
5.79800	4611
5.79867	4612
5.79933	4612
5.80000	4613
5.80067	4613
5.80133	4614
5.80200	4614
5.80267	4615
5.80333	4615
5.80400	4616
5.80467	4617
5.80533	4617
5.80600	4618
5.80667	4619
5.80733	4620
5.80800	4620
5.80867	4621
5.80933	4622
5.81000	4622
5.81067	4623
5.81133	4624
5.81200	4625
5.81267	4625
5.81333	4626
5.81400	4627
5.81467	4627
5.81533	4628
5.81600	4628
5.81667	4629
5.81733	4630
5.81800	4630
5.81867	4631
5.81933	4631
5.82000	4632
5.82067	4632
5.82133	4633
5.82200	4633
5.82267	4634
5.82333	4634
5.82400	4634
5.82467	4635
5.82533	4635
5.82600	4636
5.82667	4636
5.82733	4636
5.82800	4637
5.82867	4637
5.82933	4637
5.83000	4637
5.83067	4638
5.83133	4638
5.83200	4638
5.83267	4638
5.83333	4639
5.83400	4639
5.83467	4639
5.83533	4639
5.83600	4640
5.83667	4640
5.83733	4640
5.83800	4640
5.83867	4640
5.83933	4641
5.84000	4641
5.84067	4641
5.84133	4641
5.84200	4641
5.84267	4641
5.84333	4641
5.84400	4641
5.84467	4641
5.84533	4641
5.84600	4641
5.84667	4641
5.84733	4641
5.84800	4641
5.84867	4641
5.84933	4641
5.85000	4641
5.85067	4641
5.85133	4640
5.85200	4640
5.85267	4640
5.85333	4640
5.85400	4640
5.85467	4640
5.85533	4639
5.85600	4639
5.85667	4639
5.85733	4639
5.85800	4639
5.85867	4639
5.85933	4638
5.86000	4638
5.86067	4638
5.86133	4638
5.86200	4638
5.86267	4638
5.86333	4638
5.86400	4637
5.86467	4637
5.86533	4637
5.86600	4637
5.86667	4637
5.86733	4637
5.86800	4637
5.86867	4636
5.86933	4636
5.87000	4636
5.87067	4636
5.87133	4636
5.87200	4636
5.87267	4636
5.87333	4636
5.87400	4636
5.87467	4636
5.87533	4636
5.87600	4636
5.87667	4636
5.87733	4636
5.87800	4636
5.87867	4636
5.87933	4636
5.88000	4636
5.88067	4635
5.88133	4635
5.88200	4635
5.88267	4635
5.88333	4635
5.88400	4634
5.88467	4634
5.88533	4634
5.88600	4634
5.88667	4634
5.88733	4633
5.88800	4633
5.88867	4633
5.88933	4633
5.89000	4633
5.89067	4632
5.89133	4632
5.89200	4632
5.89267	4632
5.89333	4632
5.89400	4632
5.89467	4632
5.89533	4632
5.89600	4631
5.89667	4631
5.89733	4631
5.89800	4631
5.89867	4631
5.89933	4631
5.90000	4631
5.90067	4631
5.90133	4630
5.90200	4630
5.90267	4630
5.90333	4630
5.90400	4630
5.90467	4630
5.90533	4629
5.90600	4629
5.90667	4629
5.90733	4629
5.90800	4629
5.90867	4629
5.90933	4629
5.91000	4629
5.91067	4629
5.91133	4629
5.91200	4629
5.91267	4629
5.91333	4630
5.91400	4630
5.91467	4630
5.91533	4630
5.91600	4630
5.91667	4630
5.91733	4630
5.91800	4631
5.91867	4631
5.91933	4631
5.92000	4631
5.92067	4631
5.92133	4631
5.92200	4631
5.92267	4631
5.92333	4632
5.92400	4632
5.92467	4632
5.92533	4632
5.92600	4632
5.92667	4632
5.92733	4632
5.92800	4633
5.92867	4633
5.92933	4633
5.93000	4633
5.93067	4633
5.93133	4634
5.93200	4634
5.93267	4634
5.93333	4634
5.93400	4634
5.93467	4635
5.93533	4635
5.93600	4635
5.93667	4635
5.93733	4636
5.93800	4636
5.93867	4636
5.93933	4636
5.94000	4637
5.94067	4637
5.94133	4637
5.94200	4637
5.94267	4638
5.94333	4638
5.94400	4638
5.94467	4639
5.94533	4639
5.94600	4639
5.94667	4640
5.94733	4640
5.94800	4640
5.94867	4641
5.94933	4641
5.95000	4641
5.95067	4641
5.95133	4642
5.95200	4642
5.95267	4642
5.95333	4643
5.95400	4643
5.95467	4644
5.95533	4644
5.95600	4644
5.95667	4645
5.95733	4645
5.95800	4646
5.95867	4646
5.95933	4646
5.96000	4647
5.96067	4647
5.96133	4648
5.96200	4648
5.96267	4649
5.96333	4649
5.96400	4650
5.96467	4650
5.96533	4651
5.96600	4651
5.96667	4651
5.96733	4652
5.96800	4652
5.96867	4653
5.96933	4653
5.97000	4653
5.97067	4654
5.97133	4654
5.97200	4655
5.97267	4655
5.97333	4655
5.97400	4656
5.97467	4656
5.97533	4657
5.97600	4657
5.97667	4657
5.97733	4658
5.97800	4658
5.97867	4659
5.97933	4659
5.98000	4660
5.98067	4660
5.98133	4661
5.98200	4661
5.98267	4662
5.98333	4662
5.98400	4663
5.98467	4663
5.98533	4664
5.98600	4665
5.98667	4665
5.98733	4666
5.98800	4666
5.98867	4667
5.98933	4667
5.99000	4668
5.99067	4668
5.99133	4669
5.99200	4669
5.99267	4670
5.99333	4670
5.99400	4671
5.99467	4671
5.99533	4672
5.99600	4672
5.99667	4672
5.99733	4673
5.99800	4673
5.99867	4673
5.99933	4673
6.00000	4674
6.00067	4674
6.00133	4674
6.00200	4674
6.00267	4674
6.00333	4674
6.00400	4674
6.00467	4675
6.00533	4675
6.00600	4675
6.00667	4675
6.00733	4675
6.00800	4675
6.00867	4675
6.00933	4675
6.01000	4675
6.01067	4675
6.01133	4675
6.01200	4675
6.01267	4675
6.01333	4675
6.01400	4674
6.01467	4674
6.01533	4674
6.01600	4674
6.01667	4674
6.01733	4674
6.01800	4674
6.01867	4673
6.01933	4673
6.02000	4673
6.02067	4673
6.02133	4672
6.02200	4672
6.02267	4672
6.02333	4672
6.02400	4671
6.02467	4671
6.02533	4671
6.02600	4671
6.02667	4671
6.02733	4671
6.02800	4671
6.02867	4670
6.02933	4670
6.03000	4670
6.03067	4670
6.03133	4670
6.03200	4670
6.03267	4670
6.03333	4670
6.03400	4670
6.03467	4669
6.03533	4669
6.03600	4669
6.03667	4669
6.03733	4669
6.03800	4669
6.03867	4669
6.03933	4668
6.04000	4668
6.04067	4668
6.04133	4668
6.04200	4668
6.04267	4667
6.04333	4667
6.04400	4667
6.04467	4667
6.04533	4667
6.04600	4666
6.04667	4666
6.04733	4666
6.04800	4666
6.04867	4665
6.04933	4665
6.05000	4665
6.05067	4664
6.05133	4664
6.05200	4664
6.05267	4663
6.05333	4663
6.05400	4662
6.05467	4662
6.05533	4662
6.05600	4661
6.05667	4661
6.05733	4660
6.05800	4660
6.05867	4659
6.05933	4659
6.06000	4658
6.06067	4658
6.06133	4657
6.06200	4657
6.06267	4656
6.06333	4656
6.06400	4655
6.06467	4655
6.06533	4655
6.06600	4654
6.06667	4654
6.06733	4653
6.06800	4653
6.06867	4653
6.06933	4652
6.07000	4652
6.07067	4652
6.07133	4651
6.07200	4651
6.07267	4651
6.07333	4650
6.07400	4650
6.07467	4650
6.07533	4649
6.07600	4649
6.07667	4648
6.07733	4648
6.07800	4648
6.07867	4647
6.07933	4647
6.08000	4647
6.08067	4646
6.08133	4646
6.08200	4646
6.08267	4645
6.08333	4645
6.08400	4644
6.08467	4644
6.08533	4644
6.08600	4643
6.08667	4643
6.08733	4642
6.08800	4642
6.08867	4642
6.08933	4641
6.09000	4641
6.09067	4640
6.09133	4640
6.09200	4640
6.09267	4639
6.09333	4639
6.09400	4639
6.09467	4638
6.09533	4638
6.09600	4637
6.09667	4637
6.09733	4637
6.09800	4636
6.09867	4636
6.09933	4635
6.10000	4635
6.10067	4634
6.10133	4634
6.10200	4633
6.10267	4633
6.10333	4632
6.10400	4632
6.10467	4631
6.10533	4631
6.10600	4630
6.10667	4630
6.10733	4630
6.10800	4629
6.10867	4629
6.10933	4628
6.11000	4628
6.11067	4627
6.11133	4627
6.11200	4626
6.11267	4626
6.11333	4626
6.11400	4625
6.11467	4625
6.11533	4624
6.11600	4624
6.11667	4623
6.11733	4623
6.11800	4622
6.11867	4622
6.11933	4621
6.12000	4621
6.12067	4621
6.12133	4620
6.12200	4620
6.12267	4619
6.12333	4619
6.12400	4619
6.12467	4618
6.12533	4618
6.12600	4617
6.12667	4617
6.12733	4616
6.12800	4616
6.12867	4615
6.12933	4615
6.13000	4615
6.13067	4614
6.13133	4614
6.13200	4613
6.13267	4613
6.13333	4612
6.13400	4612
6.13467	4611
6.13533	4611
6.13600	4610
6.13667	4610
6.13733	4609
6.13800	4609
6.13867	4608
6.13933	4608
6.14000	4607
6.14067	4607
6.14133	4606
6.14200	4606
6.14267	4605
6.14333	4604
6.14400	4604
6.14467	4603
6.14533	4603
6.14600	4602
6.14667	4602
6.14733	4601
6.14800	4600
6.14867	4600
6.14933	4599
6.15000	4598
6.15067	4598
6.15133	4597
6.15200	4596
6.15267	4596
6.15333	4595
6.15400	4595
6.15467	4594
6.15533	4593
6.15600	4593
6.15667	4592
6.15733	4591
6.15800	4591
6.15867	4590
6.15933	4589
6.16000	4588
6.16067	4588
6.16133	4587
6.16200	4586
6.16267	4586
6.16333	4585
6.16400	4584
6.16467	4584
6.16533	4583
6.16600	4582
6.16667	4582
6.16733	4581
6.16800	4581
6.16867	4580
6.16933	4579
6.17000	4579
6.17067	4578
6.17133	4578
6.17200	4577
6.17267	4577
6.17333	4576
6.17400	4576
6.17467	4575
6.17533	4575
6.17600	4574
6.17667	4574
6.17733	4573
6.17800	4573
6.17867	4573
6.17933	4572
6.18000	4572
6.18067	4571
6.18133	4571
6.18200	4570
6.18267	4570
6.18333	4569
6.18400	4569
6.18467	4568
6.18533	4568
6.18600	4568
6.18667	4567
6.18733	4567
6.18800	4567
6.18867	4566
6.18933	4566
6.19000	4566
6.19067	4565
6.19133	4565
6.19200	4565
6.19267	4564
6.19333	4564
6.19400	4564
6.19467	4564
6.19533	4564
6.19600	4564
6.19667	4563
6.19733	4563
6.19800	4563
6.19867	4563
6.19933	4563
6.20000	4563
6.20067	4564
6.20133	4564
6.20200	4564
6.20267	4564
6.20333	4564
6.20400	4564
6.20467	4564
6.20533	4564
6.20600	4564
6.20667	4564
6.20733	4565
6.20800	4565
6.20867	4565
6.20933	4565
6.21000	4565
6.21067	4565
6.21133	4565
6.21200	4565
6.21267	4565
6.21333	4565
6.21400	4565
6.21467	4566
6.21533	4566
6.21600	4566
6.21667	4566
6.21733	4566
6.21800	4566
6.21867	4566
6.21933	4567
6.22000	4567
6.22067	4567
6.22133	4567
6.22200	4567
6.22267	4567
6.22333	4567
6.22400	4567
6.22467	4568
6.22533	4568
6.22600	4568
6.22667	4568
6.22733	4569
6.22800	4569
6.22867	4569
6.22933	4570
6.23000	4570
6.23067	4570
6.23133	4571
6.23200	4571
6.23267	4571
6.23333	4572
6.23400	4572
6.23467	4572
6.23533	4573
6.23600	4573
6.23667	4573
6.23733	4574
6.23800	4574
6.23867	4575
6.23933	4575
6.24000	4575
6.24067	4576
6.24133	4576
6.24200	4576
6.24267	4577
6.24333	4577
6.24400	4577
6.24467	4578
6.24533	4578
6.24600	4579
6.24667	4579
6.24733	4579
6.24800	4580
6.24867	4580
6.24933	4581
6.25000	4581
6.25067	4581
6.25133	4582
6.25200	4582
6.25267	4582
6.25333	4583
6.25400	4583
6.25467	4584
6.25533	4584
6.25600	4584
6.25667	4584
6.25733	4585
6.25800	4585
6.25867	4585
6.25933	4586
6.26000	4586
6.26067	4586
6.26133	4586
6.26200	4587
6.26267	4587
6.26333	4587
6.26400	4588
6.26467	4588
6.26533	4588
6.26600	4588
6.26667	4589
6.26733	4589
6.26800	4589
6.26867	4590
6.26933	4590
6.27000	4590
6.27067	4590
6.27133	4591
6.27200	4591
6.27267	4591
6.27333	4592
6.27400	4592
6.27467	4592
6.27533	4592
6.27600	4593
6.27667	4593
6.27733	4593
6.27800	4593
6.27867	4594
6.27933	4594
6.28000	4594
6.28067	4594
6.28133	4594
6.28200	4595
6.28267	4595
6.28333	4595
6.28400	4595
6.28467	4595
6.28533	4595
6.28600	4596
6.28667	4596
6.28733	4596
6.28800	4596
6.28867	4596
6.28933	4596
6.29000	4596
6.29067	4596
6.29133	4596
6.29200	4596
6.29267	4596
6.29333	4596
6.29400	4596
6.29467	4596
6.29533	4596
6.29600	4596
6.29667	4596
6.29733	4596
6.29800	4596
6.29867	4596
6.29933	4596
6.30000	4596
6.30067	4595
6.30133	4595
6.30200	4595
6.30267	4595
6.30333	4595
6.30400	4595
6.30467	4595
6.30533	4595
6.30600	4594
6.30667	4594
6.30733	4594
6.30800	4594
6.30867	4593
6.30933	4593
6.31000	4593
6.31067	4593
6.31133	4592
6.31200	4592
6.31267	4592
6.31333	4592
6.31400	4591
6.31467	4591
6.31533	4591
6.31600	4591
6.31667	4590
6.31733	4590
6.31800	4590
6.31867	4589
6.31933	4589
6.32000	4589
6.32067	4589
6.32133	4588
6.32200	4588
6.32267	4588
6.32333	4588
6.32400	4587
6.32467	4587
6.32533	4587
6.32600	4587
6.32667	4587
6.32733	4586
6.32800	4586
6.32867	4586
6.32933	4586
6.33000	4585
6.33067	4585
6.33133	4585
6.33200	4584
6.33267	4584
6.33333	4584
6.33400	4583
6.33467	4583
6.33533	4583
6.33600	4582
6.33667	4582
6.33733	4581
6.33800	4581
6.33867	4581
6.33933	4580
6.34000	4580
6.34067	4580
6.34133	4579
6.34200	4579
6.34267	4579
6.34333	4578
6.34400	4578
6.34467	4577
6.34533	4577
6.34600	4577
6.34667	4576
6.34733	4576
6.34800	4576
6.34867	4575
6.34933	4575
6.35000	4574
6.35067	4574
6.35133	4574
6.35200	4573
6.35267	4573
6.35333	4572
6.35400	4572
6.35467	4572
6.35533	4571
6.35600	4571
6.35667	4571
6.35733	4570
6.35800	4570
6.35867	4569
6.35933	4569
6.36000	4569
6.36067	4568
6.36133	4568
6.36200	4568
6.36267	4567
6.36333	4567
6.36400	4567
6.36467	4566
6.36533	4566
6.36600	4565
6.36667	4565
6.36733	4565
6.36800	4564
6.36867	4564
6.36933	4563
6.37000	4563
6.37067	4563
6.37133	4562
6.37200	4562
6.37267	4562
6.37333	4561
6.37400	4561
6.37467	4561
6.37533	4560
6.37600	4560
6.37667	4560
6.37733	4559
6.37800	4559
6.37867	4559
6.37933	4558
6.38000	4558
6.38067	4558
6.38133	4557
6.38200	4557
6.38267	4557
6.38333	4556
6.38400	4556
6.38467	4556
6.38533	4556
6.38600	4555
6.38667	4555
6.38733	4555
6.38800	4555
6.38867	4555
6.38933	4554
6.39000	4554
6.39067	4554
6.39133	4554
6.39200	4554
6.39267	4553
6.39333	4553
6.39400	4553
6.39467	4553
6.39533	4553
6.39600	4553
6.39667	4552
6.39733	4552
6.39800	4552
6.39867	4552
6.39933	4552

