[Header]
Application Name	LabSolutions
Version	5.73
Data File Name	C:\LabSolutions\Data\Project1\stephen\2016-01-06\103.gcd
Output Date	1/11/2016
Output Time	1:20:01 PM

[Configuration]
Instrument Name	WEISSTA-PC-Instrument1
Instrument #	1
Line #	1
# of Detectors	1
Detector ID	DET#2
Detector Name	DFID1
# of Channels	1

[Chromatogram (Ch1)]
Interval(msec)	40
# of Points	9600
Start Time(min)	0.000
End Time(min)	6.399
R.Time (min)	Intensity
0.00000	25
0.00067	25
0.00133	25
0.00200	25
0.00267	25
0.00333	25
0.00400	25
0.00467	25
0.00533	25
0.00600	25
0.00667	25
0.00733	25
0.00800	25
0.00867	24
0.00933	24
0.01000	23
0.01067	22
0.01133	21
0.01200	20
0.01267	18
0.01333	16
0.01400	13
0.01467	10
0.01533	7
0.01600	4
0.01667	0
0.01733	-4
0.01800	-8
0.01867	-12
0.01933	-17
0.02000	-21
0.02067	-26
0.02133	-31
0.02200	-36
0.02267	-40
0.02333	-45
0.02400	-50
0.02467	-54
0.02533	-59
0.02600	-63
0.02667	-67
0.02733	-72
0.02800	-76
0.02867	-79
0.02933	-83
0.03000	-86
0.03067	-90
0.03133	-93
0.03200	-96
0.03267	-99
0.03333	-101
0.03400	-104
0.03467	-106
0.03533	-108
0.03600	-110
0.03667	-112
0.03733	-114
0.03800	-115
0.03867	-117
0.03933	-118
0.04000	-119
0.04067	-120
0.04133	-121
0.04200	-122
0.04267	-123
0.04333	-124
0.04400	-125
0.04467	-125
0.04533	-126
0.04600	-126
0.04667	-126
0.04733	-127
0.04800	-127
0.04867	-127
0.04933	-127
0.05000	-127
0.05067	-127
0.05133	-127
0.05200	-127
0.05267	-127
0.05333	-127
0.05400	-127
0.05467	-127
0.05533	-127
0.05600	-126
0.05667	-126
0.05733	-126
0.05800	-126
0.05867	-126
0.05933	-125
0.06000	-125
0.06067	-125
0.06133	-124
0.06200	-124
0.06267	-124
0.06333	-124
0.06400	-123
0.06467	-123
0.06533	-123
0.06600	-123
0.06667	-122
0.06733	-122
0.06800	-122
0.06867	-122
0.06933	-122
0.07000	-121
0.07067	-121
0.07133	-121
0.07200	-121
0.07267	-121
0.07333	-120
0.07400	-120
0.07467	-120
0.07533	-120
0.07600	-120
0.07667	-120
0.07733	-119
0.07800	-119
0.07867	-119
0.07933	-119
0.08000	-118
0.08067	-118
0.08133	-118
0.08200	-118
0.08267	-118
0.08333	-117
0.08400	-117
0.08467	-117
0.08533	-117
0.08600	-117
0.08667	-116
0.08733	-115
0.08800	-113
0.08867	-102
0.08933	-83
0.09000	-52
0.09067	-9
0.09133	47
0.09200	122
0.09267	208
0.09333	305
0.09400	420
0.09467	567
0.09533	757
0.09600	984
0.09667	1268
0.09733	1598
0.09800	1952
0.09867	2345
0.09933	2769
0.10000	3222
0.10067	3726
0.10133	4246
0.10200	4791
0.10267	5352
0.10333	5924
0.10400	6517
0.10467	7145
0.10533	7785
0.10600	8407
0.10667	9027
0.10733	9692
0.10800	10400
0.10867	11104
0.10933	11806
0.11000	12521
0.11067	13244
0.11133	13981
0.11200	14720
0.11267	15430
0.11333	16131
0.11400	16837
0.11467	17565
0.11533	18263
0.11600	18935
0.11667	19614
0.11733	20242
0.11800	20812
0.11867	21336
0.11933	21822
0.12000	22279
0.12067	22747
0.12133	23218
0.12200	23682
0.12267	24118
0.12333	24513
0.12400	24864
0.12467	25192
0.12533	25482
0.12600	25744
0.12667	25972
0.12733	26195
0.12800	26469
0.12867	26723
0.12933	26959
0.13000	27155
0.13067	27313
0.13133	27433
0.13200	27513
0.13267	27555
0.13333	27563
0.13400	27569
0.13467	27684
0.13533	28270
0.13600	30368
0.13667	36322
0.13733	50972
0.13800	82813
0.13867	146193
0.13933	261771
0.14000	456930
0.14067	760470
0.14133	1201833
0.14200	1807164
0.14267	2599788
0.14333	3598210
0.14400	4816790
0.14467	6264544
0.14533	7947429
0.14600	9868888
0.14667	12030827
0.14733	14431169
0.14800	17066207
0.14867	19939945
0.14933	23062702
0.15000	26439620
0.15067	30063819
0.15133	33918172
0.15200	37980391
0.15267	42225626
0.15333	46628368
0.15400	51163742
0.15467	55807790
0.15533	60537576
0.15600	65331688
0.15667	70169712
0.15733	75032530
0.15800	79901518
0.15867	84759363
0.15933	89589565
0.16000	94376650
0.16067	99105870
0.16133	103763355
0.16200	108336222
0.16267	112811653
0.16333	117177545
0.16400	121422978
0.16467	125537932
0.16533	129513419
0.16600	133341750
0.16667	137016051
0.16733	140530340
0.16800	143879415
0.16867	147059186
0.16933	150066121
0.17000	152897696
0.17067	155551592
0.17133	158026251
0.17200	160320735
0.17267	162435935
0.17333	164373981
0.17400	166137376
0.17467	167727762
0.17533	169146437
0.17600	170394490
0.17667	171473220
0.17733	172384387
0.17800	173130609
0.17867	173715257
0.17933	174142258
0.18000	174415971
0.18067	174540958
0.18133	174522019
0.18200	174364033
0.18267	174072058
0.18333	173651051
0.18400	173106077
0.18467	172442172
0.18533	171664507
0.18600	170778159
0.18667	169788394
0.18733	168700260
0.18800	167518867
0.18867	166249247
0.18933	164896495
0.19000	163465516
0.19067	161961216
0.19133	160388381
0.19200	158751725
0.19267	157055831
0.19333	155305195
0.19400	153504234
0.19467	151657306
0.19533	149768662
0.19600	147842374
0.19667	145882374
0.19733	143892422
0.19800	141876152
0.19867	139837001
0.19933	137778268
0.20000	135703048
0.20067	133614305
0.20133	131514908
0.20200	129407767
0.20267	127295971
0.20333	125182858
0.20400	123071614
0.20467	120964795
0.20533	118864272
0.20600	116771444
0.20667	114687407
0.20733	112613114
0.20800	110549477
0.20867	108497467
0.20933	106458136
0.21000	104432615
0.21067	102422071
0.21133	100427630
0.21200	98450357
0.21267	96491208
0.21333	94551065
0.21400	92630721
0.21467	90730917
0.21533	88852329
0.21600	86995596
0.21667	85161299
0.21733	83349980
0.21800	81562124
0.21867	79798179
0.21933	78058537
0.22000	76343556
0.22067	74653537
0.22133	72988748
0.22200	71349411
0.22267	69735717
0.22333	68147813
0.22400	66585812
0.22467	65049791
0.22533	63539798
0.22600	62055855
0.22667	60597951
0.22733	59166044
0.22800	57760072
0.22867	56379950
0.22933	55025570
0.23000	53696805
0.23067	52393506
0.23133	51115509
0.23200	49862632
0.23267	48634678
0.23333	47431436
0.23400	46252680
0.23467	45098171
0.23533	43967659
0.23600	42860884
0.23667	41777578
0.23733	40717461
0.23800	39680247
0.23867	38665642
0.23933	37673343
0.24000	36703042
0.24067	35754427
0.24133	34827181
0.24200	33920984
0.24267	33035514
0.24333	32170444
0.24400	31325447
0.24467	30500197
0.24533	29694364
0.24600	28907616
0.24667	28139619
0.24733	27390043
0.24800	26658555
0.24867	25944823
0.24933	25248518
0.25000	24569311
0.25067	23906874
0.25133	23260882
0.25200	22631011
0.25267	22016941
0.25333	21418352
0.25400	20834927
0.25467	20266353
0.25533	19712317
0.25600	19172513
0.25667	18646634
0.25733	18134380
0.25800	17635454
0.25867	17149562
0.25933	16676412
0.26000	16215720
0.26067	15767204
0.26133	15330584
0.26200	14905589
0.26267	14491949
0.26333	14089400
0.26400	13697679
0.26467	13316531
0.26533	12945701
0.26600	12584943
0.26667	12234012
0.26733	11892668
0.26800	11560673
0.26867	11237796
0.26933	10923810
0.27000	10618492
0.27067	10321624
0.27133	10032993
0.27200	9752394
0.27267	9479627
0.27333	9214499
0.27400	8956819
0.27467	8706407
0.27533	8463088
0.27600	8226704
0.27667	7997108
0.27733	7774153
0.27800	7557689
0.27867	7347552
0.27933	7143573
0.28000	6945573
0.28067	6753370
0.28133	6566785
0.28200	6385638
0.28267	6209756
0.28333	6038971
0.28400	5873122
0.28467	5712058
0.28533	5555630
0.28600	5403698
0.28667	5256129
0.28733	5112793
0.28800	4973567
0.28867	4838330
0.28933	4706970
0.29000	4579374
0.29067	4455435
0.29133	4335050
0.29200	4218118
0.29267	4104542
0.29333	3994225
0.29400	3887077
0.29467	3783007
0.29533	3681928
0.29600	3583757
0.29667	3488410
0.29733	3395806
0.29800	3305869
0.29867	3218522
0.29933	3133692
0.30000	3051308
0.30067	2971301
0.30133	2893602
0.30200	2818147
0.30267	2744871
0.30333	2673713
0.30400	2604612
0.30467	2537509
0.30533	2472348
0.30600	2409075
0.30667	2347635
0.30733	2287978
0.30800	2230052
0.30867	2173809
0.30933	2119199
0.31000	2066178
0.31067	2014700
0.31133	1964721
0.31200	1916201
0.31267	1869099
0.31333	1823377
0.31400	1778997
0.31467	1735925
0.31533	1694127
0.31600	1653572
0.31667	1614231
0.31733	1576077
0.31800	1539085
0.31867	1503231
0.31933	1468495
0.32000	1434856
0.32067	1402294
0.32133	1370790
0.32200	1340326
0.32267	1310885
0.32333	1282449
0.32400	1255004
0.32467	1228533
0.32533	1203022
0.32600	1178458
0.32667	1154828
0.32733	1132119
0.32800	1110319
0.32867	1089418
0.32933	1069405
0.33000	1050267
0.33067	1031993
0.33133	1014572
0.33200	997989
0.33267	982232
0.33333	967287
0.33400	953140
0.33467	939777
0.33533	927182
0.33600	915342
0.33667	904242
0.33733	893868
0.33800	884209
0.33867	875250
0.33933	866977
0.34000	859375
0.34067	852427
0.34133	846113
0.34200	840414
0.34267	835307
0.34333	830765
0.34400	826761
0.34467	823266
0.34533	820250
0.34600	817685
0.34667	815538
0.34733	813781
0.34800	812385
0.34867	811321
0.34933	810562
0.35000	810080
0.35067	809848
0.35133	809845
0.35200	810047
0.35267	810432
0.35333	810981
0.35400	811674
0.35467	812497
0.35533	813436
0.35600	814477
0.35667	815610
0.35733	816825
0.35800	818112
0.35867	819463
0.35933	820871
0.36000	822327
0.36067	823825
0.36133	825358
0.36200	826921
0.36267	828511
0.36333	830121
0.36400	831750
0.36467	833395
0.36533	835054
0.36600	836728
0.36667	838417
0.36733	840121
0.36800	841843
0.36867	843583
0.36933	845345
0.37000	847129
0.37067	848938
0.37133	850773
0.37200	852633
0.37267	854519
0.37333	856432
0.37400	858369
0.37467	860331
0.37533	862316
0.37600	864321
0.37667	866344
0.37733	868386
0.37800	870446
0.37867	872525
0.37933	874627
0.38000	876757
0.38067	878921
0.38133	881123
0.38200	883371
0.38267	885670
0.38333	888022
0.38400	890429
0.38467	892892
0.38533	895410
0.38600	897981
0.38667	900601
0.38733	903266
0.38800	905970
0.38867	908707
0.38933	911469
0.39000	914250
0.39067	917042
0.39133	919840
0.39200	922637
0.39267	925429
0.39333	928210
0.39400	930976
0.39467	933721
0.39533	936442
0.39600	939133
0.39667	941787
0.39733	944396
0.39800	946953
0.39867	949444
0.39933	951856
0.40000	954171
0.40067	956371
0.40133	958435
0.40200	960340
0.40267	962064
0.40333	963583
0.40400	964877
0.40467	965924
0.40533	966705
0.40600	967199
0.40667	967387
0.40733	967248
0.40800	966758
0.40867	965894
0.40933	964631
0.41000	962946
0.41067	960813
0.41133	958210
0.41200	955115
0.41267	951511
0.41333	947383
0.41400	942723
0.41467	937524
0.41533	931788
0.41600	925521
0.41667	918737
0.41733	911451
0.41800	903685
0.41867	895463
0.41933	886812
0.42000	877760
0.42067	868336
0.42133	858569
0.42200	848488
0.42267	838122
0.42333	827500
0.42400	816649
0.42467	805597
0.42533	794369
0.42600	782990
0.42667	771484
0.42733	759874
0.42800	748181
0.42867	736425
0.42933	724625
0.43000	712800
0.43067	700966
0.43133	689139
0.43200	677334
0.43267	665563
0.43333	653841
0.43400	642177
0.43467	630584
0.43533	619071
0.43600	607648
0.43667	596322
0.43733	585102
0.43800	573995
0.43867	563009
0.43933	552147
0.44000	541417
0.44067	530823
0.44133	520369
0.44200	510059
0.44267	499896
0.44333	489882
0.44400	480021
0.44467	470313
0.44533	460761
0.44600	451365
0.44667	442127
0.44733	433048
0.44800	424129
0.44867	415370
0.44933	406773
0.45000	398337
0.45067	390063
0.45133	381950
0.45200	373998
0.45267	366207
0.45333	358576
0.45400	351104
0.45467	343790
0.45533	336632
0.45600	329630
0.45667	322782
0.45733	316087
0.45800	309543
0.45867	303147
0.45933	296900
0.46000	290799
0.46067	284843
0.46133	279030
0.46200	273358
0.46267	267827
0.46333	262436
0.46400	257182
0.46467	252065
0.46533	247083
0.46600	242236
0.46667	237523
0.46733	232943
0.46800	228494
0.46867	224176
0.46933	219985
0.47000	215919
0.47067	211973
0.47133	208144
0.47200	204430
0.47267	200827
0.47333	197332
0.47400	193943
0.47467	190655
0.47533	187466
0.47600	184372
0.47667	181371
0.47733	178459
0.47800	175634
0.47867	172893
0.47933	170232
0.48000	167650
0.48067	165144
0.48133	162710
0.48200	160348
0.48267	158054
0.48333	155826
0.48400	153662
0.48467	151559
0.48533	149517
0.48600	147532
0.48667	145603
0.48733	143728
0.48800	141905
0.48867	140133
0.48933	138408
0.49000	136731
0.49067	135098
0.49133	133509
0.49200	131962
0.49267	130456
0.49333	128988
0.49400	127558
0.49467	126163
0.49533	124804
0.49600	123477
0.49667	122183
0.49733	120919
0.49800	119686
0.49867	118481
0.49933	117303
0.50000	116152
0.50067	115027
0.50133	113927
0.50200	112850
0.50267	111797
0.50333	110766
0.50400	109756
0.50467	108767
0.50533	107797
0.50600	106847
0.50667	105916
0.50733	105002
0.50800	104106
0.50867	103226
0.50933	102362
0.51000	101513
0.51067	100679
0.51133	99860
0.51200	99054
0.51267	98262
0.51333	97483
0.51400	96716
0.51467	95961
0.51533	95218
0.51600	94486
0.51667	93765
0.51733	93055
0.51800	92355
0.51867	91664
0.51933	90984
0.52000	90312
0.52067	89650
0.52133	88997
0.52200	88352
0.52267	87715
0.52333	87086
0.52400	86466
0.52467	85852
0.52533	85247
0.52600	84648
0.52667	84057
0.52733	83472
0.52800	82894
0.52867	82323
0.52933	81758
0.53000	81199
0.53067	80646
0.53133	80099
0.53200	79558
0.53267	79023
0.53333	78492
0.53400	77968
0.53467	77448
0.53533	76934
0.53600	76425
0.53667	75921
0.53733	75422
0.53800	74927
0.53867	74438
0.53933	73953
0.54000	73473
0.54067	72997
0.54133	72526
0.54200	72059
0.54267	71597
0.54333	71139
0.54400	70686
0.54467	70238
0.54533	69794
0.54600	69354
0.54667	68920
0.54733	68490
0.54800	68065
0.54867	67645
0.54933	67230
0.55000	66821
0.55067	66417
0.55133	66019
0.55200	65626
0.55267	65240
0.55333	64859
0.55400	64485
0.55467	64116
0.55533	63753
0.55600	63397
0.55667	63046
0.55733	62701
0.55800	62361
0.55867	62026
0.55933	61696
0.56000	61371
0.56067	61050
0.56133	60733
0.56200	60420
0.56267	60110
0.56333	59803
0.56400	59499
0.56467	59196
0.56533	58896
0.56600	58598
0.56667	58301
0.56733	58006
0.56800	57711
0.56867	57418
0.56933	57126
0.57000	56834
0.57067	56543
0.57133	56253
0.57200	55963
0.57267	55674
0.57333	55385
0.57400	55097
0.57467	54810
0.57533	54523
0.57600	54237
0.57667	53951
0.57733	53666
0.57800	53382
0.57867	53098
0.57933	52816
0.58000	52533
0.58067	52252
0.58133	51972
0.58200	51692
0.58267	51413
0.58333	51135
0.58400	50858
0.58467	50583
0.58533	50308
0.58600	50034
0.58667	49761
0.58733	49489
0.58800	49219
0.58867	48949
0.58933	48681
0.59000	48415
0.59067	48149
0.59133	47886
0.59200	47623
0.59267	47362
0.59333	47102
0.59400	46844
0.59467	46588
0.59533	46333
0.59600	46079
0.59667	45828
0.59733	45578
0.59800	45329
0.59867	45082
0.59933	44837
0.60000	44594
0.60067	44352
0.60133	44112
0.60200	43874
0.60267	43638
0.60333	43404
0.60400	43171
0.60467	42940
0.60533	42711
0.60600	42484
0.60667	42259
0.60733	42035
0.60800	41813
0.60867	41594
0.60933	41376
0.61000	41160
0.61067	40946
0.61133	40733
0.61200	40523
0.61267	40315
0.61333	40109
0.61400	39905
0.61467	39702
0.61533	39502
0.61600	39303
0.61667	39107
0.61733	38912
0.61800	38720
0.61867	38529
0.61933	38340
0.62000	38153
0.62067	37967
0.62133	37784
0.62200	37602
0.62267	37421
0.62333	37243
0.62400	37065
0.62467	36890
0.62533	36716
0.62600	36544
0.62667	36373
0.62733	36203
0.62800	36035
0.62867	35869
0.62933	35704
0.63000	35540
0.63067	35377
0.63133	35216
0.63200	35057
0.63267	34899
0.63333	34742
0.63400	34586
0.63467	34432
0.63533	34279
0.63600	34127
0.63667	33977
0.63733	33828
0.63800	33680
0.63867	33534
0.63933	33389
0.64000	33245
0.64067	33103
0.64133	32961
0.64200	32822
0.64267	32683
0.64333	32546
0.64400	32409
0.64467	32275
0.64533	32141
0.64600	32009
0.64667	31877
0.64733	31747
0.64800	31618
0.64867	31490
0.64933	31363
0.65000	31237
0.65067	31112
0.65133	30988
0.65200	30865
0.65267	30742
0.65333	30621
0.65400	30500
0.65467	30381
0.65533	30262
0.65600	30144
0.65667	30026
0.65733	29910
0.65800	29794
0.65867	29678
0.65933	29564
0.66000	29450
0.66067	29337
0.66133	29224
0.66200	29112
0.66267	29001
0.66333	28890
0.66400	28780
0.66467	28671
0.66533	28562
0.66600	28454
0.66667	28346
0.66733	28239
0.66800	28133
0.66867	28027
0.66933	27922
0.67000	27818
0.67067	27714
0.67133	27611
0.67200	27509
0.67267	27407
0.67333	27306
0.67400	27206
0.67467	27107
0.67533	27009
0.67600	26913
0.67667	26817
0.67733	26723
0.67800	26630
0.67867	26538
0.67933	26449
0.68000	26362
0.68067	26277
0.68133	26196
0.68200	26117
0.68267	26041
0.68333	25970
0.68400	25903
0.68467	25840
0.68533	25783
0.68600	25732
0.68667	25687
0.68733	25649
0.68800	25618
0.68867	25595
0.68933	25581
0.69000	25575
0.69067	25578
0.69133	25590
0.69200	25611
0.69267	25643
0.69333	25684
0.69400	25735
0.69467	25796
0.69533	25866
0.69600	25946
0.69667	26035
0.69733	26132
0.69800	26237
0.69867	26349
0.69933	26468
0.70000	26592
0.70067	26720
0.70133	26852
0.70200	26986
0.70267	27122
0.70333	27258
0.70400	27393
0.70467	27527
0.70533	27658
0.70600	27785
0.70667	27907
0.70733	28023
0.70800	28133
0.70867	28235
0.70933	28329
0.71000	28415
0.71067	28492
0.71133	28559
0.71200	28617
0.71267	28666
0.71333	28704
0.71400	28733
0.71467	28753
0.71533	28763
0.71600	28764
0.71667	28756
0.71733	28739
0.71800	28714
0.71867	28680
0.71933	28639
0.72000	28591
0.72067	28535
0.72133	28472
0.72200	28403
0.72267	28329
0.72333	28248
0.72400	28162
0.72467	28071
0.72533	27976
0.72600	27876
0.72667	27772
0.72733	27664
0.72800	27553
0.72867	27439
0.72933	27321
0.73000	27202
0.73067	27079
0.73133	26955
0.73200	26828
0.73267	26700
0.73333	26570
0.73400	26439
0.73467	26306
0.73533	26172
0.73600	26038
0.73667	25903
0.73733	25767
0.73800	25631
0.73867	25494
0.73933	25357
0.74000	25221
0.74067	25084
0.74133	24947
0.74200	24810
0.74267	24674
0.74333	24538
0.74400	24403
0.74467	24268
0.74533	24134
0.74600	24000
0.74667	23867
0.74733	23735
0.74800	23604
0.74867	23474
0.74933	23344
0.75000	23216
0.75067	23089
0.75133	22963
0.75200	22838
0.75267	22714
0.75333	22591
0.75400	22470
0.75467	22349
0.75533	22230
0.75600	22112
0.75667	21996
0.75733	21880
0.75800	21766
0.75867	21654
0.75933	21542
0.76000	21432
0.76067	21323
0.76133	21216
0.76200	21110
0.76267	21005
0.76333	20902
0.76400	20799
0.76467	20699
0.76533	20599
0.76600	20501
0.76667	20403
0.76733	20307
0.76800	20213
0.76867	20119
0.76933	20027
0.77000	19936
0.77067	19846
0.77133	19758
0.77200	19670
0.77267	19584
0.77333	19499
0.77400	19415
0.77467	19332
0.77533	19250
0.77600	19169
0.77667	19090
0.77733	19011
0.77800	18934
0.77867	18858
0.77933	18782
0.78000	18708
0.78067	18635
0.78133	18563
0.78200	18492
0.78267	18421
0.78333	18352
0.78400	18284
0.78467	18216
0.78533	18150
0.78600	18084
0.78667	18020
0.78733	17956
0.78800	17893
0.78867	17831
0.78933	17769
0.79000	17709
0.79067	17649
0.79133	17591
0.79200	17533
0.79267	17476
0.79333	17419
0.79400	17363
0.79467	17308
0.79533	17254
0.79600	17201
0.79667	17148
0.79733	17096
0.79800	17045
0.79867	16994
0.79933	16944
0.80000	16895
0.80067	16846
0.80133	16798
0.80200	16751
0.80267	16704
0.80333	16658
0.80400	16613
0.80467	16568
0.80533	16524
0.80600	16480
0.80667	16437
0.80733	16394
0.80800	16352
0.80867	16311
0.80933	16270
0.81000	16230
0.81067	16190
0.81133	16151
0.81200	16113
0.81267	16075
0.81333	16037
0.81400	16000
0.81467	15964
0.81533	15928
0.81600	15893
0.81667	15858
0.81733	15823
0.81800	15790
0.81867	15756
0.81933	15724
0.82000	15691
0.82067	15659
0.82133	15627
0.82200	15596
0.82267	15565
0.82333	15535
0.82400	15505
0.82467	15475
0.82533	15446
0.82600	15417
0.82667	15388
0.82733	15359
0.82800	15331
0.82867	15304
0.82933	15276
0.83000	15249
0.83067	15222
0.83133	15195
0.83200	15168
0.83267	15142
0.83333	15116
0.83400	15090
0.83467	15064
0.83533	15038
0.83600	15013
0.83667	14987
0.83733	14962
0.83800	14937
0.83867	14912
0.83933	14887
0.84000	14862
0.84067	14838
0.84133	14813
0.84200	14789
0.84267	14764
0.84333	14740
0.84400	14715
0.84467	14691
0.84533	14666
0.84600	14642
0.84667	14618
0.84733	14593
0.84800	14569
0.84867	14544
0.84933	14519
0.85000	14495
0.85067	14470
0.85133	14445
0.85200	14421
0.85267	14396
0.85333	14371
0.85400	14346
0.85467	14322
0.85533	14297
0.85600	14272
0.85667	14247
0.85733	14222
0.85800	14197
0.85867	14173
0.85933	14148
0.86000	14123
0.86067	14098
0.86133	14073
0.86200	14048
0.86267	14024
0.86333	13999
0.86400	13974
0.86467	13949
0.86533	13925
0.86600	13900
0.86667	13876
0.86733	13851
0.86800	13827
0.86867	13803
0.86933	13779
0.87000	13755
0.87067	13731
0.87133	13707
0.87200	13683
0.87267	13660
0.87333	13636
0.87400	13613
0.87467	13590
0.87533	13566
0.87600	13543
0.87667	13520
0.87733	13498
0.87800	13475
0.87867	13453
0.87933	13430
0.88000	13408
0.88067	13386
0.88133	13364
0.88200	13343
0.88267	13321
0.88333	13299
0.88400	13278
0.88467	13257
0.88533	13236
0.88600	13215
0.88667	13194
0.88733	13174
0.88800	13153
0.88867	13133
0.88933	13113
0.89000	13093
0.89067	13073
0.89133	13053
0.89200	13034
0.89267	13014
0.89333	12995
0.89400	12976
0.89467	12957
0.89533	12939
0.89600	12920
0.89667	12901
0.89733	12883
0.89800	12865
0.89867	12847
0.89933	12829
0.90000	12811
0.90067	12793
0.90133	12776
0.90200	12758
0.90267	12741
0.90333	12723
0.90400	12706
0.90467	12689
0.90533	12671
0.90600	12654
0.90667	12637
0.90733	12620
0.90800	12603
0.90867	12586
0.90933	12570
0.91000	12553
0.91067	12536
0.91133	12520
0.91200	12503
0.91267	12487
0.91333	12471
0.91400	12455
0.91467	12439
0.91533	12423
0.91600	12407
0.91667	12391
0.91733	12375
0.91800	12359
0.91867	12343
0.91933	12328
0.92000	12312
0.92067	12297
0.92133	12281
0.92200	12266
0.92267	12251
0.92333	12236
0.92400	12221
0.92467	12206
0.92533	12191
0.92600	12176
0.92667	12161
0.92733	12147
0.92800	12132
0.92867	12118
0.92933	12103
0.93000	12089
0.93067	12075
0.93133	12061
0.93200	12047
0.93267	12033
0.93333	12019
0.93400	12005
0.93467	11991
0.93533	11977
0.93600	11964
0.93667	11950
0.93733	11937
0.93800	11923
0.93867	11910
0.93933	11896
0.94000	11883
0.94067	11870
0.94133	11856
0.94200	11843
0.94267	11830
0.94333	11817
0.94400	11804
0.94467	11791
0.94533	11778
0.94600	11765
0.94667	11751
0.94733	11738
0.94800	11725
0.94867	11712
0.94933	11699
0.95000	11686
0.95067	11673
0.95133	11660
0.95200	11647
0.95267	11634
0.95333	11622
0.95400	11609
0.95467	11596
0.95533	11583
0.95600	11571
0.95667	11558
0.95733	11545
0.95800	11533
0.95867	11520
0.95933	11508
0.96000	11496
0.96067	11484
0.96133	11471
0.96200	11459
0.96267	11447
0.96333	11435
0.96400	11424
0.96467	11412
0.96533	11400
0.96600	11388
0.96667	11377
0.96733	11365
0.96800	11353
0.96867	11342
0.96933	11330
0.97000	11319
0.97067	11307
0.97133	11296
0.97200	11284
0.97267	11272
0.97333	11261
0.97400	11249
0.97467	11237
0.97533	11226
0.97600	11214
0.97667	11202
0.97733	11190
0.97800	11179
0.97867	11167
0.97933	11155
0.98000	11143
0.98067	11131
0.98133	11119
0.98200	11107
0.98267	11095
0.98333	11083
0.98400	11071
0.98467	11059
0.98533	11047
0.98600	11035
0.98667	11023
0.98733	11011
0.98800	10999
0.98867	10987
0.98933	10975
0.99000	10962
0.99067	10950
0.99133	10938
0.99200	10926
0.99267	10914
0.99333	10902
0.99400	10890
0.99467	10878
0.99533	10866
0.99600	10854
0.99667	10842
0.99733	10830
0.99800	10818
0.99867	10806
0.99933	10794
1.00000	10782
1.00067	10771
1.00133	10759
1.00200	10747
1.00267	10736
1.00333	10724
1.00400	10713
1.00467	10701
1.00533	10690
1.00600	10679
1.00667	10668
1.00733	10657
1.00800	10646
1.00867	10635
1.00933	10625
1.01000	10614
1.01067	10604
1.01133	10594
1.01200	10584
1.01267	10575
1.01333	10565
1.01400	10557
1.01467	10548
1.01533	10540
1.01600	10532
1.01667	10524
1.01733	10517
1.01800	10510
1.01867	10504
1.01933	10498
1.02000	10492
1.02067	10487
1.02133	10482
1.02200	10478
1.02267	10474
1.02333	10471
1.02400	10468
1.02467	10465
1.02533	10462
1.02600	10460
1.02667	10459
1.02733	10457
1.02800	10456
1.02867	10454
1.02933	10453
1.03000	10452
1.03067	10451
1.03133	10450
1.03200	10449
1.03267	10448
1.03333	10447
1.03400	10445
1.03467	10444
1.03533	10442
1.03600	10440
1.03667	10438
1.03733	10435
1.03800	10432
1.03867	10429
1.03933	10426
1.04000	10422
1.04067	10418
1.04133	10414
1.04200	10409
1.04267	10404
1.04333	10398
1.04400	10393
1.04467	10387
1.04533	10380
1.04600	10374
1.04667	10367
1.04733	10360
1.04800	10353
1.04867	10345
1.04933	10337
1.05000	10329
1.05067	10321
1.05133	10312
1.05200	10303
1.05267	10294
1.05333	10285
1.05400	10276
1.05467	10266
1.05533	10257
1.05600	10247
1.05667	10237
1.05733	10227
1.05800	10217
1.05867	10207
1.05933	10196
1.06000	10186
1.06067	10175
1.06133	10164
1.06200	10154
1.06267	10143
1.06333	10132
1.06400	10121
1.06467	10110
1.06533	10099
1.06600	10088
1.06667	10077
1.06733	10066
1.06800	10055
1.06867	10044
1.06933	10033
1.07000	10021
1.07067	10010
1.07133	9999
1.07200	9988
1.07267	9977
1.07333	9965
1.07400	9954
1.07467	9943
1.07533	9932
1.07600	9921
1.07667	9910
1.07733	9899
1.07800	9888
1.07867	9877
1.07933	9866
1.08000	9856
1.08067	9845
1.08133	9834
1.08200	9824
1.08267	9813
1.08333	9803
1.08400	9792
1.08467	9782
1.08533	9771
1.08600	9761
1.08667	9751
1.08733	9741
1.08800	9731
1.08867	9720
1.08933	9710
1.09000	9701
1.09067	9691
1.09133	9681
1.09200	9671
1.09267	9661
1.09333	9652
1.09400	9642
1.09467	9632
1.09533	9623
1.09600	9613
1.09667	9604
1.09733	9594
1.09800	9585
1.09867	9575
1.09933	9566
1.10000	9557
1.10067	9548
1.10133	9538
1.10200	9529
1.10267	9520
1.10333	9511
1.10400	9502
1.10467	9493
1.10533	9485
1.10600	9476
1.10667	9467
1.10733	9458
1.10800	9450
1.10867	9441
1.10933	9433
1.11000	9424
1.11067	9416
1.11133	9407
1.11200	9399
1.11267	9391
1.11333	9383
1.11400	9375
1.11467	9367
1.11533	9358
1.11600	9350
1.11667	9343
1.11733	9335
1.11800	9327
1.11867	9319
1.11933	9311
1.12000	9304
1.12067	9296
1.12133	9289
1.12200	9282
1.12267	9275
1.12333	9268
1.12400	9261
1.12467	9254
1.12533	9247
1.12600	9241
1.12667	9235
1.12733	9228
1.12800	9222
1.12867	9217
1.12933	9211
1.13000	9205
1.13067	9200
1.13133	9195
1.13200	9190
1.13267	9186
1.13333	9182
1.13400	9178
1.13467	9174
1.13533	9170
1.13600	9167
1.13667	9164
1.13733	9161
1.13800	9159
1.13867	9157
1.13933	9154
1.14000	9153
1.14067	9151
1.14133	9149
1.14200	9148
1.14267	9146
1.14333	9145
1.14400	9144
1.14467	9143
1.14533	9141
1.14600	9140
1.14667	9139
1.14733	9137
1.14800	9136
1.14867	9134
1.14933	9133
1.15000	9131
1.15067	9129
1.15133	9127
1.15200	9124
1.15267	9122
1.15333	9119
1.15400	9117
1.15467	9114
1.15533	9111
1.15600	9107
1.15667	9104
1.15733	9100
1.15800	9096
1.15867	9092
1.15933	9088
1.16000	9083
1.16067	9078
1.16133	9074
1.16200	9069
1.16267	9063
1.16333	9058
1.16400	9053
1.16467	9047
1.16533	9041
1.16600	9035
1.16667	9030
1.16733	9023
1.16800	9017
1.16867	9011
1.16933	9005
1.17000	8998
1.17067	8992
1.17133	8985
1.17200	8979
1.17267	8972
1.17333	8965
1.17400	8959
1.17467	8952
1.17533	8945
1.17600	8938
1.17667	8931
1.17733	8925
1.17800	8918
1.17867	8911
1.17933	8904
1.18000	8897
1.18067	8890
1.18133	8883
1.18200	8877
1.18267	8870
1.18333	8863
1.18400	8856
1.18467	8849
1.18533	8842
1.18600	8835
1.18667	8828
1.18733	8821
1.18800	8815
1.18867	8808
1.18933	8801
1.19000	8795
1.19067	8788
1.19133	8781
1.19200	8775
1.19267	8768
1.19333	8762
1.19400	8755
1.19467	8749
1.19533	8743
1.19600	8737
1.19667	8731
1.19733	8725
1.19800	8719
1.19867	8713
1.19933	8707
1.20000	8702
1.20067	8696
1.20133	8691
1.20200	8685
1.20267	8680
1.20333	8675
1.20400	8670
1.20467	8665
1.20533	8660
1.20600	8655
1.20667	8650
1.20733	8646
1.20800	8641
1.20867	8636
1.20933	8632
1.21000	8628
1.21067	8623
1.21133	8619
1.21200	8615
1.21267	8611
1.21333	8607
1.21400	8603
1.21467	8599
1.21533	8595
1.21600	8591
1.21667	8588
1.21733	8584
1.21800	8580
1.21867	8577
1.21933	8573
1.22000	8570
1.22067	8567
1.22133	8563
1.22200	8560
1.22267	8557
1.22333	8554
1.22400	8551
1.22467	8548
1.22533	8545
1.22600	8542
1.22667	8539
1.22733	8536
1.22800	8534
1.22867	8531
1.22933	8528
1.23000	8525
1.23067	8523
1.23133	8520
1.23200	8517
1.23267	8515
1.23333	8512
1.23400	8510
1.23467	8507
1.23533	8505
1.23600	8502
1.23667	8500
1.23733	8498
1.23800	8495
1.23867	8493
1.23933	8490
1.24000	8488
1.24067	8485
1.24133	8483
1.24200	8480
1.24267	8478
1.24333	8476
1.24400	8473
1.24467	8471
1.24533	8469
1.24600	8467
1.24667	8465
1.24733	8462
1.24800	8460
1.24867	8459
1.24933	8457
1.25000	8455
1.25067	8453
1.25133	8451
1.25200	8449
1.25267	8448
1.25333	8446
1.25400	8444
1.25467	8443
1.25533	8441
1.25600	8439
1.25667	8438
1.25733	8436
1.25800	8435
1.25867	8433
1.25933	8432
1.26000	8431
1.26067	8429
1.26133	8428
1.26200	8427
1.26267	8425
1.26333	8424
1.26400	8423
1.26467	8422
1.26533	8421
1.26600	8420
1.26667	8419
1.26733	8418
1.26800	8418
1.26867	8417
1.26933	8416
1.27000	8416
1.27067	8415
1.27133	8415
1.27200	8415
1.27267	8414
1.27333	8414
1.27400	8414
1.27467	8414
1.27533	8415
1.27600	8415
1.27667	8416
1.27733	8416
1.27800	8417
1.27867	8418
1.27933	8419
1.28000	8420
1.28067	8421
1.28133	8423
1.28200	8424
1.28267	8426
1.28333	8427
1.28400	8429
1.28467	8431
1.28533	8433
1.28600	8435
1.28667	8438
1.28733	8440
1.28800	8442
1.28867	8444
1.28933	8447
1.29000	8449
1.29067	8451
1.29133	8453
1.29200	8455
1.29267	8457
1.29333	8459
1.29400	8460
1.29467	8462
1.29533	8463
1.29600	8465
1.29667	8466
1.29733	8467
1.29800	8468
1.29867	8468
1.29933	8469
1.30000	8469
1.30067	8469
1.30133	8469
1.30200	8468
1.30267	8468
1.30333	8467
1.30400	8466
1.30467	8465
1.30533	8464
1.30600	8462
1.30667	8461
1.30733	8459
1.30800	8457
1.30867	8455
1.30933	8453
1.31000	8450
1.31067	8448
1.31133	8445
1.31200	8442
1.31267	8439
1.31333	8436
1.31400	8432
1.31467	8429
1.31533	8425
1.31600	8422
1.31667	8418
1.31733	8414
1.31800	8410
1.31867	8405
1.31933	8401
1.32000	8397
1.32067	8392
1.32133	8387
1.32200	8383
1.32267	8378
1.32333	8373
1.32400	8368
1.32467	8363
1.32533	8358
1.32600	8353
1.32667	8348
1.32733	8342
1.32800	8337
1.32867	8332
1.32933	8326
1.33000	8320
1.33067	8315
1.33133	8309
1.33200	8303
1.33267	8297
1.33333	8291
1.33400	8285
1.33467	8278
1.33533	8272
1.33600	8266
1.33667	8260
1.33733	8253
1.33800	8247
1.33867	8241
1.33933	8234
1.34000	8228
1.34067	8221
1.34133	8215
1.34200	8208
1.34267	8202
1.34333	8195
1.34400	8189
1.34467	8182
1.34533	8175
1.34600	8169
1.34667	8162
1.34733	8155
1.34800	8149
1.34867	8142
1.34933	8135
1.35000	8129
1.35067	8122
1.35133	8115
1.35200	8109
1.35267	8102
1.35333	8095
1.35400	8089
1.35467	8082
1.35533	8076
1.35600	8070
1.35667	8063
1.35733	8057
1.35800	8051
1.35867	8045
1.35933	8038
1.36000	8032
1.36067	8026
1.36133	8020
1.36200	8014
1.36267	8009
1.36333	8003
1.36400	7997
1.36467	7992
1.36533	7986
1.36600	7981
1.36667	7975
1.36733	7970
1.36800	7964
1.36867	7959
1.36933	7954
1.37000	7949
1.37067	7943
1.37133	7938
1.37200	7933
1.37267	7929
1.37333	7924
1.37400	7919
1.37467	7915
1.37533	7910
1.37600	7906
1.37667	7901
1.37733	7897
1.37800	7893
1.37867	7888
1.37933	7884
1.38000	7880
1.38067	7876
1.38133	7872
1.38200	7868
1.38267	7864
1.38333	7860
1.38400	7856
1.38467	7852
1.38533	7848
1.38600	7844
1.38667	7840
1.38733	7836
1.38800	7833
1.38867	7829
1.38933	7825
1.39000	7821
1.39067	7818
1.39133	7814
1.39200	7810
1.39267	7806
1.39333	7802
1.39400	7798
1.39467	7795
1.39533	7791
1.39600	7787
1.39667	7783
1.39733	7779
1.39800	7775
1.39867	7771
1.39933	7768
1.40000	7764
1.40067	7760
1.40133	7756
1.40200	7752
1.40267	7748
1.40333	7744
1.40400	7740
1.40467	7736
1.40533	7732
1.40600	7728
1.40667	7724
1.40733	7720
1.40800	7716
1.40867	7712
1.40933	7708
1.41000	7704
1.41067	7700
1.41133	7696
1.41200	7692
1.41267	7688
1.41333	7684
1.41400	7680
1.41467	7676
1.41533	7673
1.41600	7669
1.41667	7665
1.41733	7661
1.41800	7658
1.41867	7654
1.41933	7651
1.42000	7647
1.42067	7644
1.42133	7640
1.42200	7637
1.42267	7634
1.42333	7630
1.42400	7627
1.42467	7624
1.42533	7621
1.42600	7618
1.42667	7615
1.42733	7612
1.42800	7609
1.42867	7606
1.42933	7603
1.43000	7600
1.43067	7598
1.43133	7595
1.43200	7592
1.43267	7589
1.43333	7587
1.43400	7584
1.43467	7582
1.43533	7580
1.43600	7577
1.43667	7575
1.43733	7573
1.43800	7571
1.43867	7569
1.43933	7567
1.44000	7565
1.44067	7563
1.44133	7561
1.44200	7559
1.44267	7557
1.44333	7556
1.44400	7554
1.44467	7552
1.44533	7550
1.44600	7549
1.44667	7547
1.44733	7545
1.44800	7544
1.44867	7542
1.44933	7540
1.45000	7539
1.45067	7537
1.45133	7535
1.45200	7533
1.45267	7532
1.45333	7530
1.45400	7528
1.45467	7527
1.45533	7525
1.45600	7523
1.45667	7521
1.45733	7519
1.45800	7517
1.45867	7515
1.45933	7513
1.46000	7511
1.46067	7509
1.46133	7507
1.46200	7505
1.46267	7502
1.46333	7500
1.46400	7498
1.46467	7496
1.46533	7493
1.46600	7491
1.46667	7489
1.46733	7487
1.46800	7485
1.46867	7482
1.46933	7480
1.47000	7478
1.47067	7475
1.47133	7473
1.47200	7471
1.47267	7468
1.47333	7466
1.47400	7464
1.47467	7462
1.47533	7459
1.47600	7457
1.47667	7455
1.47733	7452
1.47800	7450
1.47867	7448
1.47933	7446
1.48000	7443
1.48067	7441
1.48133	7439
1.48200	7436
1.48267	7434
1.48333	7432
1.48400	7429
1.48467	7427
1.48533	7424
1.48600	7422
1.48667	7419
1.48733	7417
1.48800	7414
1.48867	7412
1.48933	7409
1.49000	7407
1.49067	7404
1.49133	7401
1.49200	7399
1.49267	7396
1.49333	7393
1.49400	7391
1.49467	7388
1.49533	7385
1.49600	7382
1.49667	7379
1.49733	7376
1.49800	7373
1.49867	7370
1.49933	7367
1.50000	7364
1.50067	7361
1.50133	7358
1.50200	7355
1.50267	7352
1.50333	7348
1.50400	7345
1.50467	7342
1.50533	7339
1.50600	7335
1.50667	7332
1.50733	7329
1.50800	7325
1.50867	7322
1.50933	7319
1.51000	7315
1.51067	7312
1.51133	7309
1.51200	7306
1.51267	7302
1.51333	7299
1.51400	7296
1.51467	7293
1.51533	7289
1.51600	7286
1.51667	7283
1.51733	7280
1.51800	7277
1.51867	7274
1.51933	7270
1.52000	7267
1.52067	7264
1.52133	7261
1.52200	7258
1.52267	7255
1.52333	7252
1.52400	7250
1.52467	7247
1.52533	7244
1.52600	7241
1.52667	7239
1.52733	7236
1.52800	7233
1.52867	7231
1.52933	7228
1.53000	7226
1.53067	7223
1.53133	7221
1.53200	7219
1.53267	7216
1.53333	7214
1.53400	7212
1.53467	7209
1.53533	7207
1.53600	7205
1.53667	7202
1.53733	7200
1.53800	7198
1.53867	7196
1.53933	7194
1.54000	7191
1.54067	7189
1.54133	7187
1.54200	7185
1.54267	7182
1.54333	7180
1.54400	7178
1.54467	7176
1.54533	7174
1.54600	7171
1.54667	7169
1.54733	7167
1.54800	7165
1.54867	7163
1.54933	7161
1.55000	7158
1.55067	7156
1.55133	7154
1.55200	7152
1.55267	7150
1.55333	7148
1.55400	7145
1.55467	7143
1.55533	7141
1.55600	7139
1.55667	7136
1.55733	7134
1.55800	7131
1.55867	7129
1.55933	7127
1.56000	7124
1.56067	7122
1.56133	7119
1.56200	7117
1.56267	7115
1.56333	7112
1.56400	7110
1.56467	7107
1.56533	7105
1.56600	7102
1.56667	7100
1.56733	7097
1.56800	7095
1.56867	7093
1.56933	7090
1.57000	7088
1.57067	7086
1.57133	7084
1.57200	7081
1.57267	7079
1.57333	7077
1.57400	7075
1.57467	7073
1.57533	7071
1.57600	7069
1.57667	7067
1.57733	7065
1.57800	7063
1.57867	7062
1.57933	7060
1.58000	7058
1.58067	7056
1.58133	7054
1.58200	7052
1.58267	7050
1.58333	7048
1.58400	7047
1.58467	7045
1.58533	7043
1.58600	7041
1.58667	7039
1.58733	7037
1.58800	7036
1.58867	7034
1.58933	7032
1.59000	7030
1.59067	7028
1.59133	7027
1.59200	7025
1.59267	7023
1.59333	7021
1.59400	7020
1.59467	7018
1.59533	7016
1.59600	7014
1.59667	7013
1.59733	7011
1.59800	7009
1.59867	7007
1.59933	7005
1.60000	7004
1.60067	7002
1.60133	7000
1.60200	6998
1.60267	6996
1.60333	6995
1.60400	6993
1.60467	6991
1.60533	6989
1.60600	6987
1.60667	6985
1.60733	6983
1.60800	6981
1.60867	6980
1.60933	6978
1.61000	6976
1.61067	6974
1.61133	6972
1.61200	6970
1.61267	6969
1.61333	6967
1.61400	6965
1.61467	6963
1.61533	6962
1.61600	6960
1.61667	6959
1.61733	6957
1.61800	6955
1.61867	6954
1.61933	6952
1.62000	6951
1.62067	6949
1.62133	6948
1.62200	6946
1.62267	6944
1.62333	6943
1.62400	6941
1.62467	6940
1.62533	6939
1.62600	6937
1.62667	6936
1.62733	6934
1.62800	6933
1.62867	6932
1.62933	6930
1.63000	6929
1.63067	6927
1.63133	6926
1.63200	6925
1.63267	6923
1.63333	6922
1.63400	6921
1.63467	6919
1.63533	6918
1.63600	6917
1.63667	6916
1.63733	6914
1.63800	6913
1.63867	6912
1.63933	6911
1.64000	6910
1.64067	6909
1.64133	6908
1.64200	6907
1.64267	6906
1.64333	6905
1.64400	6904
1.64467	6903
1.64533	6902
1.64600	6901
1.64667	6900
1.64733	6899
1.64800	6899
1.64867	6898
1.64933	6897
1.65000	6896
1.65067	6895
1.65133	6895
1.65200	6894
1.65267	6893
1.65333	6893
1.65400	6892
1.65467	6891
1.65533	6890
1.65600	6890
1.65667	6889
1.65733	6888
1.65800	6887
1.65867	6887
1.65933	6886
1.66000	6885
1.66067	6884
1.66133	6884
1.66200	6883
1.66267	6882
1.66333	6881
1.66400	6880
1.66467	6879
1.66533	6878
1.66600	6877
1.66667	6876
1.66733	6875
1.66800	6874
1.66867	6873
1.66933	6872
1.67000	6871
1.67067	6869
1.67133	6868
1.67200	6866
1.67267	6865
1.67333	6864
1.67400	6862
1.67467	6861
1.67533	6859
1.67600	6858
1.67667	6856
1.67733	6855
1.67800	6853
1.67867	6852
1.67933	6850
1.68000	6849
1.68067	6847
1.68133	6846
1.68200	6844
1.68267	6843
1.68333	6841
1.68400	6840
1.68467	6838
1.68533	6837
1.68600	6835
1.68667	6833
1.68733	6832
1.68800	6830
1.68867	6828
1.68933	6827
1.69000	6825
1.69067	6823
1.69133	6822
1.69200	6820
1.69267	6818
1.69333	6817
1.69400	6815
1.69467	6813
1.69533	6811
1.69600	6810
1.69667	6808
1.69733	6806
1.69800	6804
1.69867	6802
1.69933	6800
1.70000	6798
1.70067	6796
1.70133	6794
1.70200	6792
1.70267	6790
1.70333	6788
1.70400	6787
1.70467	6785
1.70533	6783
1.70600	6781
1.70667	6779
1.70733	6778
1.70800	6776
1.70867	6774
1.70933	6773
1.71000	6771
1.71067	6770
1.71133	6768
1.71200	6767
1.71267	6766
1.71333	6765
1.71400	6764
1.71467	6763
1.71533	6763
1.71600	6763
1.71667	6763
1.71733	6764
1.71800	6765
1.71867	6768
1.71933	6771
1.72000	6775
1.72067	6781
1.72133	6789
1.72200	6799
1.72267	6811
1.72333	6827
1.72400	6846
1.72467	6870
1.72533	6900
1.72600	6936
1.72667	6980
1.72733	7033
1.72800	7098
1.72867	7175
1.72933	7266
1.73000	7376
1.73067	7505
1.73133	7658
1.73200	7838
1.73267	8048
1.73333	8293
1.73400	8579
1.73467	8911
1.73533	9294
1.73600	9736
1.73667	10243
1.73733	10822
1.73800	11483
1.73867	12232
1.73933	13079
1.74000	14033
1.74067	15104
1.74133	16301
1.74200	17635
1.74267	19115
1.74333	20752
1.74400	22555
1.74467	24537
1.74533	26709
1.74600	29082
1.74667	31670
1.74733	34481
1.74800	37524
1.74867	40808
1.74933	44339
1.75000	48125
1.75067	52170
1.75133	56481
1.75200	61062
1.75267	65914
1.75333	71035
1.75400	76421
1.75467	82064
1.75533	87955
1.75600	94085
1.75667	100442
1.75733	107012
1.75800	113780
1.75867	120726
1.75933	127829
1.76000	135067
1.76067	142414
1.76133	149844
1.76200	157332
1.76267	164852
1.76333	172375
1.76400	179872
1.76467	187312
1.76533	194664
1.76600	201897
1.76667	208979
1.76733	215883
1.76800	222580
1.76867	229044
1.76933	235248
1.77000	241168
1.77067	246781
1.77133	252067
1.77200	257011
1.77267	261601
1.77333	265828
1.77400	269683
1.77467	273163
1.77533	276265
1.77600	278987
1.77667	281331
1.77733	283301
1.77800	284900
1.77867	286138
1.77933	287023
1.78000	287566
1.78067	287778
1.78133	287672
1.78200	287262
1.78267	286561
1.78333	285584
1.78400	284344
1.78467	282857
1.78533	281137
1.78600	279199
1.78667	277058
1.78733	274728
1.78800	272222
1.78867	269555
1.78933	266739
1.79000	263787
1.79067	260712
1.79133	257524
1.79200	254236
1.79267	250857
1.79333	247399
1.79400	243870
1.79467	240280
1.79533	236639
1.79600	232953
1.79667	229230
1.79733	225479
1.79800	221705
1.79867	217916
1.79933	214116
1.80000	210313
1.80067	206510
1.80133	202713
1.80200	198926
1.80267	195154
1.80333	191401
1.80400	187669
1.80467	183962
1.80533	180284
1.80600	176637
1.80667	173024
1.80733	169446
1.80800	165907
1.80867	162408
1.80933	158951
1.81000	155538
1.81067	152169
1.81133	148846
1.81200	145571
1.81267	142343
1.81333	139165
1.81400	136037
1.81467	132959
1.81533	129931
1.81600	126955
1.81667	124031
1.81733	121158
1.81800	118337
1.81867	115568
1.81933	112851
1.82000	110185
1.82067	107572
1.82133	105010
1.82200	102499
1.82267	100039
1.82333	97629
1.82400	95270
1.82467	92960
1.82533	90700
1.82600	88489
1.82667	86325
1.82733	84210
1.82800	82142
1.82867	80120
1.82933	78145
1.83000	76214
1.83067	74329
1.83133	72487
1.83200	70688
1.83267	68932
1.83333	67218
1.83400	65546
1.83467	63913
1.83533	62321
1.83600	60768
1.83667	59253
1.83733	57776
1.83800	56335
1.83867	54931
1.83933	53563
1.84000	52229
1.84067	50930
1.84133	49664
1.84200	48431
1.84267	47230
1.84333	46060
1.84400	44921
1.84467	43812
1.84533	42733
1.84600	41682
1.84667	40660
1.84733	39664
1.84800	38696
1.84867	37754
1.84933	36837
1.85000	35946
1.85067	35079
1.85133	34235
1.85200	33415
1.85267	32618
1.85333	31842
1.85400	31088
1.85467	30355
1.85533	29643
1.85600	28950
1.85667	28278
1.85733	27624
1.85800	26988
1.85867	26371
1.85933	25771
1.86000	25188
1.86067	24622
1.86133	24072
1.86200	23537
1.86267	23018
1.86333	22514
1.86400	22025
1.86467	21549
1.86533	21087
1.86600	20639
1.86667	20203
1.86733	19781
1.86800	19370
1.86867	18971
1.86933	18585
1.87000	18209
1.87067	17844
1.87133	17490
1.87200	17147
1.87267	16814
1.87333	16490
1.87400	16176
1.87467	15871
1.87533	15576
1.87600	15289
1.87667	15010
1.87733	14740
1.87800	14478
1.87867	14224
1.87933	13977
1.88000	13738
1.88067	13505
1.88133	13280
1.88200	13061
1.88267	12849
1.88333	12644
1.88400	12444
1.88467	12250
1.88533	12063
1.88600	11880
1.88667	11704
1.88733	11532
1.88800	11366
1.88867	11205
1.88933	11048
1.89000	10897
1.89067	10750
1.89133	10607
1.89200	10469
1.89267	10335
1.89333	10204
1.89400	10078
1.89467	9956
1.89533	9837
1.89600	9722
1.89667	9611
1.89733	9503
1.89800	9398
1.89867	9296
1.89933	9197
1.90000	9102
1.90067	9009
1.90133	8919
1.90200	8832
1.90267	8747
1.90333	8665
1.90400	8585
1.90467	8508
1.90533	8433
1.90600	8360
1.90667	8290
1.90733	8221
1.90800	8155
1.90867	8090
1.90933	8028
1.91000	7967
1.91067	7908
1.91133	7850
1.91200	7795
1.91267	7740
1.91333	7688
1.91400	7637
1.91467	7587
1.91533	7539
1.91600	7492
1.91667	7446
1.91733	7402
1.91800	7358
1.91867	7316
1.91933	7275
1.92000	7235
1.92067	7197
1.92133	7159
1.92200	7122
1.92267	7087
1.92333	7052
1.92400	7018
1.92467	6985
1.92533	6953
1.92600	6922
1.92667	6892
1.92733	6862
1.92800	6833
1.92867	6805
1.92933	6778
1.93000	6751
1.93067	6725
1.93133	6700
1.93200	6675
1.93267	6651
1.93333	6628
1.93400	6605
1.93467	6583
1.93533	6562
1.93600	6541
1.93667	6520
1.93733	6500
1.93800	6481
1.93867	6462
1.93933	6444
1.94000	6426
1.94067	6408
1.94133	6391
1.94200	6375
1.94267	6358
1.94333	6343
1.94400	6327
1.94467	6312
1.94533	6298
1.94600	6283
1.94667	6269
1.94733	6256
1.94800	6243
1.94867	6230
1.94933	6217
1.95000	6205
1.95067	6193
1.95133	6181
1.95200	6170
1.95267	6159
1.95333	6148
1.95400	6137
1.95467	6126
1.95533	6116
1.95600	6106
1.95667	6097
1.95733	6087
1.95800	6078
1.95867	6069
1.95933	6060
1.96000	6051
1.96067	6043
1.96133	6035
1.96200	6027
1.96267	6019
1.96333	6011
1.96400	6004
1.96467	5996
1.96533	5989
1.96600	5982
1.96667	5975
1.96733	5969
1.96800	5962
1.96867	5955
1.96933	5949
1.97000	5943
1.97067	5936
1.97133	5930
1.97200	5924
1.97267	5918
1.97333	5913
1.97400	5907
1.97467	5901
1.97533	5896
1.97600	5890
1.97667	5885
1.97733	5879
1.97800	5874
1.97867	5869
1.97933	5864
1.98000	5859
1.98067	5854
1.98133	5849
1.98200	5844
1.98267	5839
1.98333	5834
1.98400	5830
1.98467	5825
1.98533	5821
1.98600	5817
1.98667	5812
1.98733	5808
1.98800	5804
1.98867	5800
1.98933	5796
1.99000	5792
1.99067	5788
1.99133	5784
1.99200	5780
1.99267	5776
1.99333	5773
1.99400	5769
1.99467	5765
1.99533	5762
1.99600	5758
1.99667	5755
1.99733	5751
1.99800	5748
1.99867	5744
1.99933	5741
2.00000	5738
2.00067	5734
2.00133	5731
2.00200	5728
2.00267	5725
2.00333	5721
2.00400	5718
2.00467	5715
2.00533	5712
2.00600	5709
2.00667	5706
2.00733	5703
2.00800	5700
2.00867	5696
2.00933	5693
2.01000	5690
2.01067	5687
2.01133	5684
2.01200	5681
2.01267	5678
2.01333	5675
2.01400	5672
2.01467	5669
2.01533	5666
2.01600	5663
2.01667	5660
2.01733	5657
2.01800	5654
2.01867	5651
2.01933	5648
2.02000	5645
2.02067	5642
2.02133	5639
2.02200	5636
2.02267	5633
2.02333	5630
2.02400	5628
2.02467	5625
2.02533	5622
2.02600	5619
2.02667	5617
2.02733	5614
2.02800	5611
2.02867	5609
2.02933	5606
2.03000	5603
2.03067	5601
2.03133	5598
2.03200	5596
2.03267	5593
2.03333	5591
2.03400	5588
2.03467	5586
2.03533	5583
2.03600	5581
2.03667	5578
2.03733	5576
2.03800	5573
2.03867	5571
2.03933	5568
2.04000	5566
2.04067	5564
2.04133	5561
2.04200	5559
2.04267	5556
2.04333	5554
2.04400	5552
2.04467	5549
2.04533	5547
2.04600	5544
2.04667	5542
2.04733	5540
2.04800	5537
2.04867	5535
2.04933	5532
2.05000	5530
2.05067	5527
2.05133	5525
2.05200	5523
2.05267	5520
2.05333	5518
2.05400	5515
2.05467	5513
2.05533	5511
2.05600	5508
2.05667	5506
2.05733	5503
2.05800	5501
2.05867	5498
2.05933	5496
2.06000	5494
2.06067	5491
2.06133	5489
2.06200	5487
2.06267	5484
2.06333	5482
2.06400	5480
2.06467	5478
2.06533	5476
2.06600	5474
2.06667	5471
2.06733	5469
2.06800	5467
2.06867	5465
2.06933	5463
2.07000	5460
2.07067	5458
2.07133	5456
2.07200	5454
2.07267	5451
2.07333	5449
2.07400	5447
2.07467	5444
2.07533	5442
2.07600	5440
2.07667	5437
2.07733	5435
2.07800	5433
2.07867	5431
2.07933	5428
2.08000	5426
2.08067	5424
2.08133	5421
2.08200	5419
2.08267	5417
2.08333	5414
2.08400	5412
2.08467	5410
2.08533	5407
2.08600	5405
2.08667	5403
2.08733	5401
2.08800	5399
2.08867	5397
2.08933	5394
2.09000	5392
2.09067	5390
2.09133	5388
2.09200	5386
2.09267	5384
2.09333	5382
2.09400	5380
2.09467	5378
2.09533	5376
2.09600	5374
2.09667	5372
2.09733	5370
2.09800	5368
2.09867	5366
2.09933	5365
2.10000	5363
2.10067	5361
2.10133	5359
2.10200	5357
2.10267	5355
2.10333	5353
2.10400	5351
2.10467	5349
2.10533	5347
2.10600	5345
2.10667	5343
2.10733	5342
2.10800	5340
2.10867	5338
2.10933	5336
2.11000	5334
2.11067	5332
2.11133	5330
2.11200	5328
2.11267	5326
2.11333	5324
2.11400	5323
2.11467	5321
2.11533	5319
2.11600	5317
2.11667	5315
2.11733	5313
2.11800	5311
2.11867	5310
2.11933	5308
2.12000	5306
2.12067	5304
2.12133	5302
2.12200	5300
2.12267	5299
2.12333	5297
2.12400	5295
2.12467	5293
2.12533	5291
2.12600	5289
2.12667	5288
2.12733	5286
2.12800	5284
2.12867	5282
2.12933	5280
2.13000	5278
2.13067	5276
2.13133	5274
2.13200	5273
2.13267	5271
2.13333	5269
2.13400	5267
2.13467	5265
2.13533	5263
2.13600	5261
2.13667	5259
2.13733	5257
2.13800	5255
2.13867	5253
2.13933	5251
2.14000	5249
2.14067	5247
2.14133	5245
2.14200	5244
2.14267	5242
2.14333	5240
2.14400	5238
2.14467	5236
2.14533	5234
2.14600	5232
2.14667	5230
2.14733	5229
2.14800	5227
2.14867	5225
2.14933	5223
2.15000	5222
2.15067	5220
2.15133	5218
2.15200	5216
2.15267	5215
2.15333	5213
2.15400	5211
2.15467	5209
2.15533	5208
2.15600	5206
2.15667	5204
2.15733	5202
2.15800	5201
2.15867	5199
2.15933	5197
2.16000	5196
2.16067	5194
2.16133	5192
2.16200	5191
2.16267	5189
2.16333	5187
2.16400	5186
2.16467	5184
2.16533	5182
2.16600	5181
2.16667	5179
2.16733	5177
2.16800	5176
2.16867	5174
2.16933	5173
2.17000	5171
2.17067	5169
2.17133	5168
2.17200	5166
2.17267	5164
2.17333	5163
2.17400	5161
2.17467	5160
2.17533	5158
2.17600	5157
2.17667	5155
2.17733	5153
2.17800	5152
2.17867	5150
2.17933	5149
2.18000	5147
2.18067	5146
2.18133	5144
2.18200	5143
2.18267	5141
2.18333	5140
2.18400	5138
2.18467	5137
2.18533	5135
2.18600	5134
2.18667	5132
2.18733	5131
2.18800	5129
2.18867	5128
2.18933	5126
2.19000	5125
2.19067	5123
2.19133	5122
2.19200	5120
2.19267	5118
2.19333	5117
2.19400	5115
2.19467	5114
2.19533	5113
2.19600	5111
2.19667	5110
2.19733	5108
2.19800	5107
2.19867	5105
2.19933	5104
2.20000	5103
2.20067	5101
2.20133	5100
2.20200	5099
2.20267	5098
2.20333	5097
2.20400	5095
2.20467	5094
2.20533	5093
2.20600	5092
2.20667	5091
2.20733	5091
2.20800	5090
2.20867	5089
2.20933	5088
2.21000	5088
2.21067	5087
2.21133	5087
2.21200	5086
2.21267	5086
2.21333	5085
2.21400	5085
2.21467	5085
2.21533	5084
2.21600	5084
2.21667	5084
2.21733	5084
2.21800	5084
2.21867	5084
2.21933	5084
2.22000	5084
2.22067	5084
2.22133	5084
2.22200	5084
2.22267	5084
2.22333	5084
2.22400	5084
2.22467	5084
2.22533	5084
2.22600	5084
2.22667	5084
2.22733	5084
2.22800	5084
2.22867	5084
2.22933	5084
2.23000	5083
2.23067	5083
2.23133	5083
2.23200	5083
2.23267	5082
2.23333	5082
2.23400	5081
2.23467	5081
2.23533	5081
2.23600	5080
2.23667	5079
2.23733	5079
2.23800	5078
2.23867	5077
2.23933	5077
2.24000	5076
2.24067	5075
2.24133	5074
2.24200	5073
2.24267	5073
2.24333	5072
2.24400	5071
2.24467	5070
2.24533	5069
2.24600	5068
2.24667	5067
2.24733	5067
2.24800	5066
2.24867	5065
2.24933	5064
2.25000	5063
2.25067	5062
2.25133	5062
2.25200	5061
2.25267	5060
2.25333	5059
2.25400	5059
2.25467	5058
2.25533	5057
2.25600	5056
2.25667	5056
2.25733	5055
2.25800	5054
2.25867	5053
2.25933	5052
2.26000	5051
2.26067	5050
2.26133	5050
2.26200	5049
2.26267	5048
2.26333	5047
2.26400	5046
2.26467	5045
2.26533	5043
2.26600	5042
2.26667	5041
2.26733	5040
2.26800	5039
2.26867	5038
2.26933	5036
2.27000	5035
2.27067	5034
2.27133	5032
2.27200	5031
2.27267	5029
2.27333	5028
2.27400	5026
2.27467	5025
2.27533	5023
2.27600	5022
2.27667	5020
2.27733	5018
2.27800	5017
2.27867	5015
2.27933	5013
2.28000	5012
2.28067	5010
2.28133	5008
2.28200	5007
2.28267	5005
2.28333	5004
2.28400	5002
2.28467	5000
2.28533	4999
2.28600	4997
2.28667	4995
2.28733	4994
2.28800	4992
2.28867	4991
2.28933	4989
2.29000	4988
2.29067	4986
2.29133	4984
2.29200	4983
2.29267	4981
2.29333	4980
2.29400	4978
2.29467	4977
2.29533	4975
2.29600	4974
2.29667	4973
2.29733	4971
2.29800	4970
2.29867	4969
2.29933	4967
2.30000	4966
2.30067	4965
2.30133	4964
2.30200	4962
2.30267	4961
2.30333	4960
2.30400	4959
2.30467	4958
2.30533	4957
2.30600	4956
2.30667	4955
2.30733	4954
2.30800	4954
2.30867	4953
2.30933	4952
2.31000	4951
2.31067	4950
2.31133	4949
2.31200	4949
2.31267	4948
2.31333	4947
2.31400	4947
2.31467	4946
2.31533	4945
2.31600	4945
2.31667	4944
2.31733	4944
2.31800	4943
2.31867	4943
2.31933	4942
2.32000	4942
2.32067	4941
2.32133	4941
2.32200	4941
2.32267	4940
2.32333	4940
2.32400	4940
2.32467	4940
2.32533	4940
2.32600	4939
2.32667	4939
2.32733	4939
2.32800	4939
2.32867	4939
2.32933	4939
2.33000	4938
2.33067	4938
2.33133	4938
2.33200	4938
2.33267	4938
2.33333	4938
2.33400	4938
2.33467	4938
2.33533	4938
2.33600	4938
2.33667	4938
2.33733	4938
2.33800	4938
2.33867	4939
2.33933	4939
2.34000	4939
2.34067	4939
2.34133	4939
2.34200	4940
2.34267	4940
2.34333	4940
2.34400	4940
2.34467	4941
2.34533	4941
2.34600	4941
2.34667	4941
2.34733	4942
2.34800	4942
2.34867	4942
2.34933	4942
2.35000	4943
2.35067	4943
2.35133	4943
2.35200	4944
2.35267	4944
2.35333	4944
2.35400	4945
2.35467	4945
2.35533	4946
2.35600	4946
2.35667	4946
2.35733	4947
2.35800	4947
2.35867	4948
2.35933	4948
2.36000	4949
2.36067	4949
2.36133	4950
2.36200	4950
2.36267	4950
2.36333	4951
2.36400	4951
2.36467	4952
2.36533	4952
2.36600	4953
2.36667	4953
2.36733	4954
2.36800	4954
2.36867	4955
2.36933	4955
2.37000	4956
2.37067	4956
2.37133	4956
2.37200	4957
2.37267	4957
2.37333	4957
2.37400	4957
2.37467	4957
2.37533	4958
2.37600	4958
2.37667	4958
2.37733	4958
2.37800	4958
2.37867	4958
2.37933	4958
2.38000	4958
2.38067	4958
2.38133	4958
2.38200	4958
2.38267	4958
2.38333	4957
2.38400	4957
2.38467	4957
2.38533	4957
2.38600	4957
2.38667	4956
2.38733	4956
2.38800	4956
2.38867	4955
2.38933	4955
2.39000	4954
2.39067	4954
2.39133	4954
2.39200	4953
2.39267	4953
2.39333	4952
2.39400	4952
2.39467	4951
2.39533	4950
2.39600	4950
2.39667	4949
2.39733	4948
2.39800	4947
2.39867	4947
2.39933	4946
2.40000	4945
2.40067	4944
2.40133	4943
2.40200	4943
2.40267	4942
2.40333	4941
2.40400	4940
2.40467	4939
2.40533	4938
2.40600	4938
2.40667	4937
2.40733	4936
2.40800	4935
2.40867	4935
2.40933	4934
2.41000	4933
2.41067	4933
2.41133	4932
2.41200	4931
2.41267	4931
2.41333	4930
2.41400	4929
2.41467	4928
2.41533	4928
2.41600	4927
2.41667	4926
2.41733	4925
2.41800	4925
2.41867	4924
2.41933	4923
2.42000	4922
2.42067	4921
2.42133	4920
2.42200	4919
2.42267	4919
2.42333	4918
2.42400	4917
2.42467	4916
2.42533	4915
2.42600	4914
2.42667	4913
2.42733	4911
2.42800	4910
2.42867	4909
2.42933	4908
2.43000	4907
2.43067	4906
2.43133	4904
2.43200	4903
2.43267	4902
2.43333	4900
2.43400	4899
2.43467	4898
2.43533	4896
2.43600	4895
2.43667	4893
2.43733	4892
2.43800	4890
2.43867	4889
2.43933	4887
2.44000	4886
2.44067	4884
2.44133	4882
2.44200	4880
2.44267	4879
2.44333	4877
2.44400	4875
2.44467	4873
2.44533	4871
2.44600	4869
2.44667	4868
2.44733	4866
2.44800	4864
2.44867	4862
2.44933	4860
2.45000	4858
2.45067	4856
2.45133	4853
2.45200	4851
2.45267	4849
2.45333	4847
2.45400	4845
2.45467	4843
2.45533	4841
2.45600	4839
2.45667	4837
2.45733	4835
2.45800	4833
2.45867	4830
2.45933	4828
2.46000	4826
2.46067	4824
2.46133	4822
2.46200	4820
2.46267	4817
2.46333	4815
2.46400	4813
2.46467	4811
2.46533	4809
2.46600	4806
2.46667	4804
2.46733	4802
2.46800	4800
2.46867	4798
2.46933	4796
2.47000	4794
2.47067	4791
2.47133	4789
2.47200	4787
2.47267	4785
2.47333	4783
2.47400	4781
2.47467	4779
2.47533	4777
2.47600	4775
2.47667	4773
2.47733	4771
2.47800	4769
2.47867	4766
2.47933	4764
2.48000	4762
2.48067	4760
2.48133	4758
2.48200	4756
2.48267	4754
2.48333	4752
2.48400	4750
2.48467	4748
2.48533	4746
2.48600	4745
2.48667	4743
2.48733	4741
2.48800	4739
2.48867	4737
2.48933	4735
2.49000	4733
2.49067	4731
2.49133	4729
2.49200	4727
2.49267	4725
2.49333	4723
2.49400	4721
2.49467	4719
2.49533	4717
2.49600	4715
2.49667	4713
2.49733	4711
2.49800	4709
2.49867	4708
2.49933	4706
2.50000	4704
2.50067	4702
2.50133	4700
2.50200	4698
2.50267	4696
2.50333	4694
2.50400	4693
2.50467	4691
2.50533	4689
2.50600	4687
2.50667	4685
2.50733	4683
2.50800	4681
2.50867	4679
2.50933	4677
2.51000	4676
2.51067	4674
2.51133	4672
2.51200	4670
2.51267	4669
2.51333	4667
2.51400	4665
2.51467	4664
2.51533	4662
2.51600	4660
2.51667	4659
2.51733	4657
2.51800	4655
2.51867	4653
2.51933	4652
2.52000	4650
2.52067	4648
2.52133	4647
2.52200	4645
2.52267	4644
2.52333	4642
2.52400	4640
2.52467	4639
2.52533	4637
2.52600	4636
2.52667	4634
2.52733	4633
2.52800	4631
2.52867	4629
2.52933	4628
2.53000	4626
2.53067	4625
2.53133	4623
2.53200	4622
2.53267	4620
2.53333	4618
2.53400	4617
2.53467	4615
2.53533	4613
2.53600	4612
2.53667	4610
2.53733	4608
2.53800	4607
2.53867	4605
2.53933	4603
2.54000	4602
2.54067	4600
2.54133	4598
2.54200	4597
2.54267	4595
2.54333	4594
2.54400	4592
2.54467	4590
2.54533	4588
2.54600	4587
2.54667	4585
2.54733	4583
2.54800	4582
2.54867	4580
2.54933	4578
2.55000	4577
2.55067	4575
2.55133	4574
2.55200	4572
2.55267	4570
2.55333	4569
2.55400	4567
2.55467	4566
2.55533	4565
2.55600	4563
2.55667	4562
2.55733	4560
2.55800	4559
2.55867	4557
2.55933	4556
2.56000	4555
2.56067	4553
2.56133	4552
2.56200	4551
2.56267	4549
2.56333	4548
2.56400	4546
2.56467	4545
2.56533	4544
2.56600	4542
2.56667	4541
2.56733	4540
2.56800	4538
2.56867	4537
2.56933	4535
2.57000	4534
2.57067	4532
2.57133	4531
2.57200	4529
2.57267	4527
2.57333	4526
2.57400	4524
2.57467	4523
2.57533	4521
2.57600	4520
2.57667	4518
2.57733	4517
2.57800	4516
2.57867	4514
2.57933	4513
2.58000	4512
2.58067	4510
2.58133	4509
2.58200	4508
2.58267	4507
2.58333	4506
2.58400	4504
2.58467	4503
2.58533	4502
2.58600	4501
2.58667	4500
2.58733	4498
2.58800	4497
2.58867	4496
2.58933	4495
2.59000	4494
2.59067	4493
2.59133	4492
2.59200	4491
2.59267	4489
2.59333	4488
2.59400	4487
2.59467	4486
2.59533	4485
2.59600	4484
2.59667	4482
2.59733	4481
2.59800	4480
2.59867	4479
2.59933	4478
2.60000	4477
2.60067	4475
2.60133	4474
2.60200	4473
2.60267	4472
2.60333	4471
2.60400	4470
2.60467	4469
2.60533	4468
2.60600	4467
2.60667	4466
2.60733	4465
2.60800	4464
2.60867	4463
2.60933	4462
2.61000	4461
2.61067	4460
2.61133	4459
2.61200	4458
2.61267	4457
2.61333	4457
2.61400	4456
2.61467	4455
2.61533	4454
2.61600	4453
2.61667	4452
2.61733	4451
2.61800	4450
2.61867	4449
2.61933	4448
2.62000	4447
2.62067	4447
2.62133	4446
2.62200	4445
2.62267	4444
2.62333	4443
2.62400	4442
2.62467	4441
2.62533	4440
2.62600	4439
2.62667	4438
2.62733	4437
2.62800	4436
2.62867	4435
2.62933	4434
2.63000	4433
2.63067	4432
2.63133	4431
2.63200	4429
2.63267	4428
2.63333	4427
2.63400	4426
2.63467	4425
2.63533	4424
2.63600	4423
2.63667	4422
2.63733	4421
2.63800	4420
2.63867	4420
2.63933	4419
2.64000	4418
2.64067	4417
2.64133	4416
2.64200	4415
2.64267	4414
2.64333	4413
2.64400	4412
2.64467	4411
2.64533	4410
2.64600	4409
2.64667	4408
2.64733	4407
2.64800	4406
2.64867	4405
2.64933	4404
2.65000	4403
2.65067	4402
2.65133	4401
2.65200	4400
2.65267	4399
2.65333	4398
2.65400	4397
2.65467	4396
2.65533	4395
2.65600	4393
2.65667	4392
2.65733	4391
2.65800	4390
2.65867	4389
2.65933	4388
2.66000	4387
2.66067	4386
2.66133	4385
2.66200	4384
2.66267	4383
2.66333	4382
2.66400	4381
2.66467	4379
2.66533	4378
2.66600	4377
2.66667	4376
2.66733	4375
2.66800	4374
2.66867	4373
2.66933	4372
2.67000	4371
2.67067	4370
2.67133	4369
2.67200	4367
2.67267	4366
2.67333	4365
2.67400	4364
2.67467	4363
2.67533	4362
2.67600	4361
2.67667	4360
2.67733	4358
2.67800	4357
2.67867	4356
2.67933	4355
2.68000	4354
2.68067	4353
2.68133	4351
2.68200	4350
2.68267	4349
2.68333	4348
2.68400	4347
2.68467	4346
2.68533	4345
2.68600	4343
2.68667	4342
2.68733	4341
2.68800	4340
2.68867	4339
2.68933	4337
2.69000	4336
2.69067	4335
2.69133	4334
2.69200	4333
2.69267	4332
2.69333	4331
2.69400	4330
2.69467	4330
2.69533	4329
2.69600	4328
2.69667	4327
2.69733	4326
2.69800	4325
2.69867	4324
2.69933	4323
2.70000	4322
2.70067	4321
2.70133	4320
2.70200	4319
2.70267	4318
2.70333	4317
2.70400	4317
2.70467	4316
2.70533	4315
2.70600	4314
2.70667	4313
2.70733	4312
2.70800	4311
2.70867	4310
2.70933	4309
2.71000	4308
2.71067	4308
2.71133	4307
2.71200	4306
2.71267	4305
2.71333	4304
2.71400	4303
2.71467	4302
2.71533	4301
2.71600	4300
2.71667	4299
2.71733	4298
2.71800	4297
2.71867	4296
2.71933	4296
2.72000	4295
2.72067	4294
2.72133	4293
2.72200	4292
2.72267	4291
2.72333	4290
2.72400	4289
2.72467	4288
2.72533	4287
2.72600	4286
2.72667	4285
2.72733	4284
2.72800	4284
2.72867	4283
2.72933	4282
2.73000	4281
2.73067	4280
2.73133	4280
2.73200	4279
2.73267	4278
2.73333	4277
2.73400	4277
2.73467	4276
2.73533	4275
2.73600	4274
2.73667	4273
2.73733	4273
2.73800	4272
2.73867	4271
2.73933	4270
2.74000	4270
2.74067	4269
2.74133	4268
2.74200	4267
2.74267	4267
2.74333	4266
2.74400	4266
2.74467	4265
2.74533	4264
2.74600	4264
2.74667	4263
2.74733	4263
2.74800	4263
2.74867	4263
2.74933	4262
2.75000	4262
2.75067	4262
2.75133	4262
2.75200	4261
2.75267	4261
2.75333	4261
2.75400	4261
2.75467	4260
2.75533	4260
2.75600	4260
2.75667	4260
2.75733	4260
2.75800	4260
2.75867	4259
2.75933	4259
2.76000	4259
2.76067	4259
2.76133	4259
2.76200	4259
2.76267	4259
2.76333	4259
2.76400	4259
2.76467	4259
2.76533	4259
2.76600	4259
2.76667	4259
2.76733	4259
2.76800	4260
2.76867	4260
2.76933	4260
2.77000	4260
2.77067	4261
2.77133	4261
2.77200	4262
2.77267	4262
2.77333	4263
2.77400	4263
2.77467	4264
2.77533	4265
2.77600	4265
2.77667	4266
2.77733	4267
2.77800	4267
2.77867	4268
2.77933	4269
2.78000	4270
2.78067	4271
2.78133	4272
2.78200	4273
2.78267	4274
2.78333	4275
2.78400	4276
2.78467	4278
2.78533	4279
2.78600	4280
2.78667	4282
2.78733	4284
2.78800	4285
2.78867	4287
2.78933	4289
2.79000	4290
2.79067	4292
2.79133	4294
2.79200	4296
2.79267	4299
2.79333	4301
2.79400	4303
2.79467	4305
2.79533	4308
2.79600	4310
2.79667	4313
2.79733	4316
2.79800	4319
2.79867	4321
2.79933	4324
2.80000	4327
2.80067	4330
2.80133	4334
2.80200	4337
2.80267	4340
2.80333	4343
2.80400	4347
2.80467	4350
2.80533	4353
2.80600	4357
2.80667	4360
2.80733	4364
2.80800	4367
2.80867	4371
2.80933	4374
2.81000	4378
2.81067	4381
2.81133	4385
2.81200	4388
2.81267	4392
2.81333	4395
2.81400	4399
2.81467	4402
2.81533	4405
2.81600	4409
2.81667	4412
2.81733	4415
2.81800	4418
2.81867	4421
2.81933	4424
2.82000	4427
2.82067	4430
2.82133	4433
2.82200	4436
2.82267	4438
2.82333	4440
2.82400	4443
2.82467	4445
2.82533	4447
2.82600	4449
2.82667	4451
2.82733	4453
2.82800	4454
2.82867	4456
2.82933	4457
2.83000	4458
2.83067	4459
2.83133	4460
2.83200	4461
2.83267	4462
2.83333	4463
2.83400	4463
2.83467	4463
2.83533	4464
2.83600	4464
2.83667	4464
2.83733	4463
2.83800	4463
2.83867	4463
2.83933	4462
2.84000	4462
2.84067	4461
2.84133	4460
2.84200	4459
2.84267	4458
2.84333	4457
2.84400	4456
2.84467	4455
2.84533	4454
2.84600	4452
2.84667	4451
2.84733	4449
2.84800	4448
2.84867	4446
2.84933	4444
2.85000	4442
2.85067	4441
2.85133	4439
2.85200	4437
2.85267	4435
2.85333	4433
2.85400	4431
2.85467	4429
2.85533	4427
2.85600	4425
2.85667	4422
2.85733	4420
2.85800	4418
2.85867	4416
2.85933	4414
2.86000	4412
2.86067	4410
2.86133	4407
2.86200	4405
2.86267	4403
2.86333	4401
2.86400	4399
2.86467	4397
2.86533	4395
2.86600	4393
2.86667	4391
2.86733	4389
2.86800	4387
2.86867	4386
2.86933	4384
2.87000	4382
2.87067	4381
2.87133	4379
2.87200	4378
2.87267	4376
2.87333	4375
2.87400	4373
2.87467	4372
2.87533	4371
2.87600	4370
2.87667	4369
2.87733	4368
2.87800	4367
2.87867	4367
2.87933	4366
2.88000	4365
2.88067	4365
2.88133	4364
2.88200	4364
2.88267	4364
2.88333	4364
2.88400	4364
2.88467	4364
2.88533	4364
2.88600	4364
2.88667	4365
2.88733	4365
2.88800	4366
2.88867	4366
2.88933	4367
2.89000	4368
2.89067	4369
2.89133	4370
2.89200	4371
2.89267	4372
2.89333	4373
2.89400	4374
2.89467	4376
2.89533	4377
2.89600	4378
2.89667	4380
2.89733	4381
2.89800	4383
2.89867	4384
2.89933	4386
2.90000	4387
2.90067	4389
2.90133	4390
2.90200	4392
2.90267	4393
2.90333	4394
2.90400	4396
2.90467	4397
2.90533	4398
2.90600	4399
2.90667	4400
2.90733	4401
2.90800	4401
2.90867	4402
2.90933	4403
2.91000	4403
2.91067	4403
2.91133	4403
2.91200	4403
2.91267	4403
2.91333	4403
2.91400	4403
2.91467	4403
2.91533	4402
2.91600	4401
2.91667	4400
2.91733	4399
2.91800	4398
2.91867	4397
2.91933	4395
2.92000	4394
2.92067	4392
2.92133	4390
2.92200	4387
2.92267	4385
2.92333	4382
2.92400	4380
2.92467	4377
2.92533	4374
2.92600	4371
2.92667	4367
2.92733	4364
2.92800	4360
2.92867	4356
2.92933	4353
2.93000	4349
2.93067	4345
2.93133	4340
2.93200	4336
2.93267	4332
2.93333	4327
2.93400	4322
2.93467	4318
2.93533	4313
2.93600	4308
2.93667	4303
2.93733	4298
2.93800	4293
2.93867	4287
2.93933	4282
2.94000	4277
2.94067	4272
2.94133	4266
2.94200	4261
2.94267	4256
2.94333	4250
2.94400	4245
2.94467	4240
2.94533	4235
2.94600	4229
2.94667	4224
2.94733	4219
2.94800	4213
2.94867	4208
2.94933	4203
2.95000	4197
2.95067	4192
2.95133	4187
2.95200	4181
2.95267	4176
2.95333	4171
2.95400	4165
2.95467	4160
2.95533	4155
2.95600	4150
2.95667	4145
2.95733	4140
2.95800	4135
2.95867	4130
2.95933	4125
2.96000	4120
2.96067	4115
2.96133	4111
2.96200	4106
2.96267	4101
2.96333	4097
2.96400	4092
2.96467	4088
2.96533	4083
2.96600	4079
2.96667	4075
2.96733	4070
2.96800	4066
2.96867	4062
2.96933	4058
2.97000	4054
2.97067	4050
2.97133	4047
2.97200	4043
2.97267	4039
2.97333	4036
2.97400	4032
2.97467	4028
2.97533	4025
2.97600	4021
2.97667	4018
2.97733	4014
2.97800	4011
2.97867	4008
2.97933	4004
2.98000	4001
2.98067	3998
2.98133	3995
2.98200	3992
2.98267	3989
2.98333	3986
2.98400	3983
2.98467	3980
2.98533	3977
2.98600	3974
2.98667	3971
2.98733	3968
2.98800	3965
2.98867	3963
2.98933	3960
2.99000	3957
2.99067	3955
2.99133	3952
2.99200	3950
2.99267	3947
2.99333	3945
2.99400	3942
2.99467	3940
2.99533	3937
2.99600	3935
2.99667	3932
2.99733	3930
2.99800	3928
2.99867	3925
2.99933	3923
3.00000	3921
3.00067	3919
3.00133	3917
3.00200	3914
3.00267	3912
3.00333	3910
3.00400	3908
3.00467	3906
3.00533	3904
3.00600	3902
3.00667	3900
3.00733	3897
3.00800	3895
3.00867	3893
3.00933	3891
3.01000	3889
3.01067	3887
3.01133	3885
3.01200	3883
3.01267	3881
3.01333	3879
3.01400	3877
3.01467	3875
3.01533	3873
3.01600	3871
3.01667	3869
3.01733	3867
3.01800	3865
3.01867	3863
3.01933	3861
3.02000	3859
3.02067	3857
3.02133	3855
3.02200	3854
3.02267	3852
3.02333	3850
3.02400	3848
3.02467	3846
3.02533	3845
3.02600	3843
3.02667	3841
3.02733	3840
3.02800	3838
3.02867	3836
3.02933	3835
3.03000	3833
3.03067	3831
3.03133	3830
3.03200	3828
3.03267	3827
3.03333	3825
3.03400	3824
3.03467	3822
3.03533	3821
3.03600	3820
3.03667	3818
3.03733	3817
3.03800	3816
3.03867	3815
3.03933	3813
3.04000	3812
3.04067	3811
3.04133	3810
3.04200	3809
3.04267	3808
3.04333	3807
3.04400	3806
3.04467	3805
3.04533	3804
3.04600	3803
3.04667	3802
3.04733	3801
3.04800	3800
3.04867	3799
3.04933	3799
3.05000	3798
3.05067	3797
3.05133	3796
3.05200	3796
3.05267	3795
3.05333	3794
3.05400	3794
3.05467	3793
3.05533	3793
3.05600	3792
3.05667	3792
3.05733	3791
3.05800	3791
3.05867	3791
3.05933	3790
3.06000	3790
3.06067	3790
3.06133	3790
3.06200	3790
3.06267	3790
3.06333	3790
3.06400	3790
3.06467	3790
3.06533	3790
3.06600	3790
3.06667	3790
3.06733	3790
3.06800	3790
3.06867	3791
3.06933	3791
3.07000	3791
3.07067	3792
3.07133	3792
3.07200	3793
3.07267	3793
3.07333	3794
3.07400	3794
3.07467	3795
3.07533	3795
3.07600	3796
3.07667	3796
3.07733	3797
3.07800	3797
3.07867	3798
3.07933	3798
3.08000	3799
3.08067	3800
3.08133	3800
3.08200	3801
3.08267	3801
3.08333	3802
3.08400	3803
3.08467	3803
3.08533	3804
3.08600	3804
3.08667	3805
3.08733	3805
3.08800	3806
3.08867	3806
3.08933	3807
3.09000	3807
3.09067	3807
3.09133	3807
3.09200	3808
3.09267	3808
3.09333	3808
3.09400	3808
3.09467	3808
3.09533	3808
3.09600	3808
3.09667	3808
3.09733	3807
3.09800	3807
3.09867	3807
3.09933	3807
3.10000	3806
3.10067	3806
3.10133	3805
3.10200	3805
3.10267	3804
3.10333	3803
3.10400	3802
3.10467	3802
3.10533	3801
3.10600	3800
3.10667	3799
3.10733	3797
3.10800	3796
3.10867	3795
3.10933	3794
3.11000	3792
3.11067	3791
3.11133	3789
3.11200	3788
3.11267	3786
3.11333	3785
3.11400	3783
3.11467	3782
3.11533	3780
3.11600	3779
3.11667	3777
3.11733	3775
3.11800	3774
3.11867	3772
3.11933	3770
3.12000	3769
3.12067	3767
3.12133	3765
3.12200	3763
3.12267	3762
3.12333	3760
3.12400	3758
3.12467	3756
3.12533	3754
3.12600	3752
3.12667	3750
3.12733	3748
3.12800	3747
3.12867	3745
3.12933	3743
3.13000	3741
3.13067	3739
3.13133	3737
3.13200	3735
3.13267	3733
3.13333	3731
3.13400	3729
3.13467	3727
3.13533	3724
3.13600	3722
3.13667	3720
3.13733	3718
3.13800	3716
3.13867	3714
3.13933	3712
3.14000	3710
3.14067	3708
3.14133	3706
3.14200	3704
3.14267	3702
3.14333	3700
3.14400	3698
3.14467	3696
3.14533	3694
3.14600	3692
3.14667	3691
3.14733	3689
3.14800	3687
3.14867	3686
3.14933	3684
3.15000	3683
3.15067	3681
3.15133	3680
3.15200	3678
3.15267	3677
3.15333	3675
3.15400	3674
3.15467	3673
3.15533	3671
3.15600	3670
3.15667	3669
3.15733	3668
3.15800	3666
3.15867	3665
3.15933	3664
3.16000	3663
3.16067	3661
3.16133	3660
3.16200	3659
3.16267	3658
3.16333	3657
3.16400	3655
3.16467	3654
3.16533	3653
3.16600	3652
3.16667	3651
3.16733	3650
3.16800	3649
3.16867	3648
3.16933	3647
3.17000	3646
3.17067	3645
3.17133	3644
3.17200	3643
3.17267	3641
3.17333	3640
3.17400	3640
3.17467	3639
3.17533	3638
3.17600	3637
3.17667	3636
3.17733	3635
3.17800	3634
3.17867	3633
3.17933	3632
3.18000	3631
3.18067	3630
3.18133	3629
3.18200	3628
3.18267	3627
3.18333	3626
3.18400	3625
3.18467	3624
3.18533	3623
3.18600	3622
3.18667	3621
3.18733	3620
3.18800	3619
3.18867	3618
3.18933	3617
3.19000	3616
3.19067	3615
3.19133	3614
3.19200	3613
3.19267	3612
3.19333	3611
3.19400	3610
3.19467	3610
3.19533	3609
3.19600	3608
3.19667	3607
3.19733	3606
3.19800	3606
3.19867	3605
3.19933	3604
3.20000	3604
3.20067	3603
3.20133	3602
3.20200	3602
3.20267	3601
3.20333	3600
3.20400	3600
3.20467	3599
3.20533	3598
3.20600	3598
3.20667	3597
3.20733	3596
3.20800	3596
3.20867	3595
3.20933	3594
3.21000	3594
3.21067	3593
3.21133	3592
3.21200	3592
3.21267	3591
3.21333	3591
3.21400	3590
3.21467	3589
3.21533	3589
3.21600	3588
3.21667	3588
3.21733	3587
3.21800	3586
3.21867	3586
3.21933	3585
3.22000	3585
3.22067	3584
3.22133	3584
3.22200	3583
3.22267	3583
3.22333	3582
3.22400	3582
3.22467	3581
3.22533	3581
3.22600	3580
3.22667	3580
3.22733	3579
3.22800	3579
3.22867	3578
3.22933	3578
3.23000	3577
3.23067	3577
3.23133	3576
3.23200	3575
3.23267	3575
3.23333	3574
3.23400	3574
3.23467	3573
3.23533	3573
3.23600	3572
3.23667	3572
3.23733	3571
3.23800	3570
3.23867	3570
3.23933	3569
3.24000	3569
3.24067	3568
3.24133	3568
3.24200	3567
3.24267	3567
3.24333	3566
3.24400	3566
3.24467	3565
3.24533	3565
3.24600	3564
3.24667	3564
3.24733	3563
3.24800	3563
3.24867	3562
3.24933	3562
3.25000	3561
3.25067	3561
3.25133	3560
3.25200	3559
3.25267	3559
3.25333	3558
3.25400	3558
3.25467	3557
3.25533	3556
3.25600	3556
3.25667	3555
3.25733	3555
3.25800	3555
3.25867	3554
3.25933	3554
3.26000	3553
3.26067	3553
3.26133	3553
3.26200	3552
3.26267	3552
3.26333	3551
3.26400	3551
3.26467	3551
3.26533	3550
3.26600	3550
3.26667	3550
3.26733	3549
3.26800	3549
3.26867	3548
3.26933	3548
3.27000	3548
3.27067	3547
3.27133	3547
3.27200	3546
3.27267	3546
3.27333	3546
3.27400	3545
3.27467	3545
3.27533	3545
3.27600	3544
3.27667	3544
3.27733	3543
3.27800	3543
3.27867	3543
3.27933	3542
3.28000	3542
3.28067	3541
3.28133	3541
3.28200	3541
3.28267	3540
3.28333	3540
3.28400	3539
3.28467	3539
3.28533	3539
3.28600	3538
3.28667	3538
3.28733	3537
3.28800	3537
3.28867	3537
3.28933	3536
3.29000	3536
3.29067	3536
3.29133	3535
3.29200	3535
3.29267	3535
3.29333	3534
3.29400	3534
3.29467	3534
3.29533	3534
3.29600	3533
3.29667	3533
3.29733	3533
3.29800	3533
3.29867	3532
3.29933	3532
3.30000	3532
3.30067	3532
3.30133	3531
3.30200	3531
3.30267	3531
3.30333	3530
3.30400	3530
3.30467	3530
3.30533	3529
3.30600	3529
3.30667	3529
3.30733	3528
3.30800	3528
3.30867	3528
3.30933	3527
3.31000	3527
3.31067	3526
3.31133	3526
3.31200	3526
3.31267	3525
3.31333	3525
3.31400	3524
3.31467	3524
3.31533	3524
3.31600	3523
3.31667	3523
3.31733	3523
3.31800	3522
3.31867	3522
3.31933	3521
3.32000	3521
3.32067	3520
3.32133	3520
3.32200	3520
3.32267	3519
3.32333	3519
3.32400	3518
3.32467	3518
3.32533	3517
3.32600	3517
3.32667	3516
3.32733	3516
3.32800	3515
3.32867	3515
3.32933	3515
3.33000	3514
3.33067	3514
3.33133	3513
3.33200	3513
3.33267	3512
3.33333	3512
3.33400	3511
3.33467	3511
3.33533	3510
3.33600	3510
3.33667	3509
3.33733	3509
3.33800	3508
3.33867	3508
3.33933	3507
3.34000	3507
3.34067	3506
3.34133	3506
3.34200	3505
3.34267	3505
3.34333	3505
3.34400	3504
3.34467	3504
3.34533	3503
3.34600	3503
3.34667	3503
3.34733	3502
3.34800	3502
3.34867	3502
3.34933	3501
3.35000	3501
3.35067	3501
3.35133	3500
3.35200	3500
3.35267	3500
3.35333	3500
3.35400	3499
3.35467	3499
3.35533	3499
3.35600	3499
3.35667	3499
3.35733	3499
3.35800	3498
3.35867	3498
3.35933	3498
3.36000	3498
3.36067	3498
3.36133	3498
3.36200	3497
3.36267	3497
3.36333	3497
3.36400	3497
3.36467	3497
3.36533	3497
3.36600	3497
3.36667	3497
3.36733	3497
3.36800	3496
3.36867	3496
3.36933	3496
3.37000	3496
3.37067	3496
3.37133	3496
3.37200	3497
3.37267	3497
3.37333	3497
3.37400	3497
3.37467	3497
3.37533	3497
3.37600	3497
3.37667	3497
3.37733	3498
3.37800	3498
3.37867	3498
3.37933	3498
3.38000	3499
3.38067	3499
3.38133	3499
3.38200	3499
3.38267	3499
3.38333	3500
3.38400	3500
3.38467	3500
3.38533	3500
3.38600	3500
3.38667	3500
3.38733	3501
3.38800	3501
3.38867	3501
3.38933	3501
3.39000	3501
3.39067	3502
3.39133	3502
3.39200	3502
3.39267	3502
3.39333	3503
3.39400	3503
3.39467	3503
3.39533	3503
3.39600	3504
3.39667	3504
3.39733	3504
3.39800	3505
3.39867	3505
3.39933	3506
3.40000	3506
3.40067	3507
3.40133	3507
3.40200	3508
3.40267	3508
3.40333	3509
3.40400	3509
3.40467	3510
3.40533	3511
3.40600	3511
3.40667	3512
3.40733	3513
3.40800	3513
3.40867	3514
3.40933	3515
3.41000	3516
3.41067	3516
3.41133	3517
3.41200	3518
3.41267	3519
3.41333	3520
3.41400	3521
3.41467	3522
3.41533	3523
3.41600	3524
3.41667	3525
3.41733	3526
3.41800	3527
3.41867	3528
3.41933	3529
3.42000	3530
3.42067	3531
3.42133	3532
3.42200	3533
3.42267	3534
3.42333	3535
3.42400	3537
3.42467	3538
3.42533	3539
3.42600	3540
3.42667	3542
3.42733	3543
3.42800	3544
3.42867	3546
3.42933	3547
3.43000	3549
3.43067	3550
3.43133	3552
3.43200	3553
3.43267	3555
3.43333	3557
3.43400	3559
3.43467	3560
3.43533	3562
3.43600	3564
3.43667	3566
3.43733	3568
3.43800	3570
3.43867	3572
3.43933	3575
3.44000	3577
3.44067	3579
3.44133	3582
3.44200	3584
3.44267	3587
3.44333	3589
3.44400	3592
3.44467	3595
3.44533	3597
3.44600	3600
3.44667	3603
3.44733	3606
3.44800	3609
3.44867	3612
3.44933	3615
3.45000	3618
3.45067	3621
3.45133	3625
3.45200	3628
3.45267	3631
3.45333	3635
3.45400	3638
3.45467	3641
3.45533	3645
3.45600	3649
3.45667	3652
3.45733	3656
3.45800	3660
3.45867	3663
3.45933	3667
3.46000	3671
3.46067	3675
3.46133	3679
3.46200	3683
3.46267	3687
3.46333	3692
3.46400	3696
3.46467	3700
3.46533	3704
3.46600	3709
3.46667	3713
3.46733	3717
3.46800	3722
3.46867	3726
3.46933	3731
3.47000	3735
3.47067	3740
3.47133	3744
3.47200	3749
3.47267	3753
3.47333	3758
3.47400	3762
3.47467	3767
3.47533	3772
3.47600	3776
3.47667	3781
3.47733	3786
3.47800	3791
3.47867	3795
3.47933	3800
3.48000	3805
3.48067	3810
3.48133	3815
3.48200	3820
3.48267	3825
3.48333	3830
3.48400	3835
3.48467	3840
3.48533	3845
3.48600	3850
3.48667	3856
3.48733	3861
3.48800	3867
3.48867	3873
3.48933	3879
3.49000	3885
3.49067	3891
3.49133	3897
3.49200	3904
3.49267	3910
3.49333	3917
3.49400	3924
3.49467	3931
3.49533	3939
3.49600	3946
3.49667	3954
3.49733	3962
3.49800	3971
3.49867	3979
3.49933	3988
3.50000	3998
3.50067	4007
3.50133	4017
3.50200	4028
3.50267	4039
3.50333	4050
3.50400	4061
3.50467	4073
3.50533	4086
3.50600	4099
3.50667	4113
3.50733	4127
3.50800	4141
3.50867	4157
3.50933	4172
3.51000	4189
3.51067	4206
3.51133	4224
3.51200	4242
3.51267	4262
3.51333	4282
3.51400	4303
3.51467	4324
3.51533	4347
3.51600	4370
3.51667	4394
3.51733	4419
3.51800	4445
3.51867	4472
3.51933	4500
3.52000	4528
3.52067	4558
3.52133	4589
3.52200	4620
3.52267	4652
3.52333	4686
3.52400	4720
3.52467	4755
3.52533	4791
3.52600	4828
3.52667	4866
3.52733	4905
3.52800	4945
3.52867	4986
3.52933	5027
3.53000	5070
3.53067	5113
3.53133	5158
3.53200	5203
3.53267	5249
3.53333	5295
3.53400	5343
3.53467	5391
3.53533	5440
3.53600	5490
3.53667	5541
3.53733	5592
3.53800	5644
3.53867	5696
3.53933	5749
3.54000	5803
3.54067	5857
3.54133	5911
3.54200	5966
3.54267	6021
3.54333	6077
3.54400	6132
3.54467	6188
3.54533	6245
3.54600	6301
3.54667	6357
3.54733	6413
3.54800	6469
3.54867	6525
3.54933	6581
3.55000	6637
3.55067	6692
3.55133	6747
3.55200	6801
3.55267	6855
3.55333	6909
3.55400	6962
3.55467	7014
3.55533	7066
3.55600	7117
3.55667	7167
3.55733	7216
3.55800	7264
3.55867	7311
3.55933	7358
3.56000	7403
3.56067	7448
3.56133	7491
3.56200	7533
3.56267	7574
3.56333	7614
3.56400	7653
3.56467	7690
3.56533	7727
3.56600	7762
3.56667	7795
3.56733	7828
3.56800	7859
3.56867	7889
3.56933	7917
3.57000	7944
3.57067	7969
3.57133	7994
3.57200	8016
3.57267	8038
3.57333	8058
3.57400	8076
3.57467	8093
3.57533	8109
3.57600	8123
3.57667	8136
3.57733	8148
3.57800	8158
3.57867	8167
3.57933	8175
3.58000	8182
3.58067	8187
3.58133	8191
3.58200	8194
3.58267	8195
3.58333	8196
3.58400	8195
3.58467	8193
3.58533	8190
3.58600	8186
3.58667	8181
3.58733	8175
3.58800	8167
3.58867	8159
3.58933	8150
3.59000	8140
3.59067	8129
3.59133	8117
3.59200	8104
3.59267	8090
3.59333	8076
3.59400	8061
3.59467	8045
3.59533	8028
3.59600	8011
3.59667	7993
3.59733	7975
3.59800	7956
3.59867	7936
3.59933	7916
3.60000	7895
3.60067	7874
3.60133	7852
3.60200	7830
3.60267	7808
3.60333	7785
3.60400	7762
3.60467	7738
3.60533	7714
3.60600	7690
3.60667	7665
3.60733	7640
3.60800	7615
3.60867	7590
3.60933	7564
3.61000	7538
3.61067	7511
3.61133	7485
3.61200	7458
3.61267	7431
3.61333	7404
3.61400	7376
3.61467	7349
3.61533	7321
3.61600	7293
3.61667	7266
3.61733	7237
3.61800	7209
3.61867	7181
3.61933	7152
3.62000	7124
3.62067	7095
3.62133	7066
3.62200	7037
3.62267	7008
3.62333	6979
3.62400	6950
3.62467	6921
3.62533	6891
3.62600	6862
3.62667	6833
3.62733	6803
3.62800	6774
3.62867	6745
3.62933	6715
3.63000	6686
3.63067	6656
3.63133	6627
3.63200	6597
3.63267	6568
3.63333	6538
3.63400	6509
3.63467	6480
3.63533	6450
3.63600	6421
3.63667	6392
3.63733	6362
3.63800	6333
3.63867	6304
3.63933	6275
3.64000	6246
3.64067	6217
3.64133	6188
3.64200	6159
3.64267	6131
3.64333	6102
3.64400	6074
3.64467	6045
3.64533	6017
3.64600	5989
3.64667	5961
3.64733	5934
3.64800	5906
3.64867	5879
3.64933	5851
3.65000	5824
3.65067	5797
3.65133	5770
3.65200	5744
3.65267	5717
3.65333	5691
3.65400	5665
3.65467	5639
3.65533	5613
3.65600	5587
3.65667	5562
3.65733	5536
3.65800	5511
3.65867	5486
3.65933	5462
3.66000	5437
3.66067	5413
3.66133	5389
3.66200	5365
3.66267	5341
3.66333	5318
3.66400	5294
3.66467	5271
3.66533	5249
3.66600	5226
3.66667	5204
3.66733	5182
3.66800	5160
3.66867	5139
3.66933	5118
3.67000	5097
3.67067	5076
3.67133	5055
3.67200	5035
3.67267	5015
3.67333	4995
3.67400	4976
3.67467	4956
3.67533	4937
3.67600	4918
3.67667	4899
3.67733	4881
3.67800	4863
3.67867	4845
3.67933	4827
3.68000	4809
3.68067	4792
3.68133	4775
3.68200	4758
3.68267	4742
3.68333	4725
3.68400	4709
3.68467	4693
3.68533	4678
3.68600	4662
3.68667	4647
3.68733	4632
3.68800	4617
3.68867	4602
3.68933	4587
3.69000	4573
3.69067	4559
3.69133	4545
3.69200	4531
3.69267	4518
3.69333	4504
3.69400	4491
3.69467	4478
3.69533	4465
3.69600	4453
3.69667	4440
3.69733	4428
3.69800	4416
3.69867	4404
3.69933	4392
3.70000	4381
3.70067	4370
3.70133	4358
3.70200	4348
3.70267	4337
3.70333	4326
3.70400	4316
3.70467	4305
3.70533	4295
3.70600	4285
3.70667	4275
3.70733	4266
3.70800	4256
3.70867	4247
3.70933	4237
3.71000	4228
3.71067	4219
3.71133	4210
3.71200	4202
3.71267	4193
3.71333	4185
3.71400	4176
3.71467	4168
3.71533	4160
3.71600	4152
3.71667	4144
3.71733	4136
3.71800	4128
3.71867	4120
3.71933	4113
3.72000	4106
3.72067	4098
3.72133	4091
3.72200	4084
3.72267	4077
3.72333	4070
3.72400	4063
3.72467	4056
3.72533	4050
3.72600	4043
3.72667	4037
3.72733	4030
3.72800	4024
3.72867	4018
3.72933	4012
3.73000	4005
3.73067	3999
3.73133	3994
3.73200	3988
3.73267	3982
3.73333	3976
3.73400	3970
3.73467	3965
3.73533	3959
3.73600	3954
3.73667	3948
3.73733	3943
3.73800	3938
3.73867	3932
3.73933	3927
3.74000	3922
3.74067	3917
3.74133	3912
3.74200	3907
3.74267	3902
3.74333	3898
3.74400	3893
3.74467	3888
3.74533	3883
3.74600	3879
3.74667	3874
3.74733	3870
3.74800	3866
3.74867	3861
3.74933	3857
3.75000	3853
3.75067	3849
3.75133	3845
3.75200	3840
3.75267	3836
3.75333	3832
3.75400	3828
3.75467	3824
3.75533	3820
3.75600	3816
3.75667	3813
3.75733	3809
3.75800	3805
3.75867	3801
3.75933	3797
3.76000	3794
3.76067	3790
3.76133	3786
3.76200	3783
3.76267	3779
3.76333	3775
3.76400	3772
3.76467	3768
3.76533	3765
3.76600	3761
3.76667	3758
3.76733	3755
3.76800	3751
3.76867	3748
3.76933	3745
3.77000	3741
3.77067	3738
3.77133	3735
3.77200	3732
3.77267	3728
3.77333	3725
3.77400	3722
3.77467	3719
3.77533	3716
3.77600	3713
3.77667	3710
3.77733	3706
3.77800	3703
3.77867	3700
3.77933	3697
3.78000	3694
3.78067	3691
3.78133	3689
3.78200	3686
3.78267	3683
3.78333	3680
3.78400	3677
3.78467	3674
3.78533	3672
3.78600	3669
3.78667	3666
3.78733	3664
3.78800	3661
3.78867	3658
3.78933	3656
3.79000	3653
3.79067	3650
3.79133	3648
3.79200	3645
3.79267	3643
3.79333	3640
3.79400	3638
3.79467	3635
3.79533	3632
3.79600	3630
3.79667	3627
3.79733	3625
3.79800	3623
3.79867	3620
3.79933	3618
3.80000	3616
3.80067	3613
3.80133	3611
3.80200	3609
3.80267	3607
3.80333	3604
3.80400	3602
3.80467	3600
3.80533	3598
3.80600	3596
3.80667	3594
3.80733	3592
3.80800	3590
3.80867	3588
3.80933	3585
3.81000	3583
3.81067	3581
3.81133	3579
3.81200	3577
3.81267	3575
3.81333	3574
3.81400	3572
3.81467	3570
3.81533	3568
3.81600	3566
3.81667	3564
3.81733	3562
3.81800	3561
3.81867	3559
3.81933	3557
3.82000	3555
3.82067	3553
3.82133	3551
3.82200	3549
3.82267	3547
3.82333	3545
3.82400	3544
3.82467	3542
3.82533	3540
3.82600	3538
3.82667	3536
3.82733	3534
3.82800	3532
3.82867	3530
3.82933	3529
3.83000	3527
3.83067	3525
3.83133	3523
3.83200	3521
3.83267	3519
3.83333	3518
3.83400	3516
3.83467	3514
3.83533	3512
3.83600	3510
3.83667	3509
3.83733	3507
3.83800	3505
3.83867	3504
3.83933	3502
3.84000	3500
3.84067	3499
3.84133	3497
3.84200	3495
3.84267	3494
3.84333	3492
3.84400	3490
3.84467	3489
3.84533	3487
3.84600	3486
3.84667	3484
3.84733	3483
3.84800	3481
3.84867	3479
3.84933	3478
3.85000	3476
3.85067	3475
3.85133	3473
3.85200	3472
3.85267	3470
3.85333	3469
3.85400	3467
3.85467	3466
3.85533	3464
3.85600	3463
3.85667	3461
3.85733	3460
3.85800	3458
3.85867	3457
3.85933	3456
3.86000	3454
3.86067	3453
3.86133	3452
3.86200	3450
3.86267	3449
3.86333	3447
3.86400	3446
3.86467	3445
3.86533	3444
3.86600	3442
3.86667	3441
3.86733	3440
3.86800	3438
3.86867	3437
3.86933	3436
3.87000	3435
3.87067	3433
3.87133	3432
3.87200	3431
3.87267	3430
3.87333	3429
3.87400	3428
3.87467	3426
3.87533	3425
3.87600	3424
3.87667	3423
3.87733	3422
3.87800	3421
3.87867	3420
3.87933	3419
3.88000	3418
3.88067	3417
3.88133	3415
3.88200	3414
3.88267	3413
3.88333	3412
3.88400	3411
3.88467	3410
3.88533	3409
3.88600	3408
3.88667	3407
3.88733	3405
3.88800	3404
3.88867	3403
3.88933	3402
3.89000	3401
3.89067	3400
3.89133	3399
3.89200	3398
3.89267	3397
3.89333	3396
3.89400	3395
3.89467	3394
3.89533	3393
3.89600	3392
3.89667	3391
3.89733	3390
3.89800	3389
3.89867	3388
3.89933	3387
3.90000	3386
3.90067	3385
3.90133	3384
3.90200	3383
3.90267	3382
3.90333	3381
3.90400	3380
3.90467	3379
3.90533	3378
3.90600	3377
3.90667	3376
3.90733	3376
3.90800	3375
3.90867	3374
3.90933	3373
3.91000	3372
3.91067	3371
3.91133	3370
3.91200	3369
3.91267	3368
3.91333	3367
3.91400	3366
3.91467	3365
3.91533	3364
3.91600	3363
3.91667	3362
3.91733	3362
3.91800	3361
3.91867	3360
3.91933	3359
3.92000	3358
3.92067	3358
3.92133	3357
3.92200	3356
3.92267	3355
3.92333	3354
3.92400	3354
3.92467	3353
3.92533	3352
3.92600	3351
3.92667	3350
3.92733	3350
3.92800	3349
3.92867	3348
3.92933	3347
3.93000	3347
3.93067	3346
3.93133	3345
3.93200	3345
3.93267	3344
3.93333	3343
3.93400	3342
3.93467	3342
3.93533	3341
3.93600	3340
3.93667	3340
3.93733	3339
3.93800	3338
3.93867	3338
3.93933	3337
3.94000	3336
3.94067	3335
3.94133	3335
3.94200	3334
3.94267	3333
3.94333	3333
3.94400	3332
3.94467	3331
3.94533	3331
3.94600	3330
3.94667	3329
3.94733	3329
3.94800	3328
3.94867	3327
3.94933	3327
3.95000	3326
3.95067	3325
3.95133	3324
3.95200	3324
3.95267	3323
3.95333	3322
3.95400	3321
3.95467	3321
3.95533	3320
3.95600	3319
3.95667	3318
3.95733	3318
3.95800	3317
3.95867	3316
3.95933	3316
3.96000	3315
3.96067	3314
3.96133	3314
3.96200	3313
3.96267	3313
3.96333	3312
3.96400	3311
3.96467	3311
3.96533	3310
3.96600	3310
3.96667	3309
3.96733	3309
3.96800	3308
3.96867	3308
3.96933	3307
3.97000	3307
3.97067	3306
3.97133	3305
3.97200	3305
3.97267	3304
3.97333	3304
3.97400	3303
3.97467	3303
3.97533	3302
3.97600	3302
3.97667	3302
3.97733	3301
3.97800	3301
3.97867	3301
3.97933	3300
3.98000	3300
3.98067	3299
3.98133	3299
3.98200	3299
3.98267	3298
3.98333	3298
3.98400	3298
3.98467	3298
3.98533	3297
3.98600	3297
3.98667	3297
3.98733	3297
3.98800	3297
3.98867	3296
3.98933	3296
3.99000	3296
3.99067	3296
3.99133	3297
3.99200	3297
3.99267	3297
3.99333	3297
3.99400	3297
3.99467	3297
3.99533	3297
3.99600	3298
3.99667	3298
3.99733	3298
3.99800	3298
3.99867	3299
3.99933	3299
4.00000	3300
4.00067	3300
4.00133	3301
4.00200	3302
4.00267	3302
4.00333	3303
4.00400	3304
4.00467	3304
4.00533	3305
4.00600	3306
4.00667	3307
4.00733	3308
4.00800	3309
4.00867	3310
4.00933	3311
4.01000	3313
4.01067	3314
4.01133	3315
4.01200	3316
4.01267	3318
4.01333	3319
4.01400	3321
4.01467	3323
4.01533	3324
4.01600	3326
4.01667	3328
4.01733	3330
4.01800	3332
4.01867	3334
4.01933	3336
4.02000	3339
4.02067	3341
4.02133	3343
4.02200	3346
4.02267	3348
4.02333	3351
4.02400	3353
4.02467	3356
4.02533	3359
4.02600	3362
4.02667	3365
4.02733	3368
4.02800	3371
4.02867	3374
4.02933	3377
4.03000	3380
4.03067	3383
4.03133	3387
4.03200	3390
4.03267	3393
4.03333	3397
4.03400	3400
4.03467	3404
4.03533	3407
4.03600	3411
4.03667	3414
4.03733	3418
4.03800	3422
4.03867	3426
4.03933	3430
4.04000	3434
4.04067	3438
4.04133	3442
4.04200	3446
4.04267	3450
4.04333	3455
4.04400	3459
4.04467	3463
4.04533	3468
4.04600	3472
4.04667	3477
4.04733	3481
4.04800	3486
4.04867	3491
4.04933	3495
4.05000	3500
4.05067	3505
4.05133	3509
4.05200	3514
4.05267	3519
4.05333	3524
4.05400	3528
4.05467	3533
4.05533	3538
4.05600	3543
4.05667	3548
4.05733	3553
4.05800	3558
4.05867	3563
4.05933	3567
4.06000	3572
4.06067	3577
4.06133	3582
4.06200	3587
4.06267	3592
4.06333	3596
4.06400	3601
4.06467	3606
4.06533	3611
4.06600	3615
4.06667	3620
4.06733	3624
4.06800	3629
4.06867	3633
4.06933	3638
4.07000	3642
4.07067	3646
4.07133	3650
4.07200	3655
4.07267	3659
4.07333	3663
4.07400	3667
4.07467	3671
4.07533	3675
4.07600	3679
4.07667	3682
4.07733	3686
4.07800	3690
4.07867	3693
4.07933	3697
4.08000	3700
4.08067	3703
4.08133	3707
4.08200	3710
4.08267	3713
4.08333	3716
4.08400	3719
4.08467	3722
4.08533	3725
4.08600	3728
4.08667	3731
4.08733	3733
4.08800	3736
4.08867	3739
4.08933	3741
4.09000	3744
4.09067	3747
4.09133	3749
4.09200	3751
4.09267	3754
4.09333	3756
4.09400	3758
4.09467	3760
4.09533	3762
4.09600	3764
4.09667	3766
4.09733	3768
4.09800	3770
4.09867	3772
4.09933	3774
4.10000	3775
4.10067	3777
4.10133	3779
4.10200	3780
4.10267	3782
4.10333	3783
4.10400	3784
4.10467	3786
4.10533	3787
4.10600	3788
4.10667	3790
4.10733	3791
4.10800	3792
4.10867	3793
4.10933	3794
4.11000	3795
4.11067	3796
4.11133	3797
4.11200	3797
4.11267	3798
4.11333	3799
4.11400	3800
4.11467	3801
4.11533	3801
4.11600	3802
4.11667	3803
4.11733	3803
4.11800	3804
4.11867	3804
4.11933	3805
4.12000	3805
4.12067	3806
4.12133	3806
4.12200	3807
4.12267	3807
4.12333	3807
4.12400	3808
4.12467	3808
4.12533	3808
4.12600	3808
4.12667	3808
4.12733	3809
4.12800	3809
4.12867	3809
4.12933	3809
4.13000	3809
4.13067	3809
4.13133	3809
4.13200	3809
4.13267	3809
4.13333	3809
4.13400	3809
4.13467	3809
4.13533	3809
4.13600	3809
4.13667	3809
4.13733	3809
4.13800	3809
4.13867	3809
4.13933	3809
4.14000	3809
4.14067	3809
4.14133	3809
4.14200	3808
4.14267	3808
4.14333	3808
4.14400	3808
4.14467	3808
4.14533	3808
4.14600	3808
4.14667	3809
4.14733	3809
4.14800	3809
4.14867	3809
4.14933	3809
4.15000	3809
4.15067	3809
4.15133	3809
4.15200	3809
4.15267	3809
4.15333	3809
4.15400	3809
4.15467	3810
4.15533	3810
4.15600	3810
4.15667	3810
4.15733	3811
4.15800	3811
4.15867	3811
4.15933	3811
4.16000	3812
4.16067	3812
4.16133	3813
4.16200	3813
4.16267	3813
4.16333	3814
4.16400	3814
4.16467	3815
4.16533	3815
4.16600	3816
4.16667	3816
4.16733	3816
4.16800	3817
4.16867	3817
4.16933	3818
4.17000	3819
4.17067	3819
4.17133	3820
4.17200	3820
4.17267	3821
4.17333	3821
4.17400	3822
4.17467	3823
4.17533	3823
4.17600	3824
4.17667	3824
4.17733	3825
4.17800	3826
4.17867	3826
4.17933	3827
4.18000	3828
4.18067	3829
4.18133	3830
4.18200	3831
4.18267	3831
4.18333	3832
4.18400	3833
4.18467	3835
4.18533	3836
4.18600	3837
4.18667	3838
4.18733	3839
4.18800	3840
4.18867	3842
4.18933	3843
4.19000	3845
4.19067	3846
4.19133	3848
4.19200	3850
4.19267	3852
4.19333	3854
4.19400	3856
4.19467	3858
4.19533	3860
4.19600	3863
4.19667	3865
4.19733	3868
4.19800	3870
4.19867	3873
4.19933	3876
4.20000	3879
4.20067	3882
4.20133	3885
4.20200	3889
4.20267	3892
4.20333	3895
4.20400	3899
4.20467	3903
4.20533	3907
4.20600	3911
4.20667	3915
4.20733	3920
4.20800	3925
4.20867	3929
4.20933	3934
4.21000	3939
4.21067	3945
4.21133	3950
4.21200	3956
4.21267	3962
4.21333	3968
4.21400	3974
4.21467	3981
4.21533	3988
4.21600	3994
4.21667	4002
4.21733	4009
4.21800	4017
4.21867	4025
4.21933	4033
4.22000	4041
4.22067	4050
4.22133	4058
4.22200	4067
4.22267	4077
4.22333	4086
4.22400	4096
4.22467	4106
4.22533	4117
4.22600	4127
4.22667	4138
4.22733	4149
4.22800	4161
4.22867	4173
4.22933	4185
4.23000	4197
4.23067	4210
4.23133	4223
4.23200	4236
4.23267	4250
4.23333	4264
4.23400	4278
4.23467	4293
4.23533	4308
4.23600	4324
4.23667	4340
4.23733	4356
4.23800	4372
4.23867	4389
4.23933	4406
4.24000	4424
4.24067	4442
4.24133	4460
4.24200	4479
4.24267	4498
4.24333	4517
4.24400	4537
4.24467	4557
4.24533	4577
4.24600	4598
4.24667	4619
4.24733	4640
4.24800	4662
4.24867	4684
4.24933	4707
4.25000	4730
4.25067	4753
4.25133	4777
4.25200	4801
4.25267	4825
4.25333	4850
4.25400	4875
4.25467	4900
4.25533	4926
4.25600	4952
4.25667	4979
4.25733	5006
4.25800	5033
4.25867	5061
4.25933	5089
4.26000	5117
4.26067	5146
4.26133	5175
4.26200	5204
4.26267	5233
4.26333	5263
4.26400	5293
4.26467	5324
4.26533	5355
4.26600	5386
4.26667	5417
4.26733	5449
4.26800	5480
4.26867	5512
4.26933	5545
4.27000	5577
4.27067	5610
4.27133	5643
4.27200	5676
4.27267	5710
4.27333	5743
4.27400	5777
4.27467	5812
4.27533	5846
4.27600	5881
4.27667	5915
4.27733	5950
4.27800	5985
4.27867	6021
4.27933	6056
4.28000	6092
4.28067	6128
4.28133	6164
4.28200	6200
4.28267	6236
4.28333	6273
4.28400	6309
4.28467	6346
4.28533	6383
4.28600	6420
4.28667	6456
4.28733	6493
4.28800	6530
4.28867	6567
4.28933	6604
4.29000	6640
4.29067	6677
4.29133	6713
4.29200	6750
4.29267	6786
4.29333	6822
4.29400	6858
4.29467	6894
4.29533	6930
4.29600	6965
4.29667	7001
4.29733	7036
4.29800	7071
4.29867	7106
4.29933	7141
4.30000	7176
4.30067	7210
4.30133	7245
4.30200	7279
4.30267	7313
4.30333	7346
4.30400	7379
4.30467	7412
4.30533	7445
4.30600	7478
4.30667	7510
4.30733	7541
4.30800	7573
4.30867	7604
4.30933	7635
4.31000	7665
4.31067	7695
4.31133	7724
4.31200	7753
4.31267	7782
4.31333	7810
4.31400	7838
4.31467	7865
4.31533	7892
4.31600	7918
4.31667	7944
4.31733	7969
4.31800	7993
4.31867	8017
4.31933	8041
4.32000	8064
4.32067	8087
4.32133	8108
4.32200	8130
4.32267	8151
4.32333	8171
4.32400	8190
4.32467	8209
4.32533	8228
4.32600	8246
4.32667	8263
4.32733	8279
4.32800	8295
4.32867	8311
4.32933	8326
4.33000	8340
4.33067	8354
4.33133	8367
4.33200	8379
4.33267	8391
4.33333	8402
4.33400	8412
4.33467	8422
4.33533	8431
4.33600	8440
4.33667	8448
4.33733	8455
4.33800	8462
4.33867	8468
4.33933	8473
4.34000	8478
4.34067	8482
4.34133	8486
4.34200	8489
4.34267	8491
4.34333	8493
4.34400	8494
4.34467	8495
4.34533	8495
4.34600	8494
4.34667	8494
4.34733	8492
4.34800	8491
4.34867	8488
4.34933	8486
4.35000	8483
4.35067	8480
4.35133	8477
4.35200	8473
4.35267	8469
4.35333	8465
4.35400	8461
4.35467	8457
4.35533	8453
4.35600	8448
4.35667	8444
4.35733	8440
4.35800	8436
4.35867	8431
4.35933	8427
4.36000	8423
4.36067	8420
4.36133	8416
4.36200	8413
4.36267	8410
4.36333	8407
4.36400	8405
4.36467	8403
4.36533	8402
4.36600	8401
4.36667	8400
4.36733	8400
4.36800	8401
4.36867	8402
4.36933	8404
4.37000	8406
4.37067	8409
4.37133	8413
4.37200	8418
4.37267	8423
4.37333	8429
4.37400	8436
4.37467	8444
4.37533	8452
4.37600	8462
4.37667	8472
4.37733	8484
4.37800	8496
4.37867	8509
4.37933	8524
4.38000	8539
4.38067	8556
4.38133	8574
4.38200	8593
4.38267	8613
4.38333	8634
4.38400	8657
4.38467	8681
4.38533	8707
4.38600	8733
4.38667	8761
4.38733	8791
4.38800	8822
4.38867	8854
4.38933	8888
4.39000	8923
4.39067	8959
4.39133	8997
4.39200	9037
4.39267	9078
4.39333	9120
4.39400	9164
4.39467	9209
4.39533	9256
4.39600	9304
4.39667	9353
4.39733	9404
4.39800	9457
4.39867	9511
4.39933	9566
4.40000	9623
4.40067	9681
4.40133	9740
4.40200	9801
4.40267	9863
4.40333	9927
4.40400	9992
4.40467	10058
4.40533	10125
4.40600	10193
4.40667	10263
4.40733	10334
4.40800	10406
4.40867	10479
4.40933	10553
4.41000	10628
4.41067	10704
4.41133	10781
4.41200	10859
4.41267	10938
4.41333	11019
4.41400	11100
4.41467	11181
4.41533	11264
4.41600	11347
4.41667	11432
4.41733	11516
4.41800	11602
4.41867	11687
4.41933	11774
4.42000	11860
4.42067	11947
4.42133	12034
4.42200	12121
4.42267	12208
4.42333	12295
4.42400	12382
4.42467	12469
4.42533	12556
4.42600	12642
4.42667	12727
4.42733	12813
4.42800	12897
4.42867	12981
4.42933	13064
4.43000	13147
4.43067	13228
4.43133	13309
4.43200	13389
4.43267	13467
4.43333	13545
4.43400	13621
4.43467	13697
4.43533	13771
4.43600	13843
4.43667	13914
4.43733	13984
4.43800	14052
4.43867	14118
4.43933	14183
4.44000	14246
4.44067	14308
4.44133	14367
4.44200	14425
4.44267	14481
4.44333	14535
4.44400	14588
4.44467	14638
4.44533	14686
4.44600	14733
4.44667	14777
4.44733	14819
4.44800	14858
4.44867	14896
4.44933	14931
4.45000	14964
4.45067	14994
4.45133	15022
4.45200	15048
4.45267	15071
4.45333	15092
4.45400	15110
4.45467	15126
4.45533	15139
4.45600	15150
4.45667	15158
4.45733	15164
4.45800	15168
4.45867	15169
4.45933	15167
4.46000	15163
4.46067	15157
4.46133	15148
4.46200	15136
4.46267	15123
4.46333	15107
4.46400	15088
4.46467	15068
4.46533	15044
4.46600	15019
4.46667	14991
4.46733	14962
4.46800	14929
4.46867	14895
4.46933	14859
4.47000	14820
4.47067	14779
4.47133	14736
4.47200	14692
4.47267	14645
4.47333	14596
4.47400	14545
4.47467	14492
4.47533	14437
4.47600	14381
4.47667	14323
4.47733	14263
4.47800	14201
4.47867	14138
4.47933	14073
4.48000	14007
4.48067	13939
4.48133	13869
4.48200	13799
4.48267	13727
4.48333	13654
4.48400	13580
4.48467	13504
4.48533	13427
4.48600	13350
4.48667	13271
4.48733	13191
4.48800	13111
4.48867	13029
4.48933	12947
4.49000	12864
4.49067	12780
4.49133	12695
4.49200	12610
4.49267	12524
4.49333	12438
4.49400	12352
4.49467	12265
4.49533	12177
4.49600	12090
4.49667	12002
4.49733	11914
4.49800	11826
4.49867	11737
4.49933	11649
4.50000	11561
4.50067	11472
4.50133	11384
4.50200	11296
4.50267	11208
4.50333	11121
4.50400	11033
4.50467	10946
4.50533	10859
4.50600	10773
4.50667	10687
4.50733	10602
4.50800	10517
4.50867	10432
4.50933	10348
4.51000	10265
4.51067	10183
4.51133	10101
4.51200	10019
4.51267	9939
4.51333	9860
4.51400	9781
4.51467	9703
4.51533	9626
4.51600	9550
4.51667	9475
4.51733	9401
4.51800	9328
4.51867	9256
4.51933	9185
4.52000	9115
4.52067	9046
4.52133	8979
4.52200	8912
4.52267	8847
4.52333	8783
4.52400	8720
4.52467	8658
4.52533	8597
4.52600	8538
4.52667	8480
4.52733	8423
4.52800	8367
4.52867	8313
4.52933	8260
4.53000	8209
4.53067	8158
4.53133	8109
4.53200	8062
4.53267	8015
4.53333	7970
4.53400	7927
4.53467	7884
4.53533	7844
4.53600	7804
4.53667	7766
4.53733	7730
4.53800	7694
4.53867	7660
4.53933	7628
4.54000	7597
4.54067	7567
4.54133	7539
4.54200	7512
4.54267	7486
4.54333	7462
4.54400	7439
4.54467	7418
4.54533	7398
4.54600	7380
4.54667	7362
4.54733	7346
4.54800	7332
4.54867	7319
4.54933	7307
4.55000	7296
4.55067	7287
4.55133	7280
4.55200	7273
4.55267	7268
4.55333	7264
4.55400	7261
4.55467	7260
4.55533	7260
4.55600	7261
4.55667	7263
4.55733	7267
4.55800	7272
4.55867	7277
4.55933	7284
4.56000	7293
4.56067	7302
4.56133	7312
4.56200	7324
4.56267	7336
4.56333	7350
4.56400	7364
4.56467	7380
4.56533	7396
4.56600	7414
4.56667	7432
4.56733	7451
4.56800	7471
4.56867	7492
4.56933	7513
4.57000	7536
4.57067	7559
4.57133	7583
4.57200	7608
4.57267	7633
4.57333	7659
4.57400	7686
4.57467	7713
4.57533	7741
4.57600	7769
4.57667	7798
4.57733	7828
4.57800	7858
4.57867	7888
4.57933	7919
4.58000	7950
4.58067	7982
4.58133	8014
4.58200	8046
4.58267	8078
4.58333	8111
4.58400	8144
4.58467	8177
4.58533	8210
4.58600	8243
4.58667	8276
4.58733	8309
4.58800	8342
4.58867	8376
4.58933	8409
4.59000	8441
4.59067	8474
4.59133	8507
4.59200	8539
4.59267	8572
4.59333	8603
4.59400	8635
4.59467	8667
4.59533	8698
4.59600	8729
4.59667	8759
4.59733	8789
4.59800	8819
4.59867	8848
4.59933	8877
4.60000	8905
4.60067	8933
4.60133	8961
4.60200	8988
4.60267	9014
4.60333	9040
4.60400	9066
4.60467	9091
4.60533	9116
4.60600	9140
4.60667	9163
4.60733	9186
4.60800	9209
4.60867	9231
4.60933	9253
4.61000	9274
4.61067	9294
4.61133	9314
4.61200	9333
4.61267	9352
4.61333	9370
4.61400	9388
4.61467	9405
4.61533	9421
4.61600	9437
4.61667	9452
4.61733	9466
4.61800	9480
4.61867	9493
4.61933	9506
4.62000	9517
4.62067	9528
4.62133	9539
4.62200	9548
4.62267	9557
4.62333	9566
4.62400	9573
4.62467	9580
4.62533	9586
4.62600	9592
4.62667	9597
4.62733	9602
4.62800	9605
4.62867	9609
4.62933	9611
4.63000	9613
4.63067	9614
4.63133	9615
4.63200	9616
4.63267	9615
4.63333	9614
4.63400	9613
4.63467	9611
4.63533	9609
4.63600	9606
4.63667	9603
4.63733	9599
4.63800	9595
4.63867	9590
4.63933	9585
4.64000	9579
4.64067	9573
4.64133	9567
4.64200	9560
4.64267	9553
4.64333	9545
4.64400	9537
4.64467	9528
4.64533	9520
4.64600	9510
4.64667	9501
4.64733	9490
4.64800	9480
4.64867	9469
4.64933	9458
4.65000	9446
4.65067	9434
4.65133	9422
4.65200	9409
4.65267	9396
4.65333	9383
4.65400	9370
4.65467	9356
4.65533	9342
4.65600	9328
4.65667	9314
4.65733	9299
4.65800	9284
4.65867	9269
4.65933	9254
4.66000	9239
4.66067	9223
4.66133	9208
4.66200	9192
4.66267	9176
4.66333	9160
4.66400	9143
4.66467	9127
4.66533	9111
4.66600	9094
4.66667	9077
4.66733	9061
4.66800	9044
4.66867	9027
4.66933	9009
4.67000	8992
4.67067	8975
4.67133	8957
4.67200	8940
4.67267	8922
4.67333	8904
4.67400	8887
4.67467	8869
4.67533	8851
4.67600	8833
4.67667	8816
4.67733	8798
4.67800	8780
4.67867	8763
4.67933	8745
4.68000	8727
4.68067	8710
4.68133	8692
4.68200	8674
4.68267	8657
4.68333	8639
4.68400	8622
4.68467	8604
4.68533	8587
4.68600	8569
4.68667	8552
4.68733	8534
4.68800	8517
4.68867	8500
4.68933	8483
4.69000	8466
4.69067	8449
4.69133	8432
4.69200	8415
4.69267	8398
4.69333	8381
4.69400	8365
4.69467	8348
4.69533	8332
4.69600	8316
4.69667	8299
4.69733	8283
4.69800	8268
4.69867	8252
4.69933	8236
4.70000	8220
4.70067	8205
4.70133	8190
4.70200	8174
4.70267	8159
4.70333	8144
4.70400	8129
4.70467	8114
4.70533	8099
4.70600	8084
4.70667	8070
4.70733	8055
4.70800	8041
4.70867	8027
4.70933	8013
4.71000	7999
4.71067	7985
4.71133	7971
4.71200	7957
4.71267	7944
4.71333	7931
4.71400	7917
4.71467	7904
4.71533	7891
4.71600	7878
4.71667	7865
4.71733	7853
4.71800	7840
4.71867	7828
4.71933	7815
4.72000	7803
4.72067	7791
4.72133	7779
4.72200	7767
4.72267	7755
4.72333	7743
4.72400	7732
4.72467	7720
4.72533	7708
4.72600	7697
4.72667	7686
4.72733	7675
4.72800	7663
4.72867	7652
4.72933	7641
4.73000	7630
4.73067	7620
4.73133	7609
4.73200	7598
4.73267	7588
4.73333	7578
4.73400	7567
4.73467	7557
4.73533	7547
4.73600	7538
4.73667	7528
4.73733	7518
4.73800	7508
4.73867	7499
4.73933	7490
4.74000	7480
4.74067	7471
4.74133	7462
4.74200	7453
4.74267	7443
4.74333	7434
4.74400	7425
4.74467	7416
4.74533	7408
4.74600	7399
4.74667	7390
4.74733	7381
4.74800	7373
4.74867	7364
4.74933	7356
4.75000	7348
4.75067	7339
4.75133	7331
4.75200	7323
4.75267	7315
4.75333	7307
4.75400	7299
4.75467	7291
4.75533	7284
4.75600	7276
4.75667	7268
4.75733	7261
4.75800	7253
4.75867	7245
4.75933	7238
4.76000	7230
4.76067	7223
4.76133	7215
4.76200	7208
4.76267	7201
4.76333	7194
4.76400	7186
4.76467	7179
4.76533	7172
4.76600	7165
4.76667	7158
4.76733	7151
4.76800	7144
4.76867	7137
4.76933	7130
4.77000	7123
4.77067	7116
4.77133	7109
4.77200	7102
4.77267	7095
4.77333	7088
4.77400	7082
4.77467	7075
4.77533	7068
4.77600	7062
4.77667	7055
4.77733	7049
4.77800	7042
4.77867	7036
4.77933	7030
4.78000	7023
4.78067	7017
4.78133	7011
4.78200	7005
4.78267	6999
4.78333	6993
4.78400	6987
4.78467	6981
4.78533	6975
4.78600	6969
4.78667	6963
4.78733	6957
4.78800	6951
4.78867	6945
4.78933	6939
4.79000	6933
4.79067	6927
4.79133	6921
4.79200	6915
4.79267	6910
4.79333	6904
4.79400	6898
4.79467	6892
4.79533	6886
4.79600	6880
4.79667	6874
4.79733	6868
4.79800	6862
4.79867	6857
4.79933	6851
4.80000	6845
4.80067	6839
4.80133	6833
4.80200	6827
4.80267	6822
4.80333	6816
4.80400	6810
4.80467	6804
4.80533	6799
4.80600	6793
4.80667	6787
4.80733	6782
4.80800	6776
4.80867	6770
4.80933	6765
4.81000	6759
4.81067	6754
4.81133	6748
4.81200	6742
4.81267	6737
4.81333	6731
4.81400	6726
4.81467	6721
4.81533	6715
4.81600	6710
4.81667	6705
4.81733	6699
4.81800	6694
4.81867	6689
4.81933	6684
4.82000	6679
4.82067	6674
4.82133	6669
4.82200	6664
4.82267	6660
4.82333	6655
4.82400	6650
4.82467	6645
4.82533	6641
4.82600	6636
4.82667	6631
4.82733	6626
4.82800	6622
4.82867	6617
4.82933	6612
4.83000	6607
4.83067	6603
4.83133	6598
4.83200	6593
4.83267	6589
4.83333	6584
4.83400	6580
4.83467	6575
4.83533	6571
4.83600	6566
4.83667	6562
4.83733	6557
4.83800	6553
4.83867	6549
4.83933	6544
4.84000	6540
4.84067	6536
4.84133	6531
4.84200	6527
4.84267	6523
4.84333	6519
4.84400	6515
4.84467	6510
4.84533	6506
4.84600	6502
4.84667	6498
4.84733	6494
4.84800	6490
4.84867	6485
4.84933	6481
4.85000	6477
4.85067	6473
4.85133	6469
4.85200	6464
4.85267	6460
4.85333	6456
4.85400	6452
4.85467	6448
4.85533	6444
4.85600	6439
4.85667	6435
4.85733	6431
4.85800	6427
4.85867	6423
4.85933	6419
4.86000	6415
4.86067	6410
4.86133	6406
4.86200	6402
4.86267	6398
4.86333	6394
4.86400	6390
4.86467	6386
4.86533	6382
4.86600	6378
4.86667	6374
4.86733	6370
4.86800	6366
4.86867	6362
4.86933	6358
4.87000	6354
4.87067	6350
4.87133	6346
4.87200	6342
4.87267	6338
4.87333	6334
4.87400	6330
4.87467	6325
4.87533	6321
4.87600	6317
4.87667	6313
4.87733	6309
4.87800	6305
4.87867	6301
4.87933	6297
4.88000	6293
4.88067	6289
4.88133	6285
4.88200	6281
4.88267	6277
4.88333	6272
4.88400	6268
4.88467	6264
4.88533	6260
4.88600	6256
4.88667	6252
4.88733	6248
4.88800	6244
4.88867	6239
4.88933	6235
4.89000	6231
4.89067	6227
4.89133	6223
4.89200	6219
4.89267	6215
4.89333	6211
4.89400	6207
4.89467	6203
4.89533	6199
4.89600	6195
4.89667	6191
4.89733	6187
4.89800	6183
4.89867	6179
4.89933	6175
4.90000	6171
4.90067	6168
4.90133	6164
4.90200	6160
4.90267	6156
4.90333	6153
4.90400	6149
4.90467	6146
4.90533	6142
4.90600	6139
4.90667	6135
4.90733	6132
4.90800	6128
4.90867	6125
4.90933	6122
4.91000	6118
4.91067	6115
4.91133	6112
4.91200	6108
4.91267	6105
4.91333	6102
4.91400	6098
4.91467	6095
4.91533	6092
4.91600	6088
4.91667	6085
4.91733	6082
4.91800	6079
4.91867	6075
4.91933	6072
4.92000	6069
4.92067	6066
4.92133	6063
4.92200	6060
4.92267	6057
4.92333	6054
4.92400	6051
4.92467	6048
4.92533	6045
4.92600	6042
4.92667	6039
4.92733	6036
4.92800	6034
4.92867	6031
4.92933	6028
4.93000	6025
4.93067	6023
4.93133	6020
4.93200	6017
4.93267	6015
4.93333	6012
4.93400	6009
4.93467	6007
4.93533	6004
4.93600	6002
4.93667	5999
4.93733	5996
4.93800	5994
4.93867	5991
4.93933	5988
4.94000	5986
4.94067	5983
4.94133	5980
4.94200	5977
4.94267	5975
4.94333	5972
4.94400	5969
4.94467	5966
4.94533	5964
4.94600	5961
4.94667	5958
4.94733	5955
4.94800	5952
4.94867	5950
4.94933	5947
4.95000	5944
4.95067	5941
4.95133	5938
4.95200	5935
4.95267	5932
4.95333	5929
4.95400	5927
4.95467	5924
4.95533	5921
4.95600	5918
4.95667	5915
4.95733	5912
4.95800	5909
4.95867	5906
4.95933	5903
4.96000	5901
4.96067	5898
4.96133	5895
4.96200	5892
4.96267	5890
4.96333	5887
4.96400	5884
4.96467	5881
4.96533	5878
4.96600	5876
4.96667	5873
4.96733	5870
4.96800	5867
4.96867	5864
4.96933	5862
4.97000	5859
4.97067	5856
4.97133	5853
4.97200	5851
4.97267	5848
4.97333	5845
4.97400	5843
4.97467	5840
4.97533	5837
4.97600	5835
4.97667	5832
4.97733	5829
4.97800	5827
4.97867	5824
4.97933	5822
4.98000	5819
4.98067	5816
4.98133	5814
4.98200	5811
4.98267	5809
4.98333	5806
4.98400	5804
4.98467	5801
4.98533	5798
4.98600	5796
4.98667	5793
4.98733	5791
4.98800	5788
4.98867	5786
4.98933	5783
4.99000	5780
4.99067	5778
4.99133	5775
4.99200	5773
4.99267	5770
4.99333	5768
4.99400	5765
4.99467	5763
4.99533	5760
4.99600	5758
4.99667	5755
4.99733	5753
4.99800	5750
4.99867	5748
4.99933	5745
5.00000	5743
5.00067	5740
5.00133	5738
5.00200	5735
5.00267	5733
5.00333	5730
5.00400	5728
5.00467	5725
5.00533	5722
5.00600	5720
5.00667	5717
5.00733	5715
5.00800	5712
5.00867	5710
5.00933	5707
5.01000	5704
5.01067	5702
5.01133	5699
5.01200	5697
5.01267	5694
5.01333	5692
5.01400	5690
5.01467	5687
5.01533	5685
5.01600	5682
5.01667	5680
5.01733	5677
5.01800	5675
5.01867	5673
5.01933	5670
5.02000	5668
5.02067	5665
5.02133	5663
5.02200	5661
5.02267	5658
5.02333	5656
5.02400	5653
5.02467	5651
5.02533	5649
5.02600	5646
5.02667	5644
5.02733	5642
5.02800	5639
5.02867	5637
5.02933	5634
5.03000	5632
5.03067	5630
5.03133	5627
5.03200	5625
5.03267	5622
5.03333	5620
5.03400	5617
5.03467	5615
5.03533	5613
5.03600	5610
5.03667	5608
5.03733	5605
5.03800	5603
5.03867	5601
5.03933	5598
5.04000	5596
5.04067	5593
5.04133	5591
5.04200	5589
5.04267	5586
5.04333	5584
5.04400	5582
5.04467	5579
5.04533	5577
5.04600	5575
5.04667	5572
5.04733	5570
5.04800	5568
5.04867	5565
5.04933	5563
5.05000	5561
5.05067	5558
5.05133	5556
5.05200	5554
5.05267	5552
5.05333	5550
5.05400	5548
5.05467	5546
5.05533	5543
5.05600	5541
5.05667	5539
5.05733	5537
5.05800	5535
5.05867	5533
5.05933	5531
5.06000	5529
5.06067	5527
5.06133	5525
5.06200	5523
5.06267	5520
5.06333	5518
5.06400	5516
5.06467	5514
5.06533	5513
5.06600	5511
5.06667	5509
5.06733	5507
5.06800	5505
5.06867	5503
5.06933	5501
5.07000	5499
5.07067	5498
5.07133	5496
5.07200	5494
5.07267	5492
5.07333	5491
5.07400	5489
5.07467	5487
5.07533	5486
5.07600	5484
5.07667	5482
5.07733	5481
5.07800	5479
5.07867	5477
5.07933	5476
5.08000	5474
5.08067	5472
5.08133	5471
5.08200	5469
5.08267	5468
5.08333	5466
5.08400	5465
5.08467	5463
5.08533	5462
5.08600	5461
5.08667	5460
5.08733	5458
5.08800	5457
5.08867	5456
5.08933	5455
5.09000	5454
5.09067	5453
5.09133	5452
5.09200	5451
5.09267	5450
5.09333	5449
5.09400	5448
5.09467	5448
5.09533	5447
5.09600	5446
5.09667	5446
5.09733	5445
5.09800	5445
5.09867	5444
5.09933	5444
5.10000	5444
5.10067	5443
5.10133	5443
5.10200	5443
5.10267	5443
5.10333	5443
5.10400	5443
5.10467	5443
5.10533	5444
5.10600	5444
5.10667	5444
5.10733	5445
5.10800	5445
5.10867	5446
5.10933	5446
5.11000	5447
5.11067	5448
5.11133	5449
5.11200	5450
5.11267	5451
5.11333	5452
5.11400	5453
5.11467	5455
5.11533	5456
5.11600	5458
5.11667	5460
5.11733	5462
5.11800	5464
5.11867	5466
5.11933	5468
5.12000	5471
5.12067	5473
5.12133	5476
5.12200	5479
5.12267	5482
5.12333	5485
5.12400	5488
5.12467	5492
5.12533	5496
5.12600	5500
5.12667	5504
5.12733	5508
5.12800	5512
5.12867	5517
5.12933	5522
5.13000	5527
5.13067	5532
5.13133	5538
5.13200	5543
5.13267	5549
5.13333	5556
5.13400	5562
5.13467	5569
5.13533	5576
5.13600	5583
5.13667	5591
5.13733	5598
5.13800	5607
5.13867	5615
5.13933	5623
5.14000	5632
5.14067	5642
5.14133	5651
5.14200	5661
5.14267	5671
5.14333	5681
5.14400	5692
5.14467	5703
5.14533	5715
5.14600	5727
5.14667	5739
5.14733	5751
5.14800	5764
5.14867	5777
5.14933	5791
5.15000	5805
5.15067	5819
5.15133	5834
5.15200	5848
5.15267	5864
5.15333	5880
5.15400	5896
5.15467	5912
5.15533	5929
5.15600	5946
5.15667	5964
5.15733	5982
5.15800	6001
5.15867	6020
5.15933	6039
5.16000	6059
5.16067	6079
5.16133	6100
5.16200	6121
5.16267	6142
5.16333	6164
5.16400	6186
5.16467	6208
5.16533	6231
5.16600	6254
5.16667	6278
5.16733	6301
5.16800	6326
5.16867	6350
5.16933	6375
5.17000	6401
5.17067	6426
5.17133	6453
5.17200	6479
5.17267	6506
5.17333	6533
5.17400	6561
5.17467	6589
5.17533	6617
5.17600	6646
5.17667	6675
5.17733	6704
5.17800	6734
5.17867	6763
5.17933	6794
5.18000	6824
5.18067	6855
5.18133	6886
5.18200	6917
5.18267	6948
5.18333	6980
5.18400	7012
5.18467	7044
5.18533	7076
5.18600	7109
5.18667	7142
5.18733	7174
5.18800	7207
5.18867	7240
5.18933	7273
5.19000	7307
5.19067	7340
5.19133	7374
5.19200	7407
5.19267	7441
5.19333	7474
5.19400	7508
5.19467	7541
5.19533	7575
5.19600	7608
5.19667	7641
5.19733	7675
5.19800	7708
5.19867	7741
5.19933	7774
5.20000	7806
5.20067	7839
5.20133	7871
5.20200	7904
5.20267	7936
5.20333	7968
5.20400	8000
5.20467	8031
5.20533	8062
5.20600	8093
5.20667	8124
5.20733	8155
5.20800	8185
5.20867	8215
5.20933	8244
5.21000	8274
5.21067	8303
5.21133	8331
5.21200	8360
5.21267	8387
5.21333	8415
5.21400	8442
5.21467	8469
5.21533	8495
5.21600	8521
5.21667	8546
5.21733	8571
5.21800	8595
5.21867	8619
5.21933	8643
5.22000	8665
5.22067	8687
5.22133	8709
5.22200	8730
5.22267	8750
5.22333	8770
5.22400	8789
5.22467	8807
5.22533	8825
5.22600	8842
5.22667	8858
5.22733	8873
5.22800	8888
5.22867	8902
5.22933	8916
5.23000	8929
5.23067	8941
5.23133	8952
5.23200	8963
5.23267	8973
5.23333	8983
5.23400	8991
5.23467	9000
5.23533	9007
5.23600	9014
5.23667	9020
5.23733	9025
5.23800	9030
5.23867	9034
5.23933	9038
5.24000	9040
5.24067	9043
5.24133	9044
5.24200	9045
5.24267	9045
5.24333	9045
5.24400	9044
5.24467	9042
5.24533	9040
5.24600	9037
5.24667	9034
5.24733	9030
5.24800	9025
5.24867	9020
5.24933	9014
5.25000	9008
5.25067	9001
5.25133	8994
5.25200	8986
5.25267	8977
5.25333	8968
5.25400	8959
5.25467	8949
5.25533	8939
5.25600	8928
5.25667	8917
5.25733	8905
5.25800	8893
5.25867	8880
5.25933	8867
5.26000	8853
5.26067	8839
5.26133	8825
5.26200	8810
5.26267	8795
5.26333	8780
5.26400	8764
5.26467	8748
5.26533	8731
5.26600	8714
5.26667	8697
5.26733	8679
5.26800	8662
5.26867	8644
5.26933	8625
5.27000	8607
5.27067	8588
5.27133	8569
5.27200	8549
5.27267	8530
5.27333	8510
5.27400	8490
5.27467	8470
5.27533	8450
5.27600	8430
5.27667	8409
5.27733	8388
5.27800	8368
5.27867	8347
5.27933	8326
5.28000	8305
5.28067	8284
5.28133	8263
5.28200	8242
5.28267	8221
5.28333	8200
5.28400	8179
5.28467	8157
5.28533	8136
5.28600	8115
5.28667	8094
5.28733	8072
5.28800	8051
5.28867	8030
5.28933	8009
5.29000	7987
5.29067	7966
5.29133	7945
5.29200	7924
5.29267	7903
5.29333	7882
5.29400	7861
5.29467	7840
5.29533	7819
5.29600	7798
5.29667	7778
5.29733	7757
5.29800	7737
5.29867	7716
5.29933	7696
5.30000	7676
5.30067	7656
5.30133	7636
5.30200	7616
5.30267	7596
5.30333	7576
5.30400	7557
5.30467	7537
5.30533	7518
5.30600	7498
5.30667	7479
5.30733	7460
5.30800	7441
5.30867	7422
5.30933	7403
5.31000	7384
5.31067	7366
5.31133	7347
5.31200	7329
5.31267	7311
5.31333	7292
5.31400	7274
5.31467	7256
5.31533	7239
5.31600	7221
5.31667	7204
5.31733	7186
5.31800	7169
5.31867	7152
5.31933	7135
5.32000	7119
5.32067	7102
5.32133	7086
5.32200	7070
5.32267	7054
5.32333	7038
5.32400	7022
5.32467	7006
5.32533	6991
5.32600	6976
5.32667	6961
5.32733	6946
5.32800	6931
5.32867	6916
5.32933	6902
5.33000	6888
5.33067	6873
5.33133	6859
5.33200	6846
5.33267	6832
5.33333	6819
5.33400	6805
5.33467	6792
5.33533	6779
5.33600	6766
5.33667	6753
5.33733	6741
5.33800	6729
5.33867	6716
5.33933	6704
5.34000	6692
5.34067	6681
5.34133	6669
5.34200	6657
5.34267	6646
5.34333	6635
5.34400	6623
5.34467	6612
5.34533	6601
5.34600	6591
5.34667	6580
5.34733	6569
5.34800	6559
5.34867	6548
5.34933	6538
5.35000	6528
5.35067	6517
5.35133	6507
5.35200	6497
5.35267	6487
5.35333	6477
5.35400	6467
5.35467	6458
5.35533	6448
5.35600	6438
5.35667	6429
5.35733	6419
5.35800	6410
5.35867	6401
5.35933	6391
5.36000	6382
5.36067	6373
5.36133	6364
5.36200	6355
5.36267	6347
5.36333	6338
5.36400	6329
5.36467	6321
5.36533	6312
5.36600	6304
5.36667	6296
5.36733	6287
5.36800	6279
5.36867	6271
5.36933	6263
5.37000	6255
5.37067	6247
5.37133	6240
5.37200	6232
5.37267	6224
5.37333	6217
5.37400	6209
5.37467	6202
5.37533	6195
5.37600	6187
5.37667	6180
5.37733	6173
5.37800	6166
5.37867	6159
5.37933	6152
5.38000	6146
5.38067	6139
5.38133	6132
5.38200	6126
5.38267	6119
5.38333	6113
5.38400	6107
5.38467	6100
5.38533	6094
5.38600	6088
5.38667	6082
5.38733	6076
5.38800	6069
5.38867	6063
5.38933	6058
5.39000	6052
5.39067	6046
5.39133	6040
5.39200	6034
5.39267	6029
5.39333	6023
5.39400	6017
5.39467	6012
5.39533	6006
5.39600	6000
5.39667	5995
5.39733	5989
5.39800	5984
5.39867	5978
5.39933	5973
5.40000	5968
5.40067	5962
5.40133	5957
5.40200	5951
5.40267	5946
5.40333	5941
5.40400	5936
5.40467	5931
5.40533	5925
5.40600	5920
5.40667	5915
5.40733	5910
5.40800	5905
5.40867	5900
5.40933	5895
5.41000	5890
5.41067	5885
5.41133	5880
5.41200	5875
5.41267	5870
5.41333	5865
5.41400	5861
5.41467	5856
5.41533	5851
5.41600	5846
5.41667	5842
5.41733	5837
5.41800	5833
5.41867	5828
5.41933	5824
5.42000	5819
5.42067	5815
5.42133	5810
5.42200	5806
5.42267	5801
5.42333	5797
5.42400	5792
5.42467	5788
5.42533	5783
5.42600	5779
5.42667	5774
5.42733	5770
5.42800	5766
5.42867	5761
5.42933	5757
5.43000	5753
5.43067	5748
5.43133	5744
5.43200	5740
5.43267	5735
5.43333	5731
5.43400	5727
5.43467	5722
5.43533	5718
5.43600	5714
5.43667	5709
5.43733	5705
5.43800	5700
5.43867	5696
5.43933	5692
5.44000	5687
5.44067	5683
5.44133	5679
5.44200	5674
5.44267	5670
5.44333	5666
5.44400	5662
5.44467	5657
5.44533	5653
5.44600	5649
5.44667	5645
5.44733	5640
5.44800	5636
5.44867	5632
5.44933	5628
5.45000	5624
5.45067	5619
5.45133	5615
5.45200	5611
5.45267	5607
5.45333	5602
5.45400	5598
5.45467	5594
5.45533	5590
5.45600	5586
5.45667	5582
5.45733	5578
5.45800	5574
5.45867	5570
5.45933	5566
5.46000	5562
5.46067	5558
5.46133	5554
5.46200	5550
5.46267	5546
5.46333	5542
5.46400	5538
5.46467	5534
5.46533	5530
5.46600	5526
5.46667	5523
5.46733	5519
5.46800	5515
5.46867	5512
5.46933	5508
5.47000	5504
5.47067	5501
5.47133	5497
5.47200	5494
5.47267	5490
5.47333	5486
5.47400	5483
5.47467	5479
5.47533	5476
5.47600	5472
5.47667	5469
5.47733	5465
5.47800	5462
5.47867	5459
5.47933	5455
5.48000	5452
5.48067	5448
5.48133	5445
5.48200	5442
5.48267	5438
5.48333	5435
5.48400	5432
5.48467	5429
5.48533	5426
5.48600	5422
5.48667	5419
5.48733	5416
5.48800	5413
5.48867	5410
5.48933	5407
5.49000	5404
5.49067	5401
5.49133	5398
5.49200	5395
5.49267	5392
5.49333	5389
5.49400	5387
5.49467	5384
5.49533	5381
5.49600	5378
5.49667	5375
5.49733	5372
5.49800	5370
5.49867	5367
5.49933	5364
5.50000	5361
5.50067	5358
5.50133	5356
5.50200	5353
5.50267	5350
5.50333	5347
5.50400	5345
5.50467	5342
5.50533	5339
5.50600	5336
5.50667	5334
5.50733	5331
5.50800	5328
5.50867	5326
5.50933	5323
5.51000	5321
5.51067	5318
5.51133	5315
5.51200	5313
5.51267	5310
5.51333	5308
5.51400	5305
5.51467	5302
5.51533	5300
5.51600	5297
5.51667	5295
5.51733	5292
5.51800	5290
5.51867	5287
5.51933	5285
5.52000	5282
5.52067	5280
5.52133	5278
5.52200	5275
5.52267	5273
5.52333	5271
5.52400	5268
5.52467	5266
5.52533	5264
5.52600	5261
5.52667	5259
5.52733	5257
5.52800	5255
5.52867	5252
5.52933	5250
5.53000	5248
5.53067	5246
5.53133	5244
5.53200	5241
5.53267	5239
5.53333	5237
5.53400	5235
5.53467	5234
5.53533	5232
5.53600	5230
5.53667	5228
5.53733	5226
5.53800	5224
5.53867	5222
5.53933	5220
5.54000	5219
5.54067	5217
5.54133	5215
5.54200	5213
5.54267	5211
5.54333	5209
5.54400	5207
5.54467	5205
5.54533	5204
5.54600	5202
5.54667	5200
5.54733	5198
5.54800	5196
5.54867	5195
5.54933	5193
5.55000	5191
5.55067	5190
5.55133	5188
5.55200	5186
5.55267	5184
5.55333	5183
5.55400	5181
5.55467	5179
5.55533	5178
5.55600	5176
5.55667	5174
5.55733	5173
5.55800	5171
5.55867	5170
5.55933	5168
5.56000	5167
5.56067	5165
5.56133	5164
5.56200	5162
5.56267	5160
5.56333	5159
5.56400	5158
5.56467	5156
5.56533	5155
5.56600	5153
5.56667	5152
5.56733	5150
5.56800	5149
5.56867	5148
5.56933	5146
5.57000	5145
5.57067	5144
5.57133	5143
5.57200	5141
5.57267	5140
5.57333	5139
5.57400	5138
5.57467	5136
5.57533	5135
5.57600	5134
5.57667	5133
5.57733	5131
5.57800	5130
5.57867	5129
5.57933	5128
5.58000	5126
5.58067	5125
5.58133	5124
5.58200	5123
5.58267	5121
5.58333	5120
5.58400	5119
5.58467	5118
5.58533	5116
5.58600	5115
5.58667	5114
5.58733	5113
5.58800	5111
5.58867	5110
5.58933	5109
5.59000	5108
5.59067	5107
5.59133	5106
5.59200	5104
5.59267	5103
5.59333	5102
5.59400	5101
5.59467	5100
5.59533	5099
5.59600	5098
5.59667	5097
5.59733	5095
5.59800	5094
5.59867	5093
5.59933	5092
5.60000	5091
5.60067	5090
5.60133	5089
5.60200	5088
5.60267	5087
5.60333	5086
5.60400	5086
5.60467	5085
5.60533	5084
5.60600	5083
5.60667	5082
5.60733	5081
5.60800	5080
5.60867	5080
5.60933	5079
5.61000	5078
5.61067	5077
5.61133	5076
5.61200	5075
5.61267	5074
5.61333	5073
5.61400	5072
5.61467	5071
5.61533	5071
5.61600	5070
5.61667	5069
5.61733	5068
5.61800	5067
5.61867	5066
5.61933	5065
5.62000	5064
5.62067	5063
5.62133	5062
5.62200	5061
5.62267	5060
5.62333	5059
5.62400	5058
5.62467	5057
5.62533	5056
5.62600	5055
5.62667	5054
5.62733	5053
5.62800	5052
5.62867	5051
5.62933	5050
5.63000	5049
5.63067	5047
5.63133	5046
5.63200	5045
5.63267	5044
5.63333	5043
5.63400	5041
5.63467	5040
5.63533	5039
5.63600	5038
5.63667	5036
5.63733	5035
5.63800	5034
5.63867	5032
5.63933	5031
5.64000	5030
5.64067	5028
5.64133	5027
5.64200	5026
5.64267	5024
5.64333	5023
5.64400	5022
5.64467	5020
5.64533	5019
5.64600	5017
5.64667	5016
5.64733	5015
5.64800	5013
5.64867	5012
5.64933	5011
5.65000	5009
5.65067	5008
5.65133	5007
5.65200	5006
5.65267	5004
5.65333	5003
5.65400	5002
5.65467	5001
5.65533	4999
5.65600	4998
5.65667	4997
5.65733	4996
5.65800	4995
5.65867	4993
5.65933	4992
5.66000	4991
5.66067	4990
5.66133	4989
5.66200	4987
5.66267	4986
5.66333	4985
5.66400	4984
5.66467	4983
5.66533	4981
5.66600	4980
5.66667	4979
5.66733	4978
5.66800	4977
5.66867	4975
5.66933	4974
5.67000	4973
5.67067	4972
5.67133	4971
5.67200	4970
5.67267	4968
5.67333	4967
5.67400	4966
5.67467	4965
5.67533	4964
5.67600	4962
5.67667	4961
5.67733	4960
5.67800	4959
5.67867	4958
5.67933	4956
5.68000	4955
5.68067	4954
5.68133	4953
5.68200	4952
5.68267	4951
5.68333	4949
5.68400	4948
5.68467	4947
5.68533	4946
5.68600	4945
5.68667	4943
5.68733	4942
5.68800	4941
5.68867	4940
5.68933	4939
5.69000	4938
5.69067	4937
5.69133	4936
5.69200	4934
5.69267	4933
5.69333	4932
5.69400	4931
5.69467	4930
5.69533	4929
5.69600	4928
5.69667	4927
5.69733	4926
5.69800	4925
5.69867	4924
5.69933	4923
5.70000	4922
5.70067	4921
5.70133	4920
5.70200	4919
5.70267	4918
5.70333	4917
5.70400	4916
5.70467	4915
5.70533	4914
5.70600	4913
5.70667	4912
5.70733	4911
5.70800	4910
5.70867	4909
5.70933	4908
5.71000	4908
5.71067	4907
5.71133	4906
5.71200	4905
5.71267	4904
5.71333	4904
5.71400	4903
5.71467	4902
5.71533	4901
5.71600	4901
5.71667	4900
5.71733	4900
5.71800	4899
5.71867	4899
5.71933	4898
5.72000	4897
5.72067	4897
5.72133	4896
5.72200	4895
5.72267	4895
5.72333	4894
5.72400	4893
5.72467	4893
5.72533	4892
5.72600	4891
5.72667	4891
5.72733	4890
5.72800	4890
5.72867	4889
5.72933	4888
5.73000	4888
5.73067	4887
5.73133	4886
5.73200	4885
5.73267	4885
5.73333	4884
5.73400	4883
5.73467	4883
5.73533	4882
5.73600	4881
5.73667	4880
5.73733	4880
5.73800	4879
5.73867	4878
5.73933	4878
5.74000	4877
5.74067	4877
5.74133	4876
5.74200	4875
5.74267	4875
5.74333	4874
5.74400	4874
5.74467	4873
5.74533	4872
5.74600	4872
5.74667	4871
5.74733	4871
5.74800	4870
5.74867	4870
5.74933	4869
5.75000	4869
5.75067	4868
5.75133	4868
5.75200	4867
5.75267	4867
5.75333	4866
5.75400	4866
5.75467	4865
5.75533	4865
5.75600	4865
5.75667	4864
5.75733	4864
5.75800	4863
5.75867	4863
5.75933	4863
5.76000	4862
5.76067	4862
5.76133	4861
5.76200	4861
5.76267	4861
5.76333	4860
5.76400	4860
5.76467	4860
5.76533	4860
5.76600	4859
5.76667	4859
5.76733	4859
5.76800	4858
5.76867	4858
5.76933	4858
5.77000	4858
5.77067	4857
5.77133	4857
5.77200	4857
5.77267	4857
5.77333	4857
5.77400	4856
5.77467	4856
5.77533	4856
5.77600	4856
5.77667	4856
5.77733	4856
5.77800	4856
5.77867	4855
5.77933	4855
5.78000	4855
5.78067	4855
5.78133	4855
5.78200	4855
5.78267	4855
5.78333	4855
5.78400	4855
5.78467	4855
5.78533	4855
5.78600	4855
5.78667	4855
5.78733	4856
5.78800	4856
5.78867	4856
5.78933	4856
5.79000	4856
5.79067	4857
5.79133	4857
5.79200	4857
5.79267	4857
5.79333	4858
5.79400	4858
5.79467	4858
5.79533	4858
5.79600	4859
5.79667	4859
5.79733	4859
5.79800	4860
5.79867	4860
5.79933	4860
5.80000	4860
5.80067	4861
5.80133	4861
5.80200	4861
5.80267	4862
5.80333	4862
5.80400	4862
5.80467	4863
5.80533	4863
5.80600	4863
5.80667	4864
5.80733	4864
5.80800	4865
5.80867	4865
5.80933	4866
5.81000	4866
5.81067	4867
5.81133	4867
5.81200	4868
5.81267	4869
5.81333	4869
5.81400	4870
5.81467	4871
5.81533	4872
5.81600	4872
5.81667	4873
5.81733	4874
5.81800	4874
5.81867	4875
5.81933	4876
5.82000	4876
5.82067	4877
5.82133	4878
5.82200	4878
5.82267	4879
5.82333	4880
5.82400	4880
5.82467	4881
5.82533	4882
5.82600	4882
5.82667	4883
5.82733	4883
5.82800	4884
5.82867	4884
5.82933	4885
5.83000	4885
5.83067	4886
5.83133	4886
5.83200	4887
5.83267	4887
5.83333	4888
5.83400	4888
5.83467	4888
5.83533	4889
5.83600	4889
5.83667	4889
5.83733	4890
5.83800	4890
5.83867	4890
5.83933	4891
5.84000	4891
5.84067	4891
5.84133	4891
5.84200	4892
5.84267	4892
5.84333	4892
5.84400	4892
5.84467	4893
5.84533	4893
5.84600	4893
5.84667	4893
5.84733	4893
5.84800	4894
5.84867	4894
5.84933	4894
5.85000	4894
5.85067	4894
5.85133	4894
5.85200	4894
5.85267	4894
5.85333	4895
5.85400	4895
5.85467	4895
5.85533	4895
5.85600	4895
5.85667	4895
5.85733	4895
5.85800	4895
5.85867	4895
5.85933	4895
5.86000	4894
5.86067	4894
5.86133	4894
5.86200	4894
5.86267	4894
5.86333	4893
5.86400	4893
5.86467	4893
5.86533	4892
5.86600	4892
5.86667	4891
5.86733	4891
5.86800	4890
5.86867	4890
5.86933	4889
5.87000	4889
5.87067	4888
5.87133	4888
5.87200	4887
5.87267	4887
5.87333	4886
5.87400	4886
5.87467	4885
5.87533	4884
5.87600	4884
5.87667	4883
5.87733	4883
5.87800	4882
5.87867	4881
5.87933	4881
5.88000	4880
5.88067	4879
5.88133	4879
5.88200	4878
5.88267	4877
5.88333	4877
5.88400	4876
5.88467	4875
5.88533	4875
5.88600	4874
5.88667	4873
5.88733	4872
5.88800	4872
5.88867	4871
5.88933	4870
5.89000	4869
5.89067	4869
5.89133	4868
5.89200	4867
5.89267	4866
5.89333	4866
5.89400	4865
5.89467	4864
5.89533	4863
5.89600	4863
5.89667	4862
5.89733	4861
5.89800	4860
5.89867	4860
5.89933	4859
5.90000	4858
5.90067	4858
5.90133	4857
5.90200	4856
5.90267	4855
5.90333	4855
5.90400	4854
5.90467	4853
5.90533	4853
5.90600	4852
5.90667	4851
5.90733	4850
5.90800	4849
5.90867	4849
5.90933	4848
5.91000	4847
5.91067	4846
5.91133	4845
5.91200	4844
5.91267	4843
5.91333	4842
5.91400	4842
5.91467	4841
5.91533	4840
5.91600	4839
5.91667	4838
5.91733	4837
5.91800	4836
5.91867	4835
5.91933	4834
5.92000	4834
5.92067	4833
5.92133	4832
5.92200	4831
5.92267	4830
5.92333	4830
5.92400	4829
5.92467	4828
5.92533	4827
5.92600	4827
5.92667	4826
5.92733	4825
5.92800	4824
5.92867	4824
5.92933	4823
5.93000	4822
5.93067	4822
5.93133	4821
5.93200	4821
5.93267	4820
5.93333	4820
5.93400	4819
5.93467	4819
5.93533	4818
5.93600	4818
5.93667	4817
5.93733	4817
5.93800	4817
5.93867	4817
5.93933	4816
5.94000	4816
5.94067	4816
5.94133	4816
5.94200	4815
5.94267	4815
5.94333	4815
5.94400	4815
5.94467	4815
5.94533	4815
5.94600	4815
5.94667	4815
5.94733	4815
5.94800	4814
5.94867	4814
5.94933	4814
5.95000	4814
5.95067	4814
5.95133	4814
5.95200	4814
5.95267	4814
5.95333	4814
5.95400	4814
5.95467	4814
5.95533	4814
5.95600	4814
5.95667	4814
5.95733	4814
5.95800	4813
5.95867	4813
5.95933	4813
5.96000	4813
5.96067	4813
5.96133	4813
5.96200	4813
5.96267	4813
5.96333	4813
5.96400	4813
5.96467	4813
5.96533	4812
5.96600	4812
5.96667	4812
5.96733	4812
5.96800	4812
5.96867	4812
5.96933	4812
5.97000	4812
5.97067	4812
5.97133	4812
5.97200	4812
5.97267	4812
5.97333	4812
5.97400	4811
5.97467	4811
5.97533	4811
5.97600	4811
5.97667	4811
5.97733	4811
5.97800	4811
5.97867	4811
5.97933	4811
5.98000	4811
5.98067	4811
5.98133	4811
5.98200	4811
5.98267	4811
5.98333	4811
5.98400	4810
5.98467	4810
5.98533	4810
5.98600	4810
5.98667	4811
5.98733	4811
5.98800	4811
5.98867	4811
5.98933	4811
5.99000	4810
5.99067	4810
5.99133	4810
5.99200	4810
5.99267	4810
5.99333	4810
5.99400	4810
5.99467	4810
5.99533	4810
5.99600	4810
5.99667	4809
5.99733	4809
5.99800	4809
5.99867	4809
5.99933	4808
6.00000	4808
6.00067	4808
6.00133	4807
6.00200	4807
6.00267	4807
6.00333	4807
6.00400	4806
6.00467	4806
6.00533	4806
6.00600	4805
6.00667	4805
6.00733	4805
6.00800	4804
6.00867	4804
6.00933	4803
6.01000	4803
6.01067	4803
6.01133	4802
6.01200	4802
6.01267	4802
6.01333	4802
6.01400	4801
6.01467	4801
6.01533	4801
6.01600	4800
6.01667	4800
6.01733	4800
6.01800	4799
6.01867	4799
6.01933	4799
6.02000	4798
6.02067	4798
6.02133	4797
6.02200	4797
6.02267	4797
6.02333	4796
6.02400	4796
6.02467	4795
6.02533	4795
6.02600	4795
6.02667	4794
6.02733	4794
6.02800	4794
6.02867	4793
6.02933	4793
6.03000	4792
6.03067	4792
6.03133	4791
6.03200	4791
6.03267	4791
6.03333	4790
6.03400	4790
6.03467	4789
6.03533	4789
6.03600	4788
6.03667	4788
6.03733	4787
6.03800	4786
6.03867	4786
6.03933	4785
6.04000	4785
6.04067	4784
6.04133	4783
6.04200	4783
6.04267	4782
6.04333	4782
6.04400	4781
6.04467	4780
6.04533	4780
6.04600	4779
6.04667	4778
6.04733	4778
6.04800	4777
6.04867	4777
6.04933	4776
6.05000	4775
6.05067	4775
6.05133	4774
6.05200	4773
6.05267	4773
6.05333	4772
6.05400	4771
6.05467	4771
6.05533	4770
6.05600	4769
6.05667	4769
6.05733	4768
6.05800	4767
6.05867	4767
6.05933	4766
6.06000	4765
6.06067	4765
6.06133	4764
6.06200	4763
6.06267	4763
6.06333	4762
6.06400	4761
6.06467	4760
6.06533	4760
6.06600	4759
6.06667	4758
6.06733	4758
6.06800	4757
6.06867	4756
6.06933	4756
6.07000	4755
6.07067	4754
6.07133	4754
6.07200	4753
6.07267	4752
6.07333	4752
6.07400	4751
6.07467	4750
6.07533	4749
6.07600	4748
6.07667	4748
6.07733	4747
6.07800	4746
6.07867	4745
6.07933	4744
6.08000	4743
6.08067	4743
6.08133	4742
6.08200	4741
6.08267	4740
6.08333	4739
6.08400	4739
6.08467	4738
6.08533	4737
6.08600	4737
6.08667	4736
6.08733	4735
6.08800	4735
6.08867	4734
6.08933	4733
6.09000	4733
6.09067	4732
6.09133	4731
6.09200	4731
6.09267	4730
6.09333	4729
6.09400	4729
6.09467	4728
6.09533	4727
6.09600	4727
6.09667	4726
6.09733	4725
6.09800	4725
6.09867	4724
6.09933	4724
6.10000	4723
6.10067	4722
6.10133	4722
6.10200	4721
6.10267	4720
6.10333	4720
6.10400	4719
6.10467	4719
6.10533	4718
6.10600	4717
6.10667	4717
6.10733	4716
6.10800	4715
6.10867	4715
6.10933	4714
6.11000	4713
6.11067	4712
6.11133	4712
6.11200	4711
6.11267	4711
6.11333	4710
6.11400	4709
6.11467	4709
6.11533	4708
6.11600	4708
6.11667	4707
6.11733	4707
6.11800	4706
6.11867	4705
6.11933	4705
6.12000	4704
6.12067	4704
6.12133	4703
6.12200	4703
6.12267	4702
6.12333	4702
6.12400	4701
6.12467	4700
6.12533	4700
6.12600	4699
6.12667	4699
6.12733	4698
6.12800	4698
6.12867	4697
6.12933	4697
6.13000	4696
6.13067	4696
6.13133	4695
6.13200	4695
6.13267	4694
6.13333	4693
6.13400	4693
6.13467	4692
6.13533	4692
6.13600	4691
6.13667	4691
6.13733	4690
6.13800	4690
6.13867	4689
6.13933	4689
6.14000	4688
6.14067	4688
6.14133	4687
6.14200	4686
6.14267	4686
6.14333	4685
6.14400	4685
6.14467	4684
6.14533	4684
6.14600	4683
6.14667	4683
6.14733	4683
6.14800	4682
6.14867	4682
6.14933	4681
6.15000	4681
6.15067	4681
6.15133	4680
6.15200	4680
6.15267	4680
6.15333	4679
6.15400	4679
6.15467	4679
6.15533	4679
6.15600	4678
6.15667	4678
6.15733	4678
6.15800	4677
6.15867	4677
6.15933	4677
6.16000	4677
6.16067	4676
6.16133	4676
6.16200	4676
6.16267	4675
6.16333	4675
6.16400	4675
6.16467	4675
6.16533	4674
6.16600	4674
6.16667	4674
6.16733	4674
6.16800	4673
6.16867	4673
6.16933	4673
6.17000	4673
6.17067	4672
6.17133	4672
6.17200	4672
6.17267	4672
6.17333	4672
6.17400	4672
6.17467	4672
6.17533	4672
6.17600	4672
6.17667	4672
6.17733	4672
6.17800	4672
6.17867	4672
6.17933	4672
6.18000	4672
6.18067	4672
6.18133	4672
6.18200	4672
6.18267	4672
6.18333	4672
6.18400	4672
6.18467	4672
6.18533	4672
6.18600	4672
6.18667	4672
6.18733	4672
6.18800	4672
6.18867	4672
6.18933	4672
6.19000	4672
6.19067	4672
6.19133	4672
6.19200	4672
6.19267	4672
6.19333	4672
6.19400	4672
6.19467	4672
6.19533	4672
6.19600	4672
6.19667	4672
6.19733	4672
6.19800	4673
6.19867	4673
6.19933	4673
6.20000	4673
6.20067	4673
6.20133	4673
6.20200	4674
6.20267	4674
6.20333	4674
6.20400	4675
6.20467	4675
6.20533	4675
6.20600	4676
6.20667	4676
6.20733	4677
6.20800	4677
6.20867	4678
6.20933	4678
6.21000	4679
6.21067	4680
6.21133	4680
6.21200	4681
6.21267	4682
6.21333	4682
6.21400	4683
6.21467	4684
6.21533	4684
6.21600	4685
6.21667	4686
6.21733	4687
6.21800	4688
6.21867	4688
6.21933	4689
6.22000	4690
6.22067	4690
6.22133	4691
6.22200	4692
6.22267	4693
6.22333	4694
6.22400	4695
6.22467	4695
6.22533	4696
6.22600	4697
6.22667	4698
6.22733	4699
6.22800	4700
6.22867	4700
6.22933	4701
6.23000	4702
6.23067	4703
6.23133	4704
6.23200	4704
6.23267	4705
6.23333	4706
6.23400	4707
6.23467	4707
6.23533	4708
6.23600	4709
6.23667	4710
6.23733	4710
6.23800	4711
6.23867	4712
6.23933	4713
6.24000	4713
6.24067	4714
6.24133	4715
6.24200	4715
6.24267	4716
6.24333	4717
6.24400	4717
6.24467	4718
6.24533	4718
6.24600	4719
6.24667	4720
6.24733	4720
6.24800	4721
6.24867	4721
6.24933	4722
6.25000	4722
6.25067	4723
6.25133	4724
6.25200	4724
6.25267	4725
6.25333	4726
6.25400	4726
6.25467	4727
6.25533	4727
6.25600	4728
6.25667	4728
6.25733	4729
6.25800	4729
6.25867	4730
6.25933	4730
6.26000	4731
6.26067	4732
6.26133	4732
6.26200	4733
6.26267	4733
6.26333	4734
6.26400	4734
6.26467	4735
6.26533	4735
6.26600	4736
6.26667	4736
6.26733	4737
6.26800	4737
6.26867	4738
6.26933	4738
6.27000	4738
6.27067	4739
6.27133	4739
6.27200	4740
6.27267	4740
6.27333	4741
6.27400	4741
6.27467	4742
6.27533	4742
6.27600	4743
6.27667	4743
6.27733	4743
6.27800	4744
6.27867	4744
6.27933	4744
6.28000	4745
6.28067	4745
6.28133	4745
6.28200	4745
6.28267	4745
6.28333	4745
6.28400	4745
6.28467	4746
6.28533	4746
6.28600	4745
6.28667	4745
6.28733	4745
6.28800	4745
6.28867	4745
6.28933	4745
6.29000	4745
6.29067	4744
6.29133	4744
6.29200	4744
6.29267	4744
6.29333	4744
6.29400	4744
6.29467	4743
6.29533	4743
6.29600	4743
6.29667	4743
6.29733	4742
6.29800	4742
6.29867	4742
6.29933	4742
6.30000	4741
6.30067	4741
6.30133	4741
6.30200	4741
6.30267	4740
6.30333	4740
6.30400	4740
6.30467	4739
6.30533	4739
6.30600	4739
6.30667	4738
6.30733	4738
6.30800	4738
6.30867	4737
6.30933	4737
6.31000	4736
6.31067	4736
6.31133	4735
6.31200	4735
6.31267	4734
6.31333	4734
6.31400	4733
6.31467	4732
6.31533	4732
6.31600	4731
6.31667	4731
6.31733	4730
6.31800	4729
6.31867	4729
6.31933	4728
6.32000	4727
6.32067	4726
6.32133	4726
6.32200	4725
6.32267	4724
6.32333	4723
6.32400	4723
6.32467	4722
6.32533	4721
6.32600	4720
6.32667	4719
6.32733	4719
6.32800	4718
6.32867	4717
6.32933	4716
6.33000	4715
6.33067	4714
6.33133	4714
6.33200	4713
6.33267	4712
6.33333	4711
6.33400	4710
6.33467	4709
6.33533	4708
6.33600	4708
6.33667	4707
6.33733	4706
6.33800	4705
6.33867	4704
6.33933	4703
6.34000	4703
6.34067	4702
6.34133	4701
6.34200	4700
6.34267	4699
6.34333	4699
6.34400	4698
6.34467	4697
6.34533	4696
6.34600	4695
6.34667	4694
6.34733	4693
6.34800	4692
6.34867	4691
6.34933	4691
6.35000	4690
6.35067	4689
6.35133	4688
6.35200	4688
6.35267	4687
6.35333	4686
6.35400	4686
6.35467	4685
6.35533	4684
6.35600	4684
6.35667	4683
6.35733	4682
6.35800	4682
6.35867	4681
6.35933	4680
6.36000	4680
6.36067	4679
6.36133	4678
6.36200	4678
6.36267	4677
6.36333	4676
6.36400	4676
6.36467	4675
6.36533	4674
6.36600	4674
6.36667	4673
6.36733	4673
6.36800	4672
6.36867	4672
6.36933	4671
6.37000	4671
6.37067	4670
6.37133	4670
6.37200	4669
6.37267	4669
6.37333	4668
6.37400	4668
6.37467	4667
6.37533	4667
6.37600	4667
6.37667	4666
6.37733	4666
6.37800	4666
6.37867	4665
6.37933	4665
6.38000	4664
6.38067	4664
6.38133	4664
6.38200	4663
6.38267	4663
6.38333	4663
6.38400	4662
6.38467	4662
6.38533	4661
6.38600	4661
6.38667	4660
6.38733	4660
6.38800	4659
6.38867	4659
6.38933	4659
6.39000	4658
6.39067	4658
6.39133	4657
6.39200	4657
6.39267	4656
6.39333	4656
6.39400	4655
6.39467	4655
6.39533	4655
6.39600	4654
6.39667	4654
6.39733	4653
6.39800	4653
6.39867	4653
6.39933	4652

