[Header]
Application Name	LabSolutions
Version	5.73
Data File Name	C:\LabSolutions\Data\Project1\stephen\2016-01-06\104.gcd
Output Date	1/11/2016
Output Time	1:20:01 PM

[Configuration]
Instrument Name	WEISSTA-PC-Instrument1
Instrument #	1
Line #	1
# of Detectors	1
Detector ID	DET#2
Detector Name	DFID1
# of Channels	1

[Chromatogram (Ch1)]
Interval(msec)	40
# of Points	9600
Start Time(min)	0.000
End Time(min)	6.399
R.Time (min)	Intensity
0.00000	11
0.00067	11
0.00133	11
0.00200	11
0.00267	11
0.00333	11
0.00400	11
0.00467	11
0.00533	11
0.00600	11
0.00667	11
0.00733	11
0.00800	11
0.00867	11
0.00933	11
0.01000	10
0.01067	10
0.01133	9
0.01200	8
0.01267	7
0.01333	6
0.01400	4
0.01467	2
0.01533	1
0.01600	-2
0.01667	-4
0.01733	-6
0.01800	-9
0.01867	-12
0.01933	-15
0.02000	-18
0.02067	-22
0.02133	-25
0.02200	-29
0.02267	-33
0.02333	-37
0.02400	-40
0.02467	-44
0.02533	-48
0.02600	-52
0.02667	-56
0.02733	-60
0.02800	-64
0.02867	-67
0.02933	-71
0.03000	-75
0.03067	-78
0.03133	-81
0.03200	-84
0.03267	-87
0.03333	-90
0.03400	-93
0.03467	-96
0.03533	-98
0.03600	-100
0.03667	-102
0.03733	-104
0.03800	-106
0.03867	-108
0.03933	-110
0.04000	-112
0.04067	-113
0.04133	-115
0.04200	-116
0.04267	-117
0.04333	-118
0.04400	-120
0.04467	-121
0.04533	-122
0.04600	-123
0.04667	-123
0.04733	-124
0.04800	-125
0.04867	-126
0.04933	-127
0.05000	-127
0.05067	-128
0.05133	-129
0.05200	-129
0.05267	-130
0.05333	-130
0.05400	-131
0.05467	-131
0.05533	-132
0.05600	-132
0.05667	-132
0.05733	-133
0.05800	-133
0.05867	-133
0.05933	-133
0.06000	-134
0.06067	-134
0.06133	-134
0.06200	-134
0.06267	-134
0.06333	-135
0.06400	-135
0.06467	-135
0.06533	-135
0.06600	-135
0.06667	-136
0.06733	-136
0.06800	-136
0.06867	-136
0.06933	-136
0.07000	-136
0.07067	-137
0.07133	-137
0.07200	-137
0.07267	-137
0.07333	-137
0.07400	-137
0.07467	-138
0.07533	-138
0.07600	-138
0.07667	-138
0.07733	-138
0.07800	-138
0.07867	-139
0.07933	-139
0.08000	-139
0.08067	-139
0.08133	-139
0.08200	-140
0.08267	-140
0.08333	-140
0.08400	-140
0.08467	-140
0.08533	-140
0.08600	-141
0.08667	-141
0.08733	-141
0.08800	-140
0.08867	-138
0.08933	-134
0.09000	-127
0.09067	-112
0.09133	-86
0.09200	-48
0.09267	-5
0.09333	50
0.09400	116
0.09467	192
0.09533	293
0.09600	414
0.09667	561
0.09733	754
0.09800	970
0.09867	1190
0.09933	1413
0.10000	1634
0.10067	1869
0.10133	2128
0.10200	2381
0.10267	2623
0.10333	2860
0.10400	3108
0.10467	3355
0.10533	3607
0.10600	3852
0.10667	4101
0.10733	4336
0.10800	4567
0.10867	4800
0.10933	5048
0.11000	5319
0.11067	5597
0.11133	5853
0.11200	6086
0.11267	6300
0.11333	6511
0.11400	6752
0.11467	7005
0.11533	7262
0.11600	7535
0.11667	7825
0.11733	8092
0.11800	8330
0.11867	8541
0.11933	8728
0.12000	8892
0.12067	9034
0.12133	9157
0.12200	9267
0.12267	9364
0.12333	9442
0.12400	9505
0.12467	9552
0.12533	9584
0.12600	9601
0.12667	9605
0.12733	9600
0.12800	9585
0.12867	9567
0.12933	9543
0.13000	9508
0.13067	9466
0.13133	9428
0.13200	9456
0.13267	9806
0.13333	11263
0.13400	15724
0.13467	27098
0.13533	52314
0.13600	103036
0.13667	196375
0.13733	355842
0.13800	607596
0.13867	978936
0.13933	1494411
0.14000	2176558
0.14067	3043573
0.14133	4111012
0.14200	5390413
0.14267	6890234
0.14333	8615016
0.14400	10567123
0.14467	12746866
0.14533	15153698
0.14600	17785628
0.14667	20640681
0.14733	23716543
0.14800	27010822
0.14867	30519798
0.14933	34236030
0.15000	38146773
0.15067	42234718
0.15133	46478800
0.15200	50855970
0.15267	55342238
0.15333	59913108
0.15400	64544142
0.15467	69211348
0.15533	73890366
0.15600	78557777
0.15667	83189996
0.15733	87764403
0.15800	92258845
0.15867	96653437
0.15933	100930728
0.16000	105076256
0.16067	109078268
0.16133	112927751
0.16200	116617775
0.16267	120143527
0.16333	123501387
0.16400	126689038
0.16467	129705063
0.16533	132549030
0.16600	135221315
0.16667	137722886
0.16733	140055450
0.16800	142221155
0.16867	144222831
0.16933	146063523
0.17000	147746552
0.17067	149275593
0.17133	150654836
0.17200	151888528
0.17267	152981181
0.17333	153937208
0.17400	154761140
0.17467	155457506
0.17533	156030915
0.17600	156485837
0.17667	156826734
0.17733	157058056
0.17800	157184326
0.17867	157209986
0.17933	157139277
0.18000	156976247
0.18067	156724764
0.18133	156388619
0.18200	155971584
0.18267	155477393
0.18333	154909777
0.18400	154272429
0.18467	153568956
0.18533	152803020
0.18600	151978175
0.18667	151097954
0.18733	150165691
0.18800	149184480
0.18867	148157113
0.18933	147086307
0.19000	145974649
0.19067	144824583
0.19133	143638297
0.19200	142417901
0.19267	141165330
0.19333	139882597
0.19400	138571737
0.19467	137234705
0.19533	135873424
0.19600	134489754
0.19667	133085566
0.19733	131662740
0.19800	130223180
0.19867	128768733
0.19933	127301213
0.20000	125822586
0.20067	124335195
0.20133	122841412
0.20200	121343146
0.20267	119841631
0.20333	118337667
0.20400	116831807
0.20467	115324642
0.20533	113816818
0.20600	112309041
0.20667	110802015
0.20733	109296512
0.20800	107793335
0.20867	106293342
0.20933	104797385
0.21000	103306307
0.21067	101820936
0.21133	100342071
0.21200	98870509
0.21267	97407035
0.21333	95952425
0.21400	94507374
0.21467	93072526
0.21533	91648493
0.21600	90235876
0.21667	88835233
0.21733	87447121
0.21800	86072070
0.21867	84710575
0.21933	83363069
0.22000	82029963
0.22067	80711617
0.22133	79408352
0.22200	78120445
0.22267	76848125
0.22333	75591587
0.22400	74351018
0.22467	73126566
0.22533	71918342
0.22600	70726427
0.22667	69550897
0.22733	68391809
0.22800	67249179
0.22867	66123003
0.22933	65013259
0.23000	63919928
0.23067	62842974
0.23133	61782369
0.23200	60738040
0.23267	59709899
0.23333	58697856
0.23400	57701817
0.23467	56721658
0.23533	55757256
0.23600	54808480
0.23667	53875195
0.23733	52957254
0.23800	52054500
0.23867	51166772
0.23933	50293908
0.24000	49435755
0.24067	48592152
0.24133	47762934
0.24200	46947934
0.24267	46146982
0.24333	45359906
0.24400	44586529
0.24467	43826671
0.24533	43080155
0.24600	42346796
0.24667	41626410
0.24733	40918817
0.24800	40223845
0.24867	39541324
0.24933	38871091
0.25000	38212981
0.25067	37566840
0.25133	36932499
0.25200	36309780
0.25267	35698506
0.25333	35098500
0.25400	34509587
0.25467	33931599
0.25533	33364370
0.25600	32807734
0.25667	32261527
0.25733	31725583
0.25800	31199743
0.25867	30683837
0.25933	30177692
0.26000	29681134
0.26067	29193999
0.26133	28716123
0.26200	28247344
0.26267	27787494
0.26333	27336405
0.26400	26893906
0.26467	26459828
0.26533	26034009
0.26600	25616286
0.26667	25206484
0.26733	24804428
0.26800	24409934
0.26867	24022818
0.26933	23642903
0.27000	23270014
0.27067	22903983
0.27133	22544633
0.27200	22191784
0.27267	21845254
0.27333	21504869
0.27400	21170465
0.27467	20841880
0.27533	20518950
0.27600	20201518
0.27667	19889420
0.27733	19582498
0.27800	19280592
0.27867	18983555
0.27933	18691239
0.28000	18403505
0.28067	18120214
0.28133	17841230
0.28200	17566410
0.28267	17295624
0.28333	17028748
0.28400	16765668
0.28467	16506276
0.28533	16250466
0.28600	15998135
0.28667	15749190
0.28733	15503548
0.28800	15261127
0.28867	15021845
0.28933	14785618
0.29000	14552369
0.29067	14322027
0.29133	14094528
0.29200	13869811
0.29267	13647823
0.29333	13428514
0.29400	13211847
0.29467	12997772
0.29533	12786247
0.29600	12577234
0.29667	12370697
0.29733	12166600
0.29800	11964914
0.29867	11765610
0.29933	11568664
0.30000	11374054
0.30067	11181759
0.30133	10991761
0.30200	10804043
0.30267	10618587
0.30333	10435377
0.30400	10254399
0.30467	10075643
0.30533	9899097
0.30600	9724750
0.30667	9552595
0.30733	9382625
0.30800	9214836
0.30867	9049218
0.30933	8885765
0.31000	8724471
0.31067	8565327
0.31133	8408322
0.31200	8253442
0.31267	8100671
0.31333	7949997
0.31400	7801404
0.31467	7654875
0.31533	7510393
0.31600	7367940
0.31667	7227498
0.31733	7089049
0.31800	6952574
0.31867	6818051
0.31933	6685462
0.32000	6554785
0.32067	6426004
0.32133	6299102
0.32200	6174063
0.32267	6050872
0.32333	5929513
0.32400	5809971
0.32467	5692232
0.32533	5576284
0.32600	5462113
0.32667	5349708
0.32733	5239059
0.32800	5130154
0.32867	5022983
0.32933	4917537
0.33000	4813806
0.33067	4711782
0.33133	4611454
0.33200	4512814
0.33267	4415854
0.33333	4320564
0.33400	4226937
0.33467	4134964
0.33533	4044635
0.33600	3955941
0.33667	3868873
0.33733	3783422
0.33800	3699579
0.33867	3617333
0.33933	3536676
0.34000	3457598
0.34067	3380090
0.34133	3304141
0.34200	3229743
0.34267	3156886
0.34333	3085564
0.34400	3015768
0.34467	2947492
0.34533	2880729
0.34600	2815474
0.34667	2751719
0.34733	2689458
0.34800	2628682
0.34867	2569381
0.34933	2511544
0.35000	2455157
0.35067	2400204
0.35133	2346667
0.35200	2294527
0.35267	2243764
0.35333	2194356
0.35400	2146278
0.35467	2099507
0.35533	2054017
0.35600	2009784
0.35667	1966781
0.35733	1924984
0.35800	1884369
0.35867	1844912
0.35933	1806594
0.36000	1769395
0.36067	1733301
0.36133	1698301
0.36200	1664385
0.36267	1631546
0.36333	1599779
0.36400	1569076
0.36467	1539430
0.36533	1510832
0.36600	1483271
0.36667	1456733
0.36733	1431202
0.36800	1406659
0.36867	1383085
0.36933	1360457
0.37000	1338751
0.37067	1317940
0.37133	1297993
0.37200	1278878
0.37267	1260563
0.37333	1243014
0.37400	1226196
0.37467	1210075
0.37533	1194619
0.37600	1179795
0.37667	1165570
0.37733	1151915
0.37800	1138800
0.37867	1126195
0.37933	1114073
0.38000	1102408
0.38067	1091175
0.38133	1080351
0.38200	1069911
0.38267	1059835
0.38333	1050099
0.38400	1040682
0.38467	1031562
0.38533	1022716
0.38600	1014121
0.38667	1005756
0.38733	997598
0.38800	989625
0.38867	981816
0.38933	974151
0.39000	966609
0.39067	959170
0.39133	951815
0.39200	944521
0.39267	937269
0.39333	930038
0.39400	922806
0.39467	915552
0.39533	908255
0.39600	900895
0.39667	893454
0.39733	885914
0.39800	878255
0.39867	870465
0.39933	862527
0.40000	854430
0.40067	846163
0.40133	837720
0.40200	829094
0.40267	820285
0.40333	811292
0.40400	802119
0.40467	792770
0.40533	783254
0.40600	773578
0.40667	763754
0.40733	753793
0.40800	743708
0.40867	733511
0.40933	723216
0.41000	712838
0.41067	702389
0.41133	691884
0.41200	681337
0.41267	670760
0.41333	660166
0.41400	649569
0.41467	638980
0.41533	628410
0.41600	617871
0.41667	607372
0.41733	596924
0.41800	586535
0.41867	576215
0.41933	565970
0.42000	555809
0.42067	545738
0.42133	535763
0.42200	525891
0.42267	516126
0.42333	506474
0.42400	496938
0.42467	487523
0.42533	478232
0.42600	469068
0.42667	460034
0.42733	451132
0.42800	442364
0.42867	433732
0.42933	425237
0.43000	416880
0.43067	408662
0.43133	400585
0.43200	392647
0.43267	384850
0.43333	377193
0.43400	369677
0.43467	362300
0.43533	355062
0.43600	347963
0.43667	341001
0.43733	334176
0.43800	327487
0.43867	320932
0.43933	314511
0.44000	308222
0.44067	302064
0.44133	296036
0.44200	290136
0.44267	284363
0.44333	278715
0.44400	273190
0.44467	267786
0.44533	262502
0.44600	257336
0.44667	252286
0.44733	247350
0.44800	242526
0.44867	237813
0.44933	233208
0.45000	228711
0.45067	224320
0.45133	220033
0.45200	215849
0.45267	211766
0.45333	207783
0.45400	203897
0.45467	200108
0.45533	196414
0.45600	192813
0.45667	189303
0.45733	185883
0.45800	182551
0.45867	179305
0.45933	176145
0.46000	173069
0.46067	170076
0.46133	167164
0.46200	164332
0.46267	161579
0.46333	158905
0.46400	156308
0.46467	153788
0.46533	151344
0.46600	148976
0.46667	146685
0.46733	144469
0.46800	142329
0.46867	140264
0.46933	138274
0.47000	136357
0.47067	134512
0.47133	132736
0.47200	131025
0.47267	129379
0.47333	127794
0.47400	126269
0.47467	124801
0.47533	123387
0.47600	122027
0.47667	120716
0.47733	119454
0.47800	118237
0.47867	117064
0.47933	115932
0.48000	114841
0.48067	113787
0.48133	112770
0.48200	111787
0.48267	110837
0.48333	109918
0.48400	109029
0.48467	108169
0.48533	107335
0.48600	106528
0.48667	105744
0.48733	104984
0.48800	104246
0.48867	103529
0.48933	102832
0.49000	102154
0.49067	101493
0.49133	100850
0.49200	100222
0.49267	99609
0.49333	99011
0.49400	98425
0.49467	97853
0.49533	97292
0.49600	96741
0.49667	96201
0.49733	95671
0.49800	95150
0.49867	94637
0.49933	94132
0.50000	93634
0.50067	93144
0.50133	92659
0.50200	92181
0.50267	91708
0.50333	91240
0.50400	90778
0.50467	90320
0.50533	89866
0.50600	89416
0.50667	88970
0.50733	88528
0.50800	88088
0.50867	87652
0.50933	87219
0.51000	86788
0.51067	86359
0.51133	85933
0.51200	85509
0.51267	85087
0.51333	84667
0.51400	84248
0.51467	83831
0.51533	83415
0.51600	83001
0.51667	82588
0.51733	82177
0.51800	81766
0.51867	81356
0.51933	80948
0.52000	80540
0.52067	80134
0.52133	79728
0.52200	79324
0.52267	78920
0.52333	78517
0.52400	78115
0.52467	77714
0.52533	77313
0.52600	76913
0.52667	76515
0.52733	76117
0.52800	75719
0.52867	75323
0.52933	74927
0.53000	74532
0.53067	74138
0.53133	73745
0.53200	73353
0.53267	72962
0.53333	72572
0.53400	72182
0.53467	71794
0.53533	71407
0.53600	71021
0.53667	70636
0.53733	70253
0.53800	69870
0.53867	69489
0.53933	69110
0.54000	68732
0.54067	68356
0.54133	67981
0.54200	67608
0.54267	67237
0.54333	66868
0.54400	66502
0.54467	66137
0.54533	65776
0.54600	65417
0.54667	65061
0.54733	64709
0.54800	64360
0.54867	64014
0.54933	63672
0.55000	63335
0.55067	63001
0.55133	62671
0.55200	62346
0.55267	62026
0.55333	61710
0.55400	61398
0.55467	61091
0.55533	60789
0.55600	60490
0.55667	60195
0.55733	59904
0.55800	59617
0.55867	59332
0.55933	59050
0.56000	58771
0.56067	58493
0.56133	58218
0.56200	57944
0.56267	57671
0.56333	57399
0.56400	57128
0.56467	56857
0.56533	56587
0.56600	56317
0.56667	56048
0.56733	55778
0.56800	55508
0.56867	55238
0.56933	54968
0.57000	54697
0.57067	54427
0.57133	54156
0.57200	53885
0.57267	53614
0.57333	53343
0.57400	53072
0.57467	52801
0.57533	52530
0.57600	52259
0.57667	51988
0.57733	51718
0.57800	51448
0.57867	51179
0.57933	50909
0.58000	50640
0.58067	50372
0.58133	50104
0.58200	49836
0.58267	49569
0.58333	49303
0.58400	49037
0.58467	48771
0.58533	48507
0.58600	48243
0.58667	47980
0.58733	47718
0.58800	47456
0.58867	47196
0.58933	46936
0.59000	46678
0.59067	46421
0.59133	46165
0.59200	45910
0.59267	45656
0.59333	45403
0.59400	45152
0.59467	44901
0.59533	44653
0.59600	44405
0.59667	44159
0.59733	43915
0.59800	43671
0.59867	43430
0.59933	43190
0.60000	42951
0.60067	42714
0.60133	42478
0.60200	42244
0.60267	42011
0.60333	41780
0.60400	41551
0.60467	41323
0.60533	41097
0.60600	40872
0.60667	40649
0.60733	40428
0.60800	40208
0.60867	39990
0.60933	39774
0.61000	39560
0.61067	39347
0.61133	39135
0.61200	38926
0.61267	38718
0.61333	38512
0.61400	38307
0.61467	38105
0.61533	37904
0.61600	37704
0.61667	37507
0.61733	37311
0.61800	37116
0.61867	36924
0.61933	36732
0.62000	36543
0.62067	36355
0.62133	36169
0.62200	35984
0.62267	35801
0.62333	35619
0.62400	35439
0.62467	35260
0.62533	35082
0.62600	34906
0.62667	34732
0.62733	34559
0.62800	34387
0.62867	34216
0.62933	34047
0.63000	33879
0.63067	33713
0.63133	33547
0.63200	33383
0.63267	33221
0.63333	33060
0.63400	32900
0.63467	32741
0.63533	32584
0.63600	32428
0.63667	32273
0.63733	32120
0.63800	31967
0.63867	31817
0.63933	31667
0.64000	31519
0.64067	31372
0.64133	31226
0.64200	31082
0.64267	30939
0.64333	30797
0.64400	30656
0.64467	30516
0.64533	30378
0.64600	30241
0.64667	30105
0.64733	29970
0.64800	29836
0.64867	29703
0.64933	29572
0.65000	29441
0.65067	29311
0.65133	29182
0.65200	29055
0.65267	28928
0.65333	28802
0.65400	28677
0.65467	28553
0.65533	28429
0.65600	28307
0.65667	28185
0.65733	28064
0.65800	27944
0.65867	27825
0.65933	27707
0.66000	27589
0.66067	27473
0.66133	27356
0.66200	27241
0.66267	27127
0.66333	27013
0.66400	26900
0.66467	26787
0.66533	26676
0.66600	26565
0.66667	26455
0.66733	26345
0.66800	26237
0.66867	26129
0.66933	26022
0.67000	25916
0.67067	25810
0.67133	25706
0.67200	25602
0.67267	25499
0.67333	25397
0.67400	25296
0.67467	25196
0.67533	25097
0.67600	25000
0.67667	24903
0.67733	24808
0.67800	24715
0.67867	24623
0.67933	24534
0.68000	24446
0.68067	24361
0.68133	24279
0.68200	24199
0.68267	24123
0.68333	24050
0.68400	23981
0.68467	23917
0.68533	23857
0.68600	23802
0.68667	23752
0.68733	23708
0.68800	23670
0.68867	23639
0.68933	23614
0.69000	23596
0.69067	23585
0.69133	23582
0.69200	23587
0.69267	23599
0.69333	23619
0.69400	23646
0.69467	23681
0.69533	23723
0.69600	23772
0.69667	23828
0.69733	23890
0.69800	23958
0.69867	24031
0.69933	24109
0.70000	24191
0.70067	24276
0.70133	24365
0.70200	24455
0.70267	24546
0.70333	24637
0.70400	24727
0.70467	24816
0.70533	24903
0.70600	24986
0.70667	25066
0.70733	25141
0.70800	25212
0.70867	25277
0.70933	25336
0.71000	25390
0.71067	25436
0.71133	25477
0.71200	25510
0.71267	25537
0.71333	25557
0.71400	25570
0.71467	25576
0.71533	25575
0.71600	25567
0.71667	25553
0.71733	25532
0.71800	25505
0.71867	25473
0.71933	25434
0.72000	25390
0.72067	25341
0.72133	25287
0.72200	25228
0.72267	25165
0.72333	25097
0.72400	25026
0.72467	24951
0.72533	24872
0.72600	24790
0.72667	24705
0.72733	24618
0.72800	24528
0.72867	24435
0.72933	24341
0.73000	24244
0.73067	24146
0.73133	24046
0.73200	23945
0.73267	23842
0.73333	23739
0.73400	23634
0.73467	23528
0.73533	23422
0.73600	23315
0.73667	23208
0.73733	23100
0.73800	22991
0.73867	22883
0.73933	22774
0.74000	22665
0.74067	22556
0.74133	22447
0.74200	22339
0.74267	22230
0.74333	22122
0.74400	22014
0.74467	21906
0.74533	21799
0.74600	21692
0.74667	21585
0.74733	21479
0.74800	21374
0.74867	21269
0.74933	21165
0.75000	21062
0.75067	20960
0.75133	20858
0.75200	20757
0.75267	20656
0.75333	20557
0.75400	20458
0.75467	20360
0.75533	20263
0.75600	20167
0.75667	20072
0.75733	19977
0.75800	19884
0.75867	19791
0.75933	19699
0.76000	19608
0.76067	19518
0.76133	19429
0.76200	19341
0.76267	19254
0.76333	19167
0.76400	19082
0.76467	18997
0.76533	18913
0.76600	18830
0.76667	18748
0.76733	18667
0.76800	18586
0.76867	18506
0.76933	18427
0.77000	18349
0.77067	18272
0.77133	18195
0.77200	18119
0.77267	18044
0.77333	17970
0.77400	17896
0.77467	17823
0.77533	17751
0.77600	17680
0.77667	17610
0.77733	17540
0.77800	17471
0.77867	17402
0.77933	17334
0.78000	17267
0.78067	17201
0.78133	17135
0.78200	17070
0.78267	17006
0.78333	16942
0.78400	16879
0.78467	16816
0.78533	16754
0.78600	16693
0.78667	16632
0.78733	16571
0.78800	16511
0.78867	16452
0.78933	16393
0.79000	16334
0.79067	16277
0.79133	16219
0.79200	16162
0.79267	16106
0.79333	16049
0.79400	15994
0.79467	15939
0.79533	15884
0.79600	15830
0.79667	15777
0.79733	15724
0.79800	15671
0.79867	15619
0.79933	15567
0.80000	15516
0.80067	15465
0.80133	15415
0.80200	15365
0.80267	15315
0.80333	15266
0.80400	15218
0.80467	15169
0.80533	15122
0.80600	15074
0.80667	15027
0.80733	14981
0.80800	14935
0.80867	14889
0.80933	14844
0.81000	14799
0.81067	14754
0.81133	14710
0.81200	14666
0.81267	14623
0.81333	14580
0.81400	14538
0.81467	14496
0.81533	14455
0.81600	14414
0.81667	14373
0.81733	14333
0.81800	14294
0.81867	14254
0.81933	14215
0.82000	14177
0.82067	14139
0.82133	14101
0.82200	14064
0.82267	14027
0.82333	13991
0.82400	13955
0.82467	13919
0.82533	13884
0.82600	13849
0.82667	13814
0.82733	13780
0.82800	13746
0.82867	13712
0.82933	13679
0.83000	13646
0.83067	13613
0.83133	13580
0.83200	13548
0.83267	13516
0.83333	13484
0.83400	13453
0.83467	13422
0.83533	13391
0.83600	13360
0.83667	13329
0.83733	13299
0.83800	13269
0.83867	13239
0.83933	13209
0.84000	13179
0.84067	13150
0.84133	13121
0.84200	13092
0.84267	13063
0.84333	13034
0.84400	13005
0.84467	12977
0.84533	12949
0.84600	12921
0.84667	12893
0.84733	12865
0.84800	12837
0.84867	12810
0.84933	12782
0.85000	12755
0.85067	12728
0.85133	12701
0.85200	12674
0.85267	12648
0.85333	12621
0.85400	12595
0.85467	12569
0.85533	12542
0.85600	12516
0.85667	12491
0.85733	12465
0.85800	12439
0.85867	12414
0.85933	12389
0.86000	12364
0.86067	12339
0.86133	12314
0.86200	12289
0.86267	12265
0.86333	12240
0.86400	12216
0.86467	12192
0.86533	12168
0.86600	12144
0.86667	12120
0.86733	12097
0.86800	12073
0.86867	12050
0.86933	12027
0.87000	12004
0.87067	11981
0.87133	11959
0.87200	11936
0.87267	11914
0.87333	11891
0.87400	11869
0.87467	11847
0.87533	11825
0.87600	11804
0.87667	11782
0.87733	11761
0.87800	11739
0.87867	11718
0.87933	11697
0.88000	11677
0.88067	11656
0.88133	11636
0.88200	11615
0.88267	11595
0.88333	11575
0.88400	11555
0.88467	11536
0.88533	11516
0.88600	11497
0.88667	11477
0.88733	11458
0.88800	11439
0.88867	11421
0.88933	11402
0.89000	11383
0.89067	11365
0.89133	11347
0.89200	11328
0.89267	11310
0.89333	11292
0.89400	11275
0.89467	11257
0.89533	11239
0.89600	11221
0.89667	11204
0.89733	11186
0.89800	11169
0.89867	11152
0.89933	11135
0.90000	11118
0.90067	11101
0.90133	11084
0.90200	11067
0.90267	11051
0.90333	11034
0.90400	11017
0.90467	11001
0.90533	10984
0.90600	10968
0.90667	10951
0.90733	10935
0.90800	10919
0.90867	10903
0.90933	10887
0.91000	10871
0.91067	10855
0.91133	10839
0.91200	10824
0.91267	10808
0.91333	10792
0.91400	10777
0.91467	10761
0.91533	10746
0.91600	10731
0.91667	10715
0.91733	10700
0.91800	10685
0.91867	10670
0.91933	10655
0.92000	10640
0.92067	10625
0.92133	10610
0.92200	10596
0.92267	10581
0.92333	10567
0.92400	10552
0.92467	10538
0.92533	10524
0.92600	10510
0.92667	10496
0.92733	10482
0.92800	10468
0.92867	10454
0.92933	10440
0.93000	10426
0.93067	10412
0.93133	10399
0.93200	10385
0.93267	10372
0.93333	10358
0.93400	10345
0.93467	10332
0.93533	10318
0.93600	10305
0.93667	10292
0.93733	10279
0.93800	10266
0.93867	10254
0.93933	10241
0.94000	10228
0.94067	10215
0.94133	10203
0.94200	10190
0.94267	10177
0.94333	10165
0.94400	10152
0.94467	10140
0.94533	10127
0.94600	10115
0.94667	10102
0.94733	10090
0.94800	10077
0.94867	10065
0.94933	10053
0.95000	10040
0.95067	10028
0.95133	10016
0.95200	10004
0.95267	9992
0.95333	9980
0.95400	9968
0.95467	9956
0.95533	9944
0.95600	9932
0.95667	9921
0.95733	9909
0.95800	9898
0.95867	9887
0.95933	9875
0.96000	9864
0.96067	9853
0.96133	9842
0.96200	9832
0.96267	9821
0.96333	9810
0.96400	9800
0.96467	9789
0.96533	9779
0.96600	9769
0.96667	9758
0.96733	9748
0.96800	9738
0.96867	9728
0.96933	9718
0.97000	9708
0.97067	9698
0.97133	9688
0.97200	9678
0.97267	9668
0.97333	9658
0.97400	9648
0.97467	9638
0.97533	9628
0.97600	9617
0.97667	9607
0.97733	9597
0.97800	9586
0.97867	9576
0.97933	9565
0.98000	9555
0.98067	9544
0.98133	9534
0.98200	9523
0.98267	9513
0.98333	9502
0.98400	9491
0.98467	9481
0.98533	9470
0.98600	9460
0.98667	9449
0.98733	9438
0.98800	9428
0.98867	9417
0.98933	9406
0.99000	9396
0.99067	9385
0.99133	9374
0.99200	9363
0.99267	9353
0.99333	9342
0.99400	9331
0.99467	9321
0.99533	9310
0.99600	9299
0.99667	9289
0.99733	9278
0.99800	9267
0.99867	9256
0.99933	9246
1.00000	9235
1.00067	9224
1.00133	9214
1.00200	9203
1.00267	9193
1.00333	9182
1.00400	9172
1.00467	9161
1.00533	9151
1.00600	9141
1.00667	9130
1.00733	9120
1.00800	9110
1.00867	9100
1.00933	9091
1.01000	9081
1.01067	9071
1.01133	9062
1.01200	9053
1.01267	9044
1.01333	9035
1.01400	9026
1.01467	9017
1.01533	9009
1.01600	9001
1.01667	8993
1.01733	8985
1.01800	8978
1.01867	8971
1.01933	8964
1.02000	8958
1.02067	8951
1.02133	8945
1.02200	8940
1.02267	8934
1.02333	8929
1.02400	8924
1.02467	8919
1.02533	8915
1.02600	8911
1.02667	8906
1.02733	8902
1.02800	8899
1.02867	8895
1.02933	8891
1.03000	8888
1.03067	8884
1.03133	8881
1.03200	8877
1.03267	8873
1.03333	8870
1.03400	8866
1.03467	8862
1.03533	8858
1.03600	8854
1.03667	8850
1.03733	8846
1.03800	8842
1.03867	8837
1.03933	8832
1.04000	8827
1.04067	8822
1.04133	8817
1.04200	8812
1.04267	8806
1.04333	8800
1.04400	8794
1.04467	8788
1.04533	8782
1.04600	8776
1.04667	8769
1.04733	8762
1.04800	8756
1.04867	8749
1.04933	8742
1.05000	8735
1.05067	8728
1.05133	8720
1.05200	8713
1.05267	8705
1.05333	8698
1.05400	8690
1.05467	8682
1.05533	8674
1.05600	8666
1.05667	8658
1.05733	8650
1.05800	8642
1.05867	8634
1.05933	8625
1.06000	8617
1.06067	8609
1.06133	8600
1.06200	8592
1.06267	8583
1.06333	8574
1.06400	8566
1.06467	8557
1.06533	8548
1.06600	8540
1.06667	8531
1.06733	8522
1.06800	8513
1.06867	8505
1.06933	8496
1.07000	8487
1.07067	8478
1.07133	8470
1.07200	8461
1.07267	8452
1.07333	8443
1.07400	8435
1.07467	8426
1.07533	8417
1.07600	8408
1.07667	8400
1.07733	8391
1.07800	8382
1.07867	8374
1.07933	8365
1.08000	8357
1.08067	8349
1.08133	8340
1.08200	8332
1.08267	8324
1.08333	8316
1.08400	8308
1.08467	8300
1.08533	8292
1.08600	8284
1.08667	8276
1.08733	8269
1.08800	8261
1.08867	8253
1.08933	8246
1.09000	8238
1.09067	8230
1.09133	8223
1.09200	8215
1.09267	8208
1.09333	8200
1.09400	8193
1.09467	8185
1.09533	8178
1.09600	8170
1.09667	8163
1.09733	8156
1.09800	8148
1.09867	8141
1.09933	8134
1.10000	8126
1.10067	8119
1.10133	8112
1.10200	8105
1.10267	8098
1.10333	8091
1.10400	8083
1.10467	8076
1.10533	8069
1.10600	8062
1.10667	8055
1.10733	8048
1.10800	8041
1.10867	8034
1.10933	8027
1.11000	8020
1.11067	8013
1.11133	8006
1.11200	7999
1.11267	7993
1.11333	7986
1.11400	7979
1.11467	7972
1.11533	7965
1.11600	7958
1.11667	7952
1.11733	7945
1.11800	7938
1.11867	7932
1.11933	7925
1.12000	7919
1.12067	7912
1.12133	7906
1.12200	7899
1.12267	7893
1.12333	7886
1.12400	7880
1.12467	7874
1.12533	7868
1.12600	7862
1.12667	7856
1.12733	7850
1.12800	7844
1.12867	7838
1.12933	7832
1.13000	7826
1.13067	7821
1.13133	7816
1.13200	7810
1.13267	7805
1.13333	7800
1.13400	7795
1.13467	7790
1.13533	7786
1.13600	7781
1.13667	7777
1.13733	7773
1.13800	7769
1.13867	7765
1.13933	7761
1.14000	7758
1.14067	7754
1.14133	7751
1.14200	7748
1.14267	7745
1.14333	7742
1.14400	7739
1.14467	7736
1.14533	7733
1.14600	7731
1.14667	7728
1.14733	7725
1.14800	7723
1.14867	7720
1.14933	7717
1.15000	7714
1.15067	7711
1.15133	7708
1.15200	7705
1.15267	7702
1.15333	7699
1.15400	7696
1.15467	7692
1.15533	7689
1.15600	7686
1.15667	7682
1.15733	7678
1.15800	7675
1.15867	7671
1.15933	7667
1.16000	7663
1.16067	7659
1.16133	7654
1.16200	7650
1.16267	7646
1.16333	7641
1.16400	7637
1.16467	7632
1.16533	7627
1.16600	7623
1.16667	7618
1.16733	7613
1.16800	7608
1.16867	7603
1.16933	7598
1.17000	7593
1.17067	7588
1.17133	7583
1.17200	7577
1.17267	7572
1.17333	7567
1.17400	7561
1.17467	7556
1.17533	7551
1.17600	7545
1.17667	7540
1.17733	7534
1.17800	7529
1.17867	7523
1.17933	7518
1.18000	7513
1.18067	7507
1.18133	7502
1.18200	7496
1.18267	7491
1.18333	7486
1.18400	7480
1.18467	7475
1.18533	7470
1.18600	7465
1.18667	7459
1.18733	7454
1.18800	7449
1.18867	7444
1.18933	7440
1.19000	7435
1.19067	7430
1.19133	7425
1.19200	7420
1.19267	7416
1.19333	7411
1.19400	7407
1.19467	7402
1.19533	7398
1.19600	7393
1.19667	7389
1.19733	7385
1.19800	7381
1.19867	7376
1.19933	7372
1.20000	7368
1.20067	7364
1.20133	7360
1.20200	7356
1.20267	7353
1.20333	7349
1.20400	7345
1.20467	7341
1.20533	7338
1.20600	7334
1.20667	7330
1.20733	7327
1.20800	7324
1.20867	7320
1.20933	7317
1.21000	7314
1.21067	7311
1.21133	7308
1.21200	7305
1.21267	7302
1.21333	7299
1.21400	7296
1.21467	7294
1.21533	7291
1.21600	7288
1.21667	7286
1.21733	7283
1.21800	7281
1.21867	7278
1.21933	7276
1.22000	7274
1.22067	7271
1.22133	7269
1.22200	7267
1.22267	7265
1.22333	7262
1.22400	7260
1.22467	7258
1.22533	7256
1.22600	7254
1.22667	7252
1.22733	7250
1.22800	7248
1.22867	7246
1.22933	7244
1.23000	7243
1.23067	7241
1.23133	7239
1.23200	7238
1.23267	7236
1.23333	7235
1.23400	7233
1.23467	7232
1.23533	7230
1.23600	7229
1.23667	7228
1.23733	7226
1.23800	7225
1.23867	7224
1.23933	7222
1.24000	7221
1.24067	7220
1.24133	7219
1.24200	7218
1.24267	7216
1.24333	7215
1.24400	7214
1.24467	7213
1.24533	7212
1.24600	7211
1.24667	7210
1.24733	7209
1.24800	7208
1.24867	7207
1.24933	7206
1.25000	7206
1.25067	7205
1.25133	7204
1.25200	7203
1.25267	7202
1.25333	7201
1.25400	7200
1.25467	7199
1.25533	7199
1.25600	7198
1.25667	7197
1.25733	7197
1.25800	7196
1.25867	7195
1.25933	7195
1.26000	7194
1.26067	7194
1.26133	7194
1.26200	7193
1.26267	7193
1.26333	7193
1.26400	7193
1.26467	7193
1.26533	7193
1.26600	7193
1.26667	7193
1.26733	7193
1.26800	7193
1.26867	7193
1.26933	7193
1.27000	7194
1.27067	7194
1.27133	7194
1.27200	7195
1.27267	7196
1.27333	7197
1.27400	7198
1.27467	7199
1.27533	7200
1.27600	7201
1.27667	7203
1.27733	7204
1.27800	7206
1.27867	7208
1.27933	7210
1.28000	7212
1.28067	7215
1.28133	7217
1.28200	7220
1.28267	7223
1.28333	7226
1.28400	7229
1.28467	7232
1.28533	7236
1.28600	7239
1.28667	7243
1.28733	7247
1.28800	7250
1.28867	7254
1.28933	7258
1.29000	7262
1.29067	7265
1.29133	7269
1.29200	7273
1.29267	7276
1.29333	7280
1.29400	7283
1.29467	7286
1.29533	7289
1.29600	7292
1.29667	7295
1.29733	7298
1.29800	7300
1.29867	7303
1.29933	7305
1.30000	7306
1.30067	7308
1.30133	7309
1.30200	7310
1.30267	7311
1.30333	7312
1.30400	7312
1.30467	7312
1.30533	7312
1.30600	7312
1.30667	7311
1.30733	7311
1.30800	7310
1.30867	7309
1.30933	7307
1.31000	7306
1.31067	7304
1.31133	7302
1.31200	7300
1.31267	7298
1.31333	7296
1.31400	7293
1.31467	7290
1.31533	7287
1.31600	7284
1.31667	7281
1.31733	7278
1.31800	7274
1.31867	7271
1.31933	7267
1.32000	7263
1.32067	7259
1.32133	7255
1.32200	7251
1.32267	7246
1.32333	7242
1.32400	7237
1.32467	7233
1.32533	7228
1.32600	7223
1.32667	7218
1.32733	7213
1.32800	7208
1.32867	7203
1.32933	7197
1.33000	7192
1.33067	7187
1.33133	7181
1.33200	7176
1.33267	7170
1.33333	7165
1.33400	7159
1.33467	7153
1.33533	7148
1.33600	7142
1.33667	7136
1.33733	7130
1.33800	7125
1.33867	7119
1.33933	7113
1.34000	7107
1.34067	7101
1.34133	7095
1.34200	7089
1.34267	7084
1.34333	7078
1.34400	7072
1.34467	7066
1.34533	7060
1.34600	7054
1.34667	7048
1.34733	7042
1.34800	7036
1.34867	7030
1.34933	7024
1.35000	7018
1.35067	7012
1.35133	7005
1.35200	6999
1.35267	6993
1.35333	6987
1.35400	6981
1.35467	6975
1.35533	6969
1.35600	6963
1.35667	6957
1.35733	6951
1.35800	6945
1.35867	6939
1.35933	6934
1.36000	6928
1.36067	6922
1.36133	6917
1.36200	6911
1.36267	6905
1.36333	6900
1.36400	6894
1.36467	6889
1.36533	6884
1.36600	6878
1.36667	6873
1.36733	6868
1.36800	6862
1.36867	6857
1.36933	6852
1.37000	6848
1.37067	6843
1.37133	6838
1.37200	6833
1.37267	6829
1.37333	6824
1.37400	6820
1.37467	6816
1.37533	6811
1.37600	6807
1.37667	6803
1.37733	6799
1.37800	6795
1.37867	6791
1.37933	6787
1.38000	6783
1.38067	6779
1.38133	6775
1.38200	6772
1.38267	6768
1.38333	6764
1.38400	6761
1.38467	6757
1.38533	6754
1.38600	6750
1.38667	6747
1.38733	6744
1.38800	6740
1.38867	6737
1.38933	6734
1.39000	6731
1.39067	6727
1.39133	6724
1.39200	6721
1.39267	6718
1.39333	6714
1.39400	6711
1.39467	6708
1.39533	6705
1.39600	6702
1.39667	6698
1.39733	6695
1.39800	6692
1.39867	6689
1.39933	6686
1.40000	6683
1.40067	6680
1.40133	6677
1.40200	6674
1.40267	6670
1.40333	6667
1.40400	6664
1.40467	6661
1.40533	6658
1.40600	6655
1.40667	6651
1.40733	6648
1.40800	6645
1.40867	6642
1.40933	6638
1.41000	6635
1.41067	6632
1.41133	6629
1.41200	6626
1.41267	6623
1.41333	6620
1.41400	6617
1.41467	6614
1.41533	6611
1.41600	6608
1.41667	6605
1.41733	6603
1.41800	6600
1.41867	6597
1.41933	6594
1.42000	6592
1.42067	6589
1.42133	6586
1.42200	6584
1.42267	6581
1.42333	6579
1.42400	6577
1.42467	6574
1.42533	6572
1.42600	6569
1.42667	6567
1.42733	6564
1.42800	6562
1.42867	6560
1.42933	6558
1.43000	6555
1.43067	6553
1.43133	6551
1.43200	6549
1.43267	6547
1.43333	6546
1.43400	6544
1.43467	6542
1.43533	6540
1.43600	6538
1.43667	6537
1.43733	6535
1.43800	6534
1.43867	6532
1.43933	6531
1.44000	6529
1.44067	6528
1.44133	6526
1.44200	6525
1.44267	6524
1.44333	6522
1.44400	6521
1.44467	6520
1.44533	6519
1.44600	6517
1.44667	6516
1.44733	6515
1.44800	6514
1.44867	6512
1.44933	6511
1.45000	6510
1.45067	6509
1.45133	6507
1.45200	6506
1.45267	6505
1.45333	6503
1.45400	6502
1.45467	6501
1.45533	6499
1.45600	6498
1.45667	6497
1.45733	6495
1.45800	6494
1.45867	6493
1.45933	6491
1.46000	6490
1.46067	6488
1.46133	6487
1.46200	6486
1.46267	6484
1.46333	6483
1.46400	6482
1.46467	6480
1.46533	6479
1.46600	6478
1.46667	6476
1.46733	6475
1.46800	6474
1.46867	6473
1.46933	6471
1.47000	6470
1.47067	6469
1.47133	6467
1.47200	6466
1.47267	6465
1.47333	6464
1.47400	6462
1.47467	6461
1.47533	6460
1.47600	6459
1.47667	6457
1.47733	6456
1.47800	6455
1.47867	6454
1.47933	6453
1.48000	6451
1.48067	6450
1.48133	6449
1.48200	6447
1.48267	6446
1.48333	6445
1.48400	6443
1.48467	6442
1.48533	6440
1.48600	6439
1.48667	6437
1.48733	6435
1.48800	6434
1.48867	6432
1.48933	6430
1.49000	6428
1.49067	6426
1.49133	6424
1.49200	6422
1.49267	6420
1.49333	6418
1.49400	6416
1.49467	6413
1.49533	6411
1.49600	6409
1.49667	6406
1.49733	6403
1.49800	6401
1.49867	6398
1.49933	6395
1.50000	6392
1.50067	6390
1.50133	6387
1.50200	6384
1.50267	6381
1.50333	6378
1.50400	6375
1.50467	6372
1.50533	6369
1.50600	6366
1.50667	6363
1.50733	6360
1.50800	6357
1.50867	6354
1.50933	6351
1.51000	6348
1.51067	6345
1.51133	6342
1.51200	6339
1.51267	6337
1.51333	6334
1.51400	6331
1.51467	6328
1.51533	6326
1.51600	6323
1.51667	6320
1.51733	6318
1.51800	6315
1.51867	6313
1.51933	6310
1.52000	6308
1.52067	6305
1.52133	6303
1.52200	6300
1.52267	6298
1.52333	6296
1.52400	6294
1.52467	6291
1.52533	6289
1.52600	6287
1.52667	6285
1.52733	6283
1.52800	6281
1.52867	6280
1.52933	6278
1.53000	6276
1.53067	6274
1.53133	6272
1.53200	6270
1.53267	6268
1.53333	6266
1.53400	6264
1.53467	6262
1.53533	6260
1.53600	6259
1.53667	6257
1.53733	6255
1.53800	6253
1.53867	6251
1.53933	6249
1.54000	6247
1.54067	6245
1.54133	6243
1.54200	6241
1.54267	6240
1.54333	6238
1.54400	6236
1.54467	6234
1.54533	6232
1.54600	6230
1.54667	6228
1.54733	6226
1.54800	6224
1.54867	6222
1.54933	6221
1.55000	6219
1.55067	6217
1.55133	6215
1.55200	6213
1.55267	6211
1.55333	6209
1.55400	6207
1.55467	6205
1.55533	6203
1.55600	6201
1.55667	6200
1.55733	6198
1.55800	6196
1.55867	6194
1.55933	6192
1.56000	6190
1.56067	6189
1.56133	6187
1.56200	6185
1.56267	6183
1.56333	6181
1.56400	6180
1.56467	6178
1.56533	6176
1.56600	6175
1.56667	6173
1.56733	6171
1.56800	6170
1.56867	6168
1.56933	6167
1.57000	6165
1.57067	6164
1.57133	6162
1.57200	6160
1.57267	6159
1.57333	6157
1.57400	6156
1.57467	6154
1.57533	6153
1.57600	6151
1.57667	6150
1.57733	6148
1.57800	6147
1.57867	6145
1.57933	6143
1.58000	6142
1.58067	6140
1.58133	6139
1.58200	6137
1.58267	6136
1.58333	6134
1.58400	6133
1.58467	6131
1.58533	6130
1.58600	6128
1.58667	6127
1.58733	6126
1.58800	6124
1.58867	6123
1.58933	6122
1.59000	6120
1.59067	6119
1.59133	6118
1.59200	6117
1.59267	6115
1.59333	6114
1.59400	6113
1.59467	6111
1.59533	6110
1.59600	6109
1.59667	6108
1.59733	6106
1.59800	6105
1.59867	6104
1.59933	6103
1.60000	6102
1.60067	6101
1.60133	6100
1.60200	6099
1.60267	6098
1.60333	6097
1.60400	6096
1.60467	6095
1.60533	6094
1.60600	6093
1.60667	6092
1.60733	6091
1.60800	6090
1.60867	6089
1.60933	6088
1.61000	6087
1.61067	6086
1.61133	6085
1.61200	6084
1.61267	6083
1.61333	6082
1.61400	6080
1.61467	6079
1.61533	6078
1.61600	6077
1.61667	6076
1.61733	6075
1.61800	6074
1.61867	6073
1.61933	6072
1.62000	6071
1.62067	6070
1.62133	6069
1.62200	6068
1.62267	6067
1.62333	6065
1.62400	6064
1.62467	6063
1.62533	6062
1.62600	6061
1.62667	6060
1.62733	6059
1.62800	6057
1.62867	6056
1.62933	6055
1.63000	6054
1.63067	6052
1.63133	6051
1.63200	6050
1.63267	6048
1.63333	6047
1.63400	6045
1.63467	6044
1.63533	6043
1.63600	6042
1.63667	6041
1.63733	6040
1.63800	6038
1.63867	6037
1.63933	6036
1.64000	6036
1.64067	6035
1.64133	6034
1.64200	6033
1.64267	6032
1.64333	6032
1.64400	6031
1.64467	6031
1.64533	6030
1.64600	6029
1.64667	6029
1.64733	6028
1.64800	6028
1.64867	6027
1.64933	6027
1.65000	6027
1.65067	6026
1.65133	6026
1.65200	6026
1.65267	6025
1.65333	6025
1.65400	6025
1.65467	6024
1.65533	6024
1.65600	6024
1.65667	6023
1.65733	6023
1.65800	6023
1.65867	6022
1.65933	6022
1.66000	6021
1.66067	6021
1.66133	6021
1.66200	6020
1.66267	6020
1.66333	6019
1.66400	6019
1.66467	6018
1.66533	6018
1.66600	6017
1.66667	6016
1.66733	6016
1.66800	6015
1.66867	6014
1.66933	6014
1.67000	6013
1.67067	6012
1.67133	6011
1.67200	6010
1.67267	6009
1.67333	6008
1.67400	6007
1.67467	6006
1.67533	6006
1.67600	6005
1.67667	6004
1.67733	6003
1.67800	6002
1.67867	6001
1.67933	6000
1.68000	5999
1.68067	5998
1.68133	5997
1.68200	5996
1.68267	5995
1.68333	5994
1.68400	5993
1.68467	5992
1.68533	5991
1.68600	5990
1.68667	5989
1.68733	5988
1.68800	5987
1.68867	5986
1.68933	5985
1.69000	5984
1.69067	5983
1.69133	5982
1.69200	5981
1.69267	5980
1.69333	5978
1.69400	5977
1.69467	5976
1.69533	5975
1.69600	5973
1.69667	5972
1.69733	5970
1.69800	5969
1.69867	5968
1.69933	5966
1.70000	5965
1.70067	5963
1.70133	5962
1.70200	5960
1.70267	5959
1.70333	5958
1.70400	5956
1.70467	5955
1.70533	5953
1.70600	5952
1.70667	5950
1.70733	5949
1.70800	5948
1.70867	5946
1.70933	5945
1.71000	5944
1.71067	5943
1.71133	5941
1.71200	5940
1.71267	5939
1.71333	5939
1.71400	5938
1.71467	5938
1.71533	5938
1.71600	5938
1.71667	5939
1.71733	5940
1.71800	5942
1.71867	5945
1.71933	5949
1.72000	5954
1.72067	5961
1.72133	5969
1.72200	5980
1.72267	5994
1.72333	6010
1.72400	6031
1.72467	6056
1.72533	6087
1.72600	6125
1.72667	6170
1.72733	6225
1.72800	6291
1.72867	6370
1.72933	6463
1.73000	6574
1.73067	6705
1.73133	6859
1.73200	7039
1.73267	7250
1.73333	7495
1.73400	7778
1.73467	8104
1.73533	8479
1.73600	8908
1.73667	9397
1.73733	9952
1.73800	10581
1.73867	11291
1.73933	12090
1.74000	12985
1.74067	13986
1.74133	15099
1.74200	16336
1.74267	17703
1.74333	19211
1.74400	20868
1.74467	22682
1.74533	24663
1.74600	26819
1.74667	29158
1.74733	31690
1.74800	34420
1.74867	37356
1.74933	40503
1.75000	43865
1.75067	47443
1.75133	51240
1.75200	55254
1.75267	59486
1.75333	63931
1.75400	68584
1.75467	73433
1.75533	78470
1.75600	83683
1.75667	89061
1.75733	94592
1.75800	100260
1.75867	106051
1.75933	111945
1.76000	117924
1.76067	123967
1.76133	130051
1.76200	136153
1.76267	142247
1.76333	148310
1.76400	154314
1.76467	160235
1.76533	166049
1.76600	171732
1.76667	177262
1.76733	182617
1.76800	187774
1.76867	192715
1.76933	197421
1.77000	201876
1.77067	206065
1.77133	209978
1.77200	213604
1.77267	216938
1.77333	219972
1.77400	222705
1.77467	225134
1.77533	227261
1.77600	229088
1.77667	230618
1.77733	231856
1.77800	232809
1.77867	233485
1.77933	233890
1.78000	234036
1.78067	233930
1.78133	233584
1.78200	233009
1.78267	232214
1.78333	231211
1.78400	230012
1.78467	228627
1.78533	227068
1.78600	225347
1.78667	223475
1.78733	221461
1.78800	219318
1.78867	217054
1.78933	214681
1.79000	212207
1.79067	209643
1.79133	206996
1.79200	204275
1.79267	201489
1.79333	198644
1.79400	195749
1.79467	192810
1.79533	189834
1.79600	186827
1.79667	183795
1.79733	180743
1.79800	177676
1.79867	174600
1.79933	171518
1.80000	168436
1.80067	165357
1.80133	162284
1.80200	159222
1.80267	156173
1.80333	153140
1.80400	150127
1.80467	147135
1.80533	144168
1.80600	141227
1.80667	138314
1.80733	135431
1.80800	132580
1.80867	129763
1.80933	126979
1.81000	124232
1.81067	121522
1.81133	118849
1.81200	116216
1.81267	113622
1.81333	111068
1.81400	108554
1.81467	106082
1.81533	103652
1.81600	101263
1.81667	98916
1.81733	96611
1.81800	94349
1.81867	92128
1.81933	89950
1.82000	87814
1.82067	85720
1.82133	83668
1.82200	81657
1.82267	79688
1.82333	77759
1.82400	75871
1.82467	74023
1.82533	72216
1.82600	70447
1.82667	68718
1.82733	67027
1.82800	65374
1.82867	63759
1.82933	62181
1.83000	60639
1.83067	59134
1.83133	57663
1.83200	56228
1.83267	54827
1.83333	53461
1.83400	52127
1.83467	50826
1.83533	49557
1.83600	48319
1.83667	47112
1.83733	45936
1.83800	44789
1.83867	43672
1.83933	42583
1.84000	41522
1.84067	40489
1.84133	39482
1.84200	38502
1.84267	37547
1.84333	36618
1.84400	35713
1.84467	34832
1.84533	33975
1.84600	33141
1.84667	32329
1.84733	31539
1.84800	30771
1.84867	30024
1.84933	29297
1.85000	28590
1.85067	27903
1.85133	27235
1.85200	26585
1.85267	25953
1.85333	25339
1.85400	24743
1.85467	24163
1.85533	23599
1.85600	23051
1.85667	22519
1.85733	22002
1.85800	21500
1.85867	21012
1.85933	20537
1.86000	20077
1.86067	19630
1.86133	19195
1.86200	18774
1.86267	18364
1.86333	17966
1.86400	17580
1.86467	17205
1.86533	16841
1.86600	16488
1.86667	16145
1.86733	15812
1.86800	15489
1.86867	15175
1.86933	14871
1.87000	14575
1.87067	14288
1.87133	14010
1.87200	13740
1.87267	13478
1.87333	13224
1.87400	12977
1.87467	12738
1.87533	12506
1.87600	12281
1.87667	12062
1.87733	11850
1.87800	11645
1.87867	11445
1.87933	11252
1.88000	11064
1.88067	10882
1.88133	10705
1.88200	10534
1.88267	10368
1.88333	10207
1.88400	10050
1.88467	9899
1.88533	9752
1.88600	9610
1.88667	9472
1.88733	9338
1.88800	9208
1.88867	9082
1.88933	8960
1.89000	8842
1.89067	8727
1.89133	8616
1.89200	8508
1.89267	8404
1.89333	8302
1.89400	8204
1.89467	8109
1.89533	8017
1.89600	7928
1.89667	7841
1.89733	7757
1.89800	7675
1.89867	7597
1.89933	7520
1.90000	7446
1.90067	7374
1.90133	7305
1.90200	7237
1.90267	7172
1.90333	7108
1.90400	7047
1.90467	6987
1.90533	6929
1.90600	6873
1.90667	6819
1.90733	6766
1.90800	6715
1.90867	6665
1.90933	6617
1.91000	6570
1.91067	6525
1.91133	6481
1.91200	6438
1.91267	6396
1.91333	6356
1.91400	6317
1.91467	6279
1.91533	6242
1.91600	6206
1.91667	6171
1.91733	6137
1.91800	6104
1.91867	6072
1.91933	6041
1.92000	6010
1.92067	5981
1.92133	5952
1.92200	5925
1.92267	5898
1.92333	5871
1.92400	5846
1.92467	5821
1.92533	5797
1.92600	5773
1.92667	5750
1.92733	5728
1.92800	5706
1.92867	5685
1.92933	5665
1.93000	5645
1.93067	5625
1.93133	5607
1.93200	5588
1.93267	5570
1.93333	5553
1.93400	5536
1.93467	5519
1.93533	5503
1.93600	5487
1.93667	5472
1.93733	5457
1.93800	5443
1.93867	5429
1.93933	5415
1.94000	5401
1.94067	5388
1.94133	5376
1.94200	5363
1.94267	5351
1.94333	5339
1.94400	5327
1.94467	5316
1.94533	5305
1.94600	5294
1.94667	5284
1.94733	5274
1.94800	5264
1.94867	5254
1.94933	5245
1.95000	5236
1.95067	5227
1.95133	5218
1.95200	5210
1.95267	5201
1.95333	5193
1.95400	5186
1.95467	5178
1.95533	5170
1.95600	5163
1.95667	5156
1.95733	5149
1.95800	5142
1.95867	5135
1.95933	5129
1.96000	5123
1.96067	5116
1.96133	5110
1.96200	5104
1.96267	5099
1.96333	5093
1.96400	5087
1.96467	5082
1.96533	5077
1.96600	5072
1.96667	5066
1.96733	5061
1.96800	5057
1.96867	5052
1.96933	5047
1.97000	5042
1.97067	5038
1.97133	5033
1.97200	5029
1.97267	5025
1.97333	5020
1.97400	5016
1.97467	5012
1.97533	5008
1.97600	5004
1.97667	5000
1.97733	4997
1.97800	4993
1.97867	4989
1.97933	4986
1.98000	4982
1.98067	4979
1.98133	4975
1.98200	4972
1.98267	4969
1.98333	4965
1.98400	4962
1.98467	4959
1.98533	4956
1.98600	4953
1.98667	4950
1.98733	4947
1.98800	4944
1.98867	4941
1.98933	4939
1.99000	4936
1.99067	4933
1.99133	4930
1.99200	4927
1.99267	4925
1.99333	4922
1.99400	4920
1.99467	4917
1.99533	4915
1.99600	4912
1.99667	4910
1.99733	4907
1.99800	4905
1.99867	4902
1.99933	4900
2.00000	4898
2.00067	4895
2.00133	4893
2.00200	4891
2.00267	4888
2.00333	4886
2.00400	4884
2.00467	4882
2.00533	4879
2.00600	4877
2.00667	4875
2.00733	4873
2.00800	4870
2.00867	4868
2.00933	4866
2.01000	4864
2.01067	4862
2.01133	4859
2.01200	4857
2.01267	4855
2.01333	4853
2.01400	4850
2.01467	4848
2.01533	4846
2.01600	4844
2.01667	4841
2.01733	4839
2.01800	4837
2.01867	4835
2.01933	4832
2.02000	4830
2.02067	4828
2.02133	4826
2.02200	4824
2.02267	4822
2.02333	4819
2.02400	4817
2.02467	4815
2.02533	4813
2.02600	4811
2.02667	4809
2.02733	4808
2.02800	4806
2.02867	4804
2.02933	4802
2.03000	4800
2.03067	4798
2.03133	4796
2.03200	4794
2.03267	4792
2.03333	4790
2.03400	4789
2.03467	4787
2.03533	4785
2.03600	4783
2.03667	4781
2.03733	4779
2.03800	4778
2.03867	4776
2.03933	4774
2.04000	4772
2.04067	4770
2.04133	4768
2.04200	4766
2.04267	4764
2.04333	4763
2.04400	4761
2.04467	4759
2.04533	4757
2.04600	4755
2.04667	4753
2.04733	4752
2.04800	4750
2.04867	4748
2.04933	4746
2.05000	4745
2.05067	4743
2.05133	4741
2.05200	4740
2.05267	4738
2.05333	4737
2.05400	4735
2.05467	4733
2.05533	4732
2.05600	4730
2.05667	4728
2.05733	4727
2.05800	4725
2.05867	4724
2.05933	4722
2.06000	4721
2.06067	4719
2.06133	4718
2.06200	4716
2.06267	4715
2.06333	4713
2.06400	4712
2.06467	4710
2.06533	4709
2.06600	4707
2.06667	4706
2.06733	4704
2.06800	4703
2.06867	4701
2.06933	4700
2.07000	4698
2.07067	4697
2.07133	4695
2.07200	4693
2.07267	4692
2.07333	4690
2.07400	4689
2.07467	4687
2.07533	4686
2.07600	4684
2.07667	4683
2.07733	4681
2.07800	4680
2.07867	4678
2.07933	4677
2.08000	4675
2.08067	4674
2.08133	4672
2.08200	4670
2.08267	4669
2.08333	4667
2.08400	4666
2.08467	4664
2.08533	4663
2.08600	4662
2.08667	4660
2.08733	4659
2.08800	4657
2.08867	4656
2.08933	4655
2.09000	4653
2.09067	4652
2.09133	4650
2.09200	4649
2.09267	4648
2.09333	4647
2.09400	4645
2.09467	4644
2.09533	4643
2.09600	4641
2.09667	4640
2.09733	4639
2.09800	4638
2.09867	4637
2.09933	4635
2.10000	4634
2.10067	4633
2.10133	4632
2.10200	4631
2.10267	4629
2.10333	4628
2.10400	4627
2.10467	4626
2.10533	4625
2.10600	4623
2.10667	4622
2.10733	4621
2.10800	4620
2.10867	4619
2.10933	4618
2.11000	4617
2.11067	4616
2.11133	4614
2.11200	4613
2.11267	4612
2.11333	4611
2.11400	4610
2.11467	4609
2.11533	4608
2.11600	4607
2.11667	4605
2.11733	4604
2.11800	4603
2.11867	4602
2.11933	4601
2.12000	4599
2.12067	4598
2.12133	4597
2.12200	4596
2.12267	4595
2.12333	4593
2.12400	4592
2.12467	4591
2.12533	4590
2.12600	4589
2.12667	4587
2.12733	4586
2.12800	4585
2.12867	4584
2.12933	4583
2.13000	4581
2.13067	4580
2.13133	4579
2.13200	4578
2.13267	4577
2.13333	4575
2.13400	4574
2.13467	4573
2.13533	4572
2.13600	4571
2.13667	4569
2.13733	4568
2.13800	4567
2.13867	4566
2.13933	4565
2.14000	4563
2.14067	4562
2.14133	4561
2.14200	4560
2.14267	4559
2.14333	4558
2.14400	4557
2.14467	4555
2.14533	4554
2.14600	4553
2.14667	4552
2.14733	4550
2.14800	4549
2.14867	4548
2.14933	4547
2.15000	4545
2.15067	4544
2.15133	4543
2.15200	4541
2.15267	4540
2.15333	4539
2.15400	4537
2.15467	4536
2.15533	4535
2.15600	4534
2.15667	4532
2.15733	4531
2.15800	4530
2.15867	4528
2.15933	4527
2.16000	4526
2.16067	4524
2.16133	4523
2.16200	4522
2.16267	4520
2.16333	4519
2.16400	4517
2.16467	4516
2.16533	4515
2.16600	4513
2.16667	4512
2.16733	4511
2.16800	4509
2.16867	4508
2.16933	4507
2.17000	4505
2.17067	4504
2.17133	4503
2.17200	4502
2.17267	4500
2.17333	4499
2.17400	4498
2.17467	4496
2.17533	4495
2.17600	4494
2.17667	4492
2.17733	4491
2.17800	4490
2.17867	4489
2.17933	4487
2.18000	4486
2.18067	4485
2.18133	4484
2.18200	4482
2.18267	4481
2.18333	4480
2.18400	4479
2.18467	4477
2.18533	4476
2.18600	4475
2.18667	4474
2.18733	4473
2.18800	4472
2.18867	4471
2.18933	4470
2.19000	4468
2.19067	4467
2.19133	4466
2.19200	4465
2.19267	4464
2.19333	4463
2.19400	4462
2.19467	4461
2.19533	4460
2.19600	4459
2.19667	4458
2.19733	4457
2.19800	4456
2.19867	4455
2.19933	4454
2.20000	4454
2.20067	4453
2.20133	4452
2.20200	4452
2.20267	4451
2.20333	4450
2.20400	4450
2.20467	4449
2.20533	4449
2.20600	4448
2.20667	4448
2.20733	4448
2.20800	4448
2.20867	4447
2.20933	4447
2.21000	4447
2.21067	4447
2.21133	4447
2.21200	4447
2.21267	4448
2.21333	4448
2.21400	4448
2.21467	4448
2.21533	4448
2.21600	4449
2.21667	4449
2.21733	4449
2.21800	4450
2.21867	4450
2.21933	4451
2.22000	4451
2.22067	4452
2.22133	4452
2.22200	4453
2.22267	4453
2.22333	4454
2.22400	4454
2.22467	4455
2.22533	4455
2.22600	4456
2.22667	4456
2.22733	4456
2.22800	4457
2.22867	4457
2.22933	4457
2.23000	4457
2.23067	4457
2.23133	4457
2.23200	4457
2.23267	4457
2.23333	4457
2.23400	4457
2.23467	4457
2.23533	4457
2.23600	4457
2.23667	4456
2.23733	4456
2.23800	4456
2.23867	4456
2.23933	4455
2.24000	4455
2.24067	4454
2.24133	4454
2.24200	4453
2.24267	4453
2.24333	4452
2.24400	4452
2.24467	4451
2.24533	4451
2.24600	4450
2.24667	4449
2.24733	4449
2.24800	4448
2.24867	4447
2.24933	4447
2.25000	4446
2.25067	4445
2.25133	4444
2.25200	4443
2.25267	4443
2.25333	4442
2.25400	4441
2.25467	4440
2.25533	4439
2.25600	4439
2.25667	4438
2.25733	4437
2.25800	4436
2.25867	4435
2.25933	4434
2.26000	4434
2.26067	4433
2.26133	4432
2.26200	4431
2.26267	4430
2.26333	4429
2.26400	4429
2.26467	4428
2.26533	4427
2.26600	4426
2.26667	4425
2.26733	4424
2.26800	4423
2.26867	4422
2.26933	4420
2.27000	4419
2.27067	4418
2.27133	4417
2.27200	4416
2.27267	4414
2.27333	4413
2.27400	4412
2.27467	4411
2.27533	4410
2.27600	4408
2.27667	4407
2.27733	4406
2.27800	4404
2.27867	4403
2.27933	4401
2.28000	4400
2.28067	4399
2.28133	4397
2.28200	4396
2.28267	4395
2.28333	4393
2.28400	4392
2.28467	4391
2.28533	4389
2.28600	4388
2.28667	4387
2.28733	4386
2.28800	4384
2.28867	4383
2.28933	4382
2.29000	4381
2.29067	4379
2.29133	4378
2.29200	4377
2.29267	4376
2.29333	4375
2.29400	4374
2.29467	4373
2.29533	4372
2.29600	4371
2.29667	4370
2.29733	4369
2.29800	4368
2.29867	4367
2.29933	4366
2.30000	4365
2.30067	4364
2.30133	4363
2.30200	4362
2.30267	4361
2.30333	4361
2.30400	4360
2.30467	4359
2.30533	4359
2.30600	4358
2.30667	4357
2.30733	4357
2.30800	4356
2.30867	4355
2.30933	4355
2.31000	4354
2.31067	4354
2.31133	4353
2.31200	4353
2.31267	4353
2.31333	4352
2.31400	4352
2.31467	4352
2.31533	4351
2.31600	4351
2.31667	4351
2.31733	4351
2.31800	4351
2.31867	4351
2.31933	4351
2.32000	4351
2.32067	4351
2.32133	4351
2.32200	4351
2.32267	4351
2.32333	4352
2.32400	4352
2.32467	4352
2.32533	4352
2.32600	4353
2.32667	4353
2.32733	4353
2.32800	4354
2.32867	4354
2.32933	4354
2.33000	4355
2.33067	4355
2.33133	4355
2.33200	4356
2.33267	4356
2.33333	4356
2.33400	4357
2.33467	4357
2.33533	4358
2.33600	4358
2.33667	4358
2.33733	4359
2.33800	4360
2.33867	4360
2.33933	4360
2.34000	4361
2.34067	4361
2.34133	4362
2.34200	4363
2.34267	4363
2.34333	4364
2.34400	4364
2.34467	4365
2.34533	4365
2.34600	4366
2.34667	4366
2.34733	4367
2.34800	4368
2.34867	4368
2.34933	4369
2.35000	4369
2.35067	4370
2.35133	4370
2.35200	4371
2.35267	4371
2.35333	4372
2.35400	4372
2.35467	4373
2.35533	4373
2.35600	4374
2.35667	4374
2.35733	4375
2.35800	4375
2.35867	4376
2.35933	4376
2.36000	4376
2.36067	4377
2.36133	4377
2.36200	4378
2.36267	4378
2.36333	4378
2.36400	4379
2.36467	4379
2.36533	4380
2.36600	4380
2.36667	4380
2.36733	4381
2.36800	4381
2.36867	4381
2.36933	4382
2.37000	4382
2.37067	4382
2.37133	4382
2.37200	4383
2.37267	4383
2.37333	4383
2.37400	4383
2.37467	4383
2.37533	4383
2.37600	4384
2.37667	4384
2.37733	4384
2.37800	4384
2.37867	4384
2.37933	4384
2.38000	4384
2.38067	4383
2.38133	4383
2.38200	4383
2.38267	4383
2.38333	4383
2.38400	4383
2.38467	4383
2.38533	4382
2.38600	4382
2.38667	4382
2.38733	4381
2.38800	4381
2.38867	4381
2.38933	4380
2.39000	4380
2.39067	4380
2.39133	4379
2.39200	4379
2.39267	4378
2.39333	4378
2.39400	4377
2.39467	4377
2.39533	4376
2.39600	4376
2.39667	4375
2.39733	4375
2.39800	4374
2.39867	4374
2.39933	4374
2.40000	4373
2.40067	4373
2.40133	4372
2.40200	4372
2.40267	4371
2.40333	4371
2.40400	4370
2.40467	4370
2.40533	4369
2.40600	4369
2.40667	4369
2.40733	4368
2.40800	4368
2.40867	4367
2.40933	4367
2.41000	4366
2.41067	4366
2.41133	4365
2.41200	4365
2.41267	4364
2.41333	4364
2.41400	4363
2.41467	4363
2.41533	4362
2.41600	4361
2.41667	4361
2.41733	4360
2.41800	4359
2.41867	4359
2.41933	4358
2.42000	4357
2.42067	4356
2.42133	4355
2.42200	4355
2.42267	4354
2.42333	4353
2.42400	4352
2.42467	4351
2.42533	4350
2.42600	4349
2.42667	4348
2.42733	4347
2.42800	4346
2.42867	4345
2.42933	4344
2.43000	4343
2.43067	4342
2.43133	4341
2.43200	4340
2.43267	4339
2.43333	4338
2.43400	4337
2.43467	4336
2.43533	4335
2.43600	4334
2.43667	4332
2.43733	4331
2.43800	4330
2.43867	4329
2.43933	4327
2.44000	4326
2.44067	4324
2.44133	4323
2.44200	4321
2.44267	4320
2.44333	4318
2.44400	4316
2.44467	4315
2.44533	4313
2.44600	4311
2.44667	4310
2.44733	4308
2.44800	4306
2.44867	4304
2.44933	4302
2.45000	4301
2.45067	4299
2.45133	4297
2.45200	4295
2.45267	4293
2.45333	4291
2.45400	4290
2.45467	4288
2.45533	4286
2.45600	4284
2.45667	4282
2.45733	4280
2.45800	4278
2.45867	4276
2.45933	4275
2.46000	4273
2.46067	4271
2.46133	4269
2.46200	4267
2.46267	4266
2.46333	4264
2.46400	4262
2.46467	4260
2.46533	4258
2.46600	4257
2.46667	4255
2.46733	4253
2.46800	4251
2.46867	4250
2.46933	4248
2.47000	4246
2.47067	4244
2.47133	4243
2.47200	4241
2.47267	4239
2.47333	4237
2.47400	4235
2.47467	4233
2.47533	4232
2.47600	4230
2.47667	4228
2.47733	4226
2.47800	4225
2.47867	4223
2.47933	4221
2.48000	4220
2.48067	4218
2.48133	4216
2.48200	4215
2.48267	4213
2.48333	4212
2.48400	4210
2.48467	4209
2.48533	4207
2.48600	4205
2.48667	4204
2.48733	4202
2.48800	4201
2.48867	4199
2.48933	4198
2.49000	4196
2.49067	4195
2.49133	4193
2.49200	4191
2.49267	4190
2.49333	4188
2.49400	4187
2.49467	4185
2.49533	4184
2.49600	4182
2.49667	4181
2.49733	4179
2.49800	4177
2.49867	4176
2.49933	4174
2.50000	4173
2.50067	4171
2.50133	4170
2.50200	4168
2.50267	4167
2.50333	4165
2.50400	4163
2.50467	4162
2.50533	4160
2.50600	4159
2.50667	4157
2.50733	4156
2.50800	4154
2.50867	4152
2.50933	4151
2.51000	4149
2.51067	4148
2.51133	4146
2.51200	4145
2.51267	4143
2.51333	4142
2.51400	4140
2.51467	4139
2.51533	4137
2.51600	4136
2.51667	4134
2.51733	4133
2.51800	4132
2.51867	4130
2.51933	4129
2.52000	4127
2.52067	4126
2.52133	4124
2.52200	4123
2.52267	4121
2.52333	4120
2.52400	4118
2.52467	4116
2.52533	4115
2.52600	4113
2.52667	4112
2.52733	4110
2.52800	4109
2.52867	4107
2.52933	4106
2.53000	4104
2.53067	4103
2.53133	4101
2.53200	4100
2.53267	4098
2.53333	4097
2.53400	4096
2.53467	4094
2.53533	4093
2.53600	4092
2.53667	4090
2.53733	4089
2.53800	4088
2.53867	4087
2.53933	4086
2.54000	4084
2.54067	4083
2.54133	4082
2.54200	4081
2.54267	4080
2.54333	4079
2.54400	4078
2.54467	4077
2.54533	4076
2.54600	4075
2.54667	4074
2.54733	4073
2.54800	4072
2.54867	4071
2.54933	4070
2.55000	4069
2.55067	4069
2.55133	4068
2.55200	4067
2.55267	4066
2.55333	4065
2.55400	4064
2.55467	4063
2.55533	4062
2.55600	4061
2.55667	4060
2.55733	4059
2.55800	4058
2.55867	4057
2.55933	4056
2.56000	4055
2.56067	4054
2.56133	4053
2.56200	4052
2.56267	4051
2.56333	4049
2.56400	4048
2.56467	4047
2.56533	4046
2.56600	4045
2.56667	4044
2.56733	4043
2.56800	4042
2.56867	4041
2.56933	4040
2.57000	4039
2.57067	4038
2.57133	4038
2.57200	4037
2.57267	4036
2.57333	4035
2.57400	4034
2.57467	4033
2.57533	4032
2.57600	4031
2.57667	4030
2.57733	4030
2.57800	4029
2.57867	4028
2.57933	4027
2.58000	4026
2.58067	4025
2.58133	4024
2.58200	4023
2.58267	4023
2.58333	4022
2.58400	4021
2.58467	4020
2.58533	4019
2.58600	4018
2.58667	4017
2.58733	4016
2.58800	4015
2.58867	4014
2.58933	4014
2.59000	4013
2.59067	4012
2.59133	4011
2.59200	4010
2.59267	4010
2.59333	4009
2.59400	4008
2.59467	4007
2.59533	4006
2.59600	4006
2.59667	4005
2.59733	4004
2.59800	4004
2.59867	4003
2.59933	4002
2.60000	4002
2.60067	4001
2.60133	4000
2.60200	3999
2.60267	3999
2.60333	3998
2.60400	3997
2.60467	3996
2.60533	3995
2.60600	3995
2.60667	3994
2.60733	3993
2.60800	3992
2.60867	3991
2.60933	3991
2.61000	3990
2.61067	3989
2.61133	3988
2.61200	3987
2.61267	3986
2.61333	3986
2.61400	3985
2.61467	3984
2.61533	3983
2.61600	3982
2.61667	3981
2.61733	3981
2.61800	3980
2.61867	3979
2.61933	3978
2.62000	3977
2.62067	3977
2.62133	3976
2.62200	3975
2.62267	3974
2.62333	3974
2.62400	3973
2.62467	3972
2.62533	3971
2.62600	3971
2.62667	3970
2.62733	3969
2.62800	3968
2.62867	3967
2.62933	3966
2.63000	3966
2.63067	3965
2.63133	3964
2.63200	3963
2.63267	3962
2.63333	3961
2.63400	3960
2.63467	3959
2.63533	3958
2.63600	3957
2.63667	3957
2.63733	3956
2.63800	3955
2.63867	3954
2.63933	3953
2.64000	3952
2.64067	3951
2.64133	3950
2.64200	3949
2.64267	3947
2.64333	3946
2.64400	3945
2.64467	3944
2.64533	3943
2.64600	3942
2.64667	3941
2.64733	3940
2.64800	3939
2.64867	3938
2.64933	3936
2.65000	3935
2.65067	3934
2.65133	3933
2.65200	3932
2.65267	3931
2.65333	3930
2.65400	3929
2.65467	3928
2.65533	3927
2.65600	3926
2.65667	3925
2.65733	3924
2.65800	3923
2.65867	3922
2.65933	3921
2.66000	3920
2.66067	3919
2.66133	3918
2.66200	3917
2.66267	3916
2.66333	3915
2.66400	3914
2.66467	3913
2.66533	3912
2.66600	3911
2.66667	3910
2.66733	3909
2.66800	3908
2.66867	3907
2.66933	3906
2.67000	3905
2.67067	3904
2.67133	3903
2.67200	3902
2.67267	3901
2.67333	3900
2.67400	3899
2.67467	3898
2.67533	3897
2.67600	3896
2.67667	3895
2.67733	3894
2.67800	3893
2.67867	3891
2.67933	3890
2.68000	3889
2.68067	3888
2.68133	3887
2.68200	3886
2.68267	3885
2.68333	3884
2.68400	3883
2.68467	3882
2.68533	3881
2.68600	3880
2.68667	3879
2.68733	3878
2.68800	3877
2.68867	3876
2.68933	3876
2.69000	3875
2.69067	3874
2.69133	3873
2.69200	3872
2.69267	3871
2.69333	3870
2.69400	3869
2.69467	3868
2.69533	3867
2.69600	3866
2.69667	3865
2.69733	3864
2.69800	3863
2.69867	3861
2.69933	3860
2.70000	3859
2.70067	3858
2.70133	3857
2.70200	3856
2.70267	3855
2.70333	3854
2.70400	3853
2.70467	3852
2.70533	3852
2.70600	3851
2.70667	3850
2.70733	3849
2.70800	3848
2.70867	3847
2.70933	3846
2.71000	3845
2.71067	3845
2.71133	3844
2.71200	3843
2.71267	3842
2.71333	3842
2.71400	3841
2.71467	3840
2.71533	3840
2.71600	3839
2.71667	3839
2.71733	3838
2.71800	3837
2.71867	3837
2.71933	3836
2.72000	3836
2.72067	3835
2.72133	3835
2.72200	3834
2.72267	3833
2.72333	3833
2.72400	3832
2.72467	3832
2.72533	3831
2.72600	3831
2.72667	3831
2.72733	3830
2.72800	3830
2.72867	3829
2.72933	3829
2.73000	3829
2.73067	3829
2.73133	3828
2.73200	3828
2.73267	3828
2.73333	3828
2.73400	3827
2.73467	3827
2.73533	3827
2.73600	3827
2.73667	3826
2.73733	3826
2.73800	3826
2.73867	3826
2.73933	3826
2.74000	3825
2.74067	3825
2.74133	3825
2.74200	3825
2.74267	3825
2.74333	3825
2.74400	3824
2.74467	3824
2.74533	3824
2.74600	3824
2.74667	3824
2.74733	3824
2.74800	3823
2.74867	3823
2.74933	3823
2.75000	3823
2.75067	3823
2.75133	3823
2.75200	3823
2.75267	3823
2.75333	3823
2.75400	3823
2.75467	3823
2.75533	3823
2.75600	3823
2.75667	3823
2.75733	3823
2.75800	3823
2.75867	3823
2.75933	3823
2.76000	3823
2.76067	3823
2.76133	3823
2.76200	3823
2.76267	3823
2.76333	3824
2.76400	3824
2.76467	3824
2.76533	3825
2.76600	3825
2.76667	3825
2.76733	3826
2.76800	3826
2.76867	3827
2.76933	3828
2.77000	3828
2.77067	3829
2.77133	3830
2.77200	3830
2.77267	3831
2.77333	3832
2.77400	3833
2.77467	3834
2.77533	3835
2.77600	3836
2.77667	3837
2.77733	3838
2.77800	3840
2.77867	3841
2.77933	3842
2.78000	3844
2.78067	3845
2.78133	3846
2.78200	3848
2.78267	3850
2.78333	3851
2.78400	3853
2.78467	3855
2.78533	3857
2.78600	3858
2.78667	3860
2.78733	3862
2.78800	3864
2.78867	3866
2.78933	3869
2.79000	3871
2.79067	3873
2.79133	3875
2.79200	3878
2.79267	3880
2.79333	3883
2.79400	3885
2.79467	3888
2.79533	3891
2.79600	3894
2.79667	3897
2.79733	3900
2.79800	3903
2.79867	3906
2.79933	3909
2.80000	3912
2.80067	3915
2.80133	3919
2.80200	3922
2.80267	3925
2.80333	3929
2.80400	3932
2.80467	3936
2.80533	3940
2.80600	3943
2.80667	3947
2.80733	3951
2.80800	3954
2.80867	3958
2.80933	3962
2.81000	3966
2.81067	3969
2.81133	3973
2.81200	3977
2.81267	3980
2.81333	3984
2.81400	3988
2.81467	3991
2.81533	3995
2.81600	3998
2.81667	4002
2.81733	4005
2.81800	4008
2.81867	4012
2.81933	4015
2.82000	4018
2.82067	4021
2.82133	4024
2.82200	4027
2.82267	4029
2.82333	4032
2.82400	4034
2.82467	4037
2.82533	4039
2.82600	4041
2.82667	4043
2.82733	4045
2.82800	4047
2.82867	4048
2.82933	4050
2.83000	4051
2.83067	4053
2.83133	4054
2.83200	4055
2.83267	4055
2.83333	4056
2.83400	4057
2.83467	4057
2.83533	4057
2.83600	4057
2.83667	4057
2.83733	4057
2.83800	4057
2.83867	4057
2.83933	4057
2.84000	4056
2.84067	4055
2.84133	4055
2.84200	4054
2.84267	4053
2.84333	4052
2.84400	4051
2.84467	4049
2.84533	4048
2.84600	4046
2.84667	4045
2.84733	4043
2.84800	4041
2.84867	4040
2.84933	4038
2.85000	4036
2.85067	4034
2.85133	4032
2.85200	4030
2.85267	4028
2.85333	4026
2.85400	4023
2.85467	4021
2.85533	4019
2.85600	4016
2.85667	4014
2.85733	4012
2.85800	4009
2.85867	4007
2.85933	4005
2.86000	4002
2.86067	4000
2.86133	3997
2.86200	3995
2.86267	3992
2.86333	3990
2.86400	3988
2.86467	3985
2.86533	3983
2.86600	3980
2.86667	3978
2.86733	3976
2.86800	3973
2.86867	3971
2.86933	3969
2.87000	3967
2.87067	3965
2.87133	3962
2.87200	3960
2.87267	3958
2.87333	3956
2.87400	3954
2.87467	3952
2.87533	3950
2.87600	3948
2.87667	3946
2.87733	3944
2.87800	3942
2.87867	3940
2.87933	3938
2.88000	3936
2.88067	3935
2.88133	3933
2.88200	3931
2.88267	3929
2.88333	3928
2.88400	3926
2.88467	3924
2.88533	3923
2.88600	3921
2.88667	3920
2.88733	3919
2.88800	3917
2.88867	3916
2.88933	3915
2.89000	3914
2.89067	3913
2.89133	3912
2.89200	3911
2.89267	3910
2.89333	3909
2.89400	3908
2.89467	3907
2.89533	3906
2.89600	3905
2.89667	3904
2.89733	3904
2.89800	3903
2.89867	3902
2.89933	3901
2.90000	3901
2.90067	3900
2.90133	3899
2.90200	3899
2.90267	3898
2.90333	3897
2.90400	3896
2.90467	3895
2.90533	3895
2.90600	3894
2.90667	3893
2.90733	3892
2.90800	3891
2.90867	3890
2.90933	3889
2.91000	3888
2.91067	3887
2.91133	3886
2.91200	3885
2.91267	3884
2.91333	3882
2.91400	3881
2.91467	3879
2.91533	3878
2.91600	3876
2.91667	3874
2.91733	3872
2.91800	3870
2.91867	3868
2.91933	3866
2.92000	3864
2.92067	3862
2.92133	3859
2.92200	3857
2.92267	3854
2.92333	3852
2.92400	3849
2.92467	3846
2.92533	3843
2.92600	3840
2.92667	3837
2.92733	3834
2.92800	3831
2.92867	3827
2.92933	3824
2.93000	3821
2.93067	3817
2.93133	3813
2.93200	3810
2.93267	3806
2.93333	3803
2.93400	3799
2.93467	3795
2.93533	3791
2.93600	3788
2.93667	3784
2.93733	3780
2.93800	3776
2.93867	3772
2.93933	3768
2.94000	3764
2.94067	3760
2.94133	3757
2.94200	3753
2.94267	3749
2.94333	3745
2.94400	3741
2.94467	3737
2.94533	3733
2.94600	3729
2.94667	3725
2.94733	3721
2.94800	3717
2.94867	3713
2.94933	3709
2.95000	3705
2.95067	3701
2.95133	3697
2.95200	3694
2.95267	3690
2.95333	3686
2.95400	3682
2.95467	3679
2.95533	3675
2.95600	3672
2.95667	3668
2.95733	3664
2.95800	3661
2.95867	3657
2.95933	3654
2.96000	3650
2.96067	3647
2.96133	3644
2.96200	3640
2.96267	3637
2.96333	3634
2.96400	3631
2.96467	3627
2.96533	3624
2.96600	3621
2.96667	3618
2.96733	3615
2.96800	3612
2.96867	3609
2.96933	3606
2.97000	3604
2.97067	3601
2.97133	3598
2.97200	3595
2.97267	3593
2.97333	3590
2.97400	3587
2.97467	3585
2.97533	3582
2.97600	3580
2.97667	3577
2.97733	3574
2.97800	3572
2.97867	3570
2.97933	3567
2.98000	3565
2.98067	3562
2.98133	3560
2.98200	3558
2.98267	3556
2.98333	3553
2.98400	3551
2.98467	3549
2.98533	3547
2.98600	3545
2.98667	3543
2.98733	3541
2.98800	3539
2.98867	3537
2.98933	3535
2.99000	3533
2.99067	3531
2.99133	3530
2.99200	3528
2.99267	3526
2.99333	3524
2.99400	3522
2.99467	3521
2.99533	3519
2.99600	3517
2.99667	3515
2.99733	3514
2.99800	3512
2.99867	3510
2.99933	3508
3.00000	3507
3.00067	3505
3.00133	3503
3.00200	3502
3.00267	3500
3.00333	3499
3.00400	3497
3.00467	3496
3.00533	3494
3.00600	3493
3.00667	3491
3.00733	3489
3.00800	3488
3.00867	3486
3.00933	3485
3.01000	3483
3.01067	3482
3.01133	3480
3.01200	3479
3.01267	3477
3.01333	3476
3.01400	3474
3.01467	3473
3.01533	3471
3.01600	3470
3.01667	3468
3.01733	3467
3.01800	3466
3.01867	3464
3.01933	3463
3.02000	3461
3.02067	3460
3.02133	3458
3.02200	3457
3.02267	3456
3.02333	3454
3.02400	3453
3.02467	3451
3.02533	3450
3.02600	3449
3.02667	3447
3.02733	3446
3.02800	3444
3.02867	3443
3.02933	3442
3.03000	3440
3.03067	3439
3.03133	3438
3.03200	3436
3.03267	3435
3.03333	3434
3.03400	3432
3.03467	3431
3.03533	3430
3.03600	3429
3.03667	3427
3.03733	3426
3.03800	3425
3.03867	3424
3.03933	3423
3.04000	3421
3.04067	3420
3.04133	3419
3.04200	3418
3.04267	3417
3.04333	3416
3.04400	3415
3.04467	3415
3.04533	3414
3.04600	3413
3.04667	3412
3.04733	3412
3.04800	3411
3.04867	3410
3.04933	3410
3.05000	3409
3.05067	3409
3.05133	3408
3.05200	3408
3.05267	3407
3.05333	3407
3.05400	3407
3.05467	3406
3.05533	3406
3.05600	3406
3.05667	3406
3.05733	3406
3.05800	3406
3.05867	3406
3.05933	3406
3.06000	3406
3.06067	3407
3.06133	3407
3.06200	3407
3.06267	3408
3.06333	3408
3.06400	3409
3.06467	3410
3.06533	3410
3.06600	3411
3.06667	3412
3.06733	3412
3.06800	3413
3.06867	3414
3.06933	3415
3.07000	3416
3.07067	3417
3.07133	3417
3.07200	3418
3.07267	3419
3.07333	3420
3.07400	3421
3.07467	3422
3.07533	3423
3.07600	3424
3.07667	3426
3.07733	3427
3.07800	3428
3.07867	3429
3.07933	3430
3.08000	3431
3.08067	3432
3.08133	3434
3.08200	3435
3.08267	3436
3.08333	3437
3.08400	3438
3.08467	3439
3.08533	3440
3.08600	3441
3.08667	3442
3.08733	3444
3.08800	3445
3.08867	3446
3.08933	3447
3.09000	3448
3.09067	3448
3.09133	3449
3.09200	3450
3.09267	3451
3.09333	3452
3.09400	3452
3.09467	3453
3.09533	3453
3.09600	3454
3.09667	3454
3.09733	3455
3.09800	3455
3.09867	3455
3.09933	3455
3.10000	3455
3.10067	3455
3.10133	3455
3.10200	3454
3.10267	3454
3.10333	3453
3.10400	3453
3.10467	3452
3.10533	3452
3.10600	3451
3.10667	3450
3.10733	3449
3.10800	3448
3.10867	3447
3.10933	3446
3.11000	3445
3.11067	3443
3.11133	3442
3.11200	3441
3.11267	3439
3.11333	3438
3.11400	3436
3.11467	3435
3.11533	3433
3.11600	3431
3.11667	3430
3.11733	3428
3.11800	3426
3.11867	3424
3.11933	3422
3.12000	3420
3.12067	3418
3.12133	3416
3.12200	3414
3.12267	3412
3.12333	3410
3.12400	3408
3.12467	3406
3.12533	3404
3.12600	3402
3.12667	3399
3.12733	3397
3.12800	3395
3.12867	3393
3.12933	3390
3.13000	3388
3.13067	3386
3.13133	3384
3.13200	3381
3.13267	3379
3.13333	3377
3.13400	3375
3.13467	3373
3.13533	3371
3.13600	3369
3.13667	3367
3.13733	3364
3.13800	3362
3.13867	3360
3.13933	3358
3.14000	3356
3.14067	3354
3.14133	3352
3.14200	3350
3.14267	3348
3.14333	3345
3.14400	3343
3.14467	3341
3.14533	3339
3.14600	3337
3.14667	3335
3.14733	3333
3.14800	3331
3.14867	3329
3.14933	3327
3.15000	3325
3.15067	3323
3.15133	3321
3.15200	3319
3.15267	3317
3.15333	3315
3.15400	3313
3.15467	3312
3.15533	3310
3.15600	3308
3.15667	3306
3.15733	3304
3.15800	3303
3.15867	3301
3.15933	3299
3.16000	3298
3.16067	3296
3.16133	3295
3.16200	3293
3.16267	3292
3.16333	3290
3.16400	3289
3.16467	3287
3.16533	3286
3.16600	3284
3.16667	3283
3.16733	3282
3.16800	3280
3.16867	3279
3.16933	3278
3.17000	3277
3.17067	3276
3.17133	3274
3.17200	3273
3.17267	3272
3.17333	3271
3.17400	3270
3.17467	3269
3.17533	3267
3.17600	3266
3.17667	3265
3.17733	3264
3.17800	3263
3.17867	3262
3.17933	3261
3.18000	3260
3.18067	3259
3.18133	3258
3.18200	3256
3.18267	3255
3.18333	3254
3.18400	3253
3.18467	3252
3.18533	3251
3.18600	3250
3.18667	3249
3.18733	3248
3.18800	3247
3.18867	3246
3.18933	3245
3.19000	3244
3.19067	3243
3.19133	3242
3.19200	3241
3.19267	3240
3.19333	3240
3.19400	3239
3.19467	3238
3.19533	3237
3.19600	3236
3.19667	3235
3.19733	3234
3.19800	3233
3.19867	3232
3.19933	3231
3.20000	3231
3.20067	3230
3.20133	3229
3.20200	3228
3.20267	3227
3.20333	3226
3.20400	3225
3.20467	3225
3.20533	3224
3.20600	3223
3.20667	3222
3.20733	3221
3.20800	3221
3.20867	3220
3.20933	3219
3.21000	3218
3.21067	3217
3.21133	3216
3.21200	3216
3.21267	3215
3.21333	3214
3.21400	3213
3.21467	3212
3.21533	3211
3.21600	3211
3.21667	3210
3.21733	3209
3.21800	3208
3.21867	3207
3.21933	3207
3.22000	3206
3.22067	3205
3.22133	3204
3.22200	3203
3.22267	3203
3.22333	3202
3.22400	3201
3.22467	3201
3.22533	3200
3.22600	3199
3.22667	3199
3.22733	3198
3.22800	3198
3.22867	3197
3.22933	3197
3.23000	3196
3.23067	3196
3.23133	3195
3.23200	3195
3.23267	3194
3.23333	3194
3.23400	3193
3.23467	3193
3.23533	3192
3.23600	3192
3.23667	3191
3.23733	3191
3.23800	3190
3.23867	3190
3.23933	3190
3.24000	3189
3.24067	3189
3.24133	3189
3.24200	3188
3.24267	3188
3.24333	3188
3.24400	3187
3.24467	3187
3.24533	3187
3.24600	3186
3.24667	3186
3.24733	3186
3.24800	3186
3.24867	3185
3.24933	3185
3.25000	3185
3.25067	3185
3.25133	3184
3.25200	3184
3.25267	3184
3.25333	3183
3.25400	3183
3.25467	3183
3.25533	3182
3.25600	3182
3.25667	3181
3.25733	3181
3.25800	3180
3.25867	3180
3.25933	3179
3.26000	3179
3.26067	3178
3.26133	3178
3.26200	3177
3.26267	3176
3.26333	3176
3.26400	3175
3.26467	3175
3.26533	3174
3.26600	3174
3.26667	3173
3.26733	3173
3.26800	3172
3.26867	3172
3.26933	3171
3.27000	3171
3.27067	3170
3.27133	3170
3.27200	3169
3.27267	3169
3.27333	3168
3.27400	3168
3.27467	3167
3.27533	3166
3.27600	3166
3.27667	3165
3.27733	3165
3.27800	3164
3.27867	3164
3.27933	3163
3.28000	3163
3.28067	3162
3.28133	3162
3.28200	3162
3.28267	3161
3.28333	3161
3.28400	3160
3.28467	3160
3.28533	3159
3.28600	3159
3.28667	3159
3.28733	3158
3.28800	3158
3.28867	3158
3.28933	3157
3.29000	3157
3.29067	3157
3.29133	3156
3.29200	3156
3.29267	3155
3.29333	3155
3.29400	3155
3.29467	3154
3.29533	3154
3.29600	3154
3.29667	3154
3.29733	3153
3.29800	3153
3.29867	3153
3.29933	3152
3.30000	3152
3.30067	3152
3.30133	3152
3.30200	3151
3.30267	3151
3.30333	3151
3.30400	3150
3.30467	3150
3.30533	3150
3.30600	3149
3.30667	3149
3.30733	3149
3.30800	3148
3.30867	3148
3.30933	3148
3.31000	3148
3.31067	3147
3.31133	3147
3.31200	3147
3.31267	3147
3.31333	3146
3.31400	3146
3.31467	3146
3.31533	3145
3.31600	3145
3.31667	3145
3.31733	3144
3.31800	3144
3.31867	3144
3.31933	3144
3.32000	3143
3.32067	3143
3.32133	3142
3.32200	3142
3.32267	3142
3.32333	3141
3.32400	3141
3.32467	3141
3.32533	3140
3.32600	3140
3.32667	3140
3.32733	3139
3.32800	3139
3.32867	3139
3.32933	3138
3.33000	3138
3.33067	3138
3.33133	3137
3.33200	3137
3.33267	3136
3.33333	3136
3.33400	3136
3.33467	3135
3.33533	3135
3.33600	3135
3.33667	3134
3.33733	3134
3.33800	3134
3.33867	3134
3.33933	3133
3.34000	3133
3.34067	3133
3.34133	3133
3.34200	3132
3.34267	3132
3.34333	3132
3.34400	3131
3.34467	3131
3.34533	3131
3.34600	3131
3.34667	3131
3.34733	3130
3.34800	3130
3.34867	3130
3.34933	3130
3.35000	3129
3.35067	3129
3.35133	3129
3.35200	3129
3.35267	3129
3.35333	3129
3.35400	3129
3.35467	3129
3.35533	3129
3.35600	3129
3.35667	3129
3.35733	3129
3.35800	3129
3.35867	3129
3.35933	3129
3.36000	3129
3.36067	3129
3.36133	3130
3.36200	3130
3.36267	3130
3.36333	3130
3.36400	3130
3.36467	3130
3.36533	3130
3.36600	3130
3.36667	3131
3.36733	3131
3.36800	3131
3.36867	3131
3.36933	3132
3.37000	3132
3.37067	3132
3.37133	3133
3.37200	3133
3.37267	3133
3.37333	3134
3.37400	3134
3.37467	3135
3.37533	3135
3.37600	3136
3.37667	3136
3.37733	3137
3.37800	3138
3.37867	3138
3.37933	3139
3.38000	3139
3.38067	3140
3.38133	3140
3.38200	3141
3.38267	3142
3.38333	3143
3.38400	3143
3.38467	3144
3.38533	3145
3.38600	3145
3.38667	3146
3.38733	3147
3.38800	3148
3.38867	3148
3.38933	3149
3.39000	3150
3.39067	3151
3.39133	3151
3.39200	3152
3.39267	3153
3.39333	3154
3.39400	3155
3.39467	3156
3.39533	3157
3.39600	3158
3.39667	3158
3.39733	3160
3.39800	3161
3.39867	3162
3.39933	3163
3.40000	3164
3.40067	3165
3.40133	3166
3.40200	3168
3.40267	3169
3.40333	3170
3.40400	3172
3.40467	3173
3.40533	3174
3.40600	3176
3.40667	3177
3.40733	3179
3.40800	3180
3.40867	3182
3.40933	3184
3.41000	3185
3.41067	3187
3.41133	3188
3.41200	3190
3.41267	3192
3.41333	3194
3.41400	3196
3.41467	3197
3.41533	3199
3.41600	3201
3.41667	3203
3.41733	3205
3.41800	3207
3.41867	3209
3.41933	3211
3.42000	3214
3.42067	3216
3.42133	3218
3.42200	3221
3.42267	3223
3.42333	3225
3.42400	3228
3.42467	3231
3.42533	3233
3.42600	3236
3.42667	3239
3.42733	3242
3.42800	3245
3.42867	3248
3.42933	3251
3.43000	3254
3.43067	3258
3.43133	3261
3.43200	3265
3.43267	3268
3.43333	3272
3.43400	3276
3.43467	3280
3.43533	3284
3.43600	3288
3.43667	3292
3.43733	3296
3.43800	3301
3.43867	3305
3.43933	3310
3.44000	3314
3.44067	3319
3.44133	3324
3.44200	3329
3.44267	3334
3.44333	3340
3.44400	3345
3.44467	3350
3.44533	3356
3.44600	3362
3.44667	3367
3.44733	3373
3.44800	3379
3.44867	3385
3.44933	3391
3.45000	3398
3.45067	3404
3.45133	3411
3.45200	3417
3.45267	3424
3.45333	3431
3.45400	3438
3.45467	3445
3.45533	3453
3.45600	3460
3.45667	3468
3.45733	3475
3.45800	3483
3.45867	3491
3.45933	3499
3.46000	3507
3.46067	3515
3.46133	3523
3.46200	3532
3.46267	3540
3.46333	3548
3.46400	3557
3.46467	3566
3.46533	3574
3.46600	3583
3.46667	3592
3.46733	3601
3.46800	3609
3.46867	3618
3.46933	3627
3.47000	3636
3.47067	3646
3.47133	3655
3.47200	3664
3.47267	3673
3.47333	3683
3.47400	3692
3.47467	3702
3.47533	3711
3.47600	3721
3.47667	3730
3.47733	3740
3.47800	3749
3.47867	3759
3.47933	3769
3.48000	3778
3.48067	3788
3.48133	3798
3.48200	3808
3.48267	3817
3.48333	3827
3.48400	3837
3.48467	3846
3.48533	3856
3.48600	3866
3.48667	3876
3.48733	3886
3.48800	3896
3.48867	3906
3.48933	3916
3.49000	3926
3.49067	3936
3.49133	3946
3.49200	3957
3.49267	3967
3.49333	3978
3.49400	3988
3.49467	3999
3.49533	4010
3.49600	4021
3.49667	4033
3.49733	4044
3.49800	4056
3.49867	4068
3.49933	4080
3.50000	4092
3.50067	4105
3.50133	4118
3.50200	4131
3.50267	4145
3.50333	4159
3.50400	4173
3.50467	4188
3.50533	4203
3.50600	4218
3.50667	4234
3.50733	4251
3.50800	4268
3.50867	4285
3.50933	4303
3.51000	4322
3.51067	4341
3.51133	4361
3.51200	4381
3.51267	4402
3.51333	4424
3.51400	4446
3.51467	4469
3.51533	4493
3.51600	4518
3.51667	4543
3.51733	4569
3.51800	4596
3.51867	4623
3.51933	4652
3.52000	4681
3.52067	4711
3.52133	4742
3.52200	4774
3.52267	4806
3.52333	4840
3.52400	4874
3.52467	4909
3.52533	4945
3.52600	4982
3.52667	5020
3.52733	5058
3.52800	5098
3.52867	5138
3.52933	5179
3.53000	5221
3.53067	5263
3.53133	5306
3.53200	5350
3.53267	5395
3.53333	5441
3.53400	5487
3.53467	5534
3.53533	5581
3.53600	5629
3.53667	5678
3.53733	5727
3.53800	5777
3.53867	5827
3.53933	5877
3.54000	5928
3.54067	5979
3.54133	6030
3.54200	6082
3.54267	6134
3.54333	6186
3.54400	6237
3.54467	6289
3.54533	6341
3.54600	6393
3.54667	6444
3.54733	6496
3.54800	6547
3.54867	6598
3.54933	6648
3.55000	6698
3.55067	6748
3.55133	6797
3.55200	6845
3.55267	6893
3.55333	6940
3.55400	6987
3.55467	7032
3.55533	7077
3.55600	7121
3.55667	7164
3.55733	7207
3.55800	7248
3.55867	7288
3.55933	7327
3.56000	7364
3.56067	7401
3.56133	7436
3.56200	7470
3.56267	7503
3.56333	7535
3.56400	7565
3.56467	7593
3.56533	7621
3.56600	7647
3.56667	7671
3.56733	7695
3.56800	7716
3.56867	7736
3.56933	7755
3.57000	7772
3.57067	7788
3.57133	7802
3.57200	7815
3.57267	7826
3.57333	7835
3.57400	7844
3.57467	7850
3.57533	7855
3.57600	7859
3.57667	7862
3.57733	7863
3.57800	7863
3.57867	7861
3.57933	7858
3.58000	7854
3.58067	7848
3.58133	7841
3.58200	7833
3.58267	7824
3.58333	7813
3.58400	7801
3.58467	7788
3.58533	7774
3.58600	7759
3.58667	7742
3.58733	7725
3.58800	7707
3.58867	7687
3.58933	7667
3.59000	7646
3.59067	7624
3.59133	7601
3.59200	7577
3.59267	7553
3.59333	7527
3.59400	7502
3.59467	7475
3.59533	7448
3.59600	7420
3.59667	7392
3.59733	7363
3.59800	7334
3.59867	7304
3.59933	7274
3.60000	7244
3.60067	7213
3.60133	7182
3.60200	7151
3.60267	7119
3.60333	7087
3.60400	7055
3.60467	7023
3.60533	6990
3.60600	6958
3.60667	6925
3.60733	6892
3.60800	6859
3.60867	6826
3.60933	6793
3.61000	6760
3.61067	6726
3.61133	6693
3.61200	6660
3.61267	6627
3.61333	6593
3.61400	6560
3.61467	6527
3.61533	6494
3.61600	6461
3.61667	6428
3.61733	6395
3.61800	6362
3.61867	6329
3.61933	6297
3.62000	6264
3.62067	6232
3.62133	6200
3.62200	6168
3.62267	6136
3.62333	6104
3.62400	6072
3.62467	6041
3.62533	6009
3.62600	5978
3.62667	5947
3.62733	5916
3.62800	5885
3.62867	5855
3.62933	5825
3.63000	5794
3.63067	5764
3.63133	5735
3.63200	5705
3.63267	5676
3.63333	5646
3.63400	5617
3.63467	5588
3.63533	5559
3.63600	5531
3.63667	5502
3.63733	5474
3.63800	5446
3.63867	5418
3.63933	5391
3.64000	5363
3.64067	5336
3.64133	5309
3.64200	5283
3.64267	5256
3.64333	5230
3.64400	5204
3.64467	5178
3.64533	5153
3.64600	5127
3.64667	5102
3.64733	5077
3.64800	5053
3.64867	5028
3.64933	5004
3.65000	4980
3.65067	4956
3.65133	4933
3.65200	4909
3.65267	4886
3.65333	4863
3.65400	4840
3.65467	4818
3.65533	4796
3.65600	4774
3.65667	4752
3.65733	4731
3.65800	4710
3.65867	4689
3.65933	4668
3.66000	4648
3.66067	4627
3.66133	4607
3.66200	4588
3.66267	4568
3.66333	4549
3.66400	4530
3.66467	4511
3.66533	4492
3.66600	4474
3.66667	4456
3.66733	4438
3.66800	4420
3.66867	4403
3.66933	4386
3.67000	4369
3.67067	4352
3.67133	4335
3.67200	4319
3.67267	4303
3.67333	4287
3.67400	4272
3.67467	4256
3.67533	4241
3.67600	4226
3.67667	4211
3.67733	4197
3.67800	4182
3.67867	4168
3.67933	4154
3.68000	4140
3.68067	4127
3.68133	4113
3.68200	4100
3.68267	4087
3.68333	4074
3.68400	4062
3.68467	4049
3.68533	4037
3.68600	4025
3.68667	4013
3.68733	4001
3.68800	3990
3.68867	3978
3.68933	3967
3.69000	3956
3.69067	3945
3.69133	3934
3.69200	3923
3.69267	3913
3.69333	3902
3.69400	3892
3.69467	3882
3.69533	3872
3.69600	3862
3.69667	3853
3.69733	3843
3.69800	3834
3.69867	3824
3.69933	3815
3.70000	3806
3.70067	3797
3.70133	3788
3.70200	3780
3.70267	3771
3.70333	3763
3.70400	3754
3.70467	3746
3.70533	3738
3.70600	3730
3.70667	3723
3.70733	3715
3.70800	3707
3.70867	3700
3.70933	3692
3.71000	3685
3.71067	3678
3.71133	3671
3.71200	3664
3.71267	3657
3.71333	3650
3.71400	3643
3.71467	3636
3.71533	3630
3.71600	3623
3.71667	3617
3.71733	3611
3.71800	3604
3.71867	3598
3.71933	3592
3.72000	3586
3.72067	3580
3.72133	3574
3.72200	3569
3.72267	3563
3.72333	3557
3.72400	3552
3.72467	3546
3.72533	3541
3.72600	3536
3.72667	3530
3.72733	3525
3.72800	3520
3.72867	3515
3.72933	3510
3.73000	3505
3.73067	3500
3.73133	3496
3.73200	3491
3.73267	3486
3.73333	3482
3.73400	3477
3.73467	3473
3.73533	3468
3.73600	3464
3.73667	3460
3.73733	3456
3.73800	3451
3.73867	3447
3.73933	3443
3.74000	3439
3.74067	3435
3.74133	3431
3.74200	3428
3.74267	3424
3.74333	3420
3.74400	3416
3.74467	3413
3.74533	3409
3.74600	3405
3.74667	3402
3.74733	3398
3.74800	3395
3.74867	3391
3.74933	3388
3.75000	3384
3.75067	3381
3.75133	3377
3.75200	3374
3.75267	3370
3.75333	3367
3.75400	3364
3.75467	3361
3.75533	3358
3.75600	3354
3.75667	3351
3.75733	3348
3.75800	3345
3.75867	3342
3.75933	3340
3.76000	3337
3.76067	3334
3.76133	3331
3.76200	3328
3.76267	3325
3.76333	3323
3.76400	3320
3.76467	3317
3.76533	3314
3.76600	3312
3.76667	3309
3.76733	3306
3.76800	3304
3.76867	3301
3.76933	3298
3.77000	3296
3.77067	3293
3.77133	3291
3.77200	3288
3.77267	3285
3.77333	3283
3.77400	3280
3.77467	3278
3.77533	3275
3.77600	3273
3.77667	3270
3.77733	3268
3.77800	3265
3.77867	3263
3.77933	3261
3.78000	3258
3.78067	3256
3.78133	3254
3.78200	3251
3.78267	3249
3.78333	3247
3.78400	3245
3.78467	3242
3.78533	3240
3.78600	3238
3.78667	3236
3.78733	3234
3.78800	3232
3.78867	3230
3.78933	3228
3.79000	3226
3.79067	3224
3.79133	3222
3.79200	3220
3.79267	3218
3.79333	3217
3.79400	3215
3.79467	3213
3.79533	3211
3.79600	3209
3.79667	3208
3.79733	3206
3.79800	3204
3.79867	3202
3.79933	3200
3.80000	3199
3.80067	3197
3.80133	3195
3.80200	3194
3.80267	3192
3.80333	3190
3.80400	3188
3.80467	3187
3.80533	3185
3.80600	3183
3.80667	3182
3.80733	3180
3.80800	3178
3.80867	3177
3.80933	3175
3.81000	3173
3.81067	3171
3.81133	3170
3.81200	3168
3.81267	3166
3.81333	3164
3.81400	3162
3.81467	3161
3.81533	3159
3.81600	3157
3.81667	3156
3.81733	3154
3.81800	3152
3.81867	3151
3.81933	3149
3.82000	3147
3.82067	3146
3.82133	3144
3.82200	3143
3.82267	3141
3.82333	3140
3.82400	3138
3.82467	3137
3.82533	3135
3.82600	3133
3.82667	3132
3.82733	3130
3.82800	3129
3.82867	3127
3.82933	3126
3.83000	3124
3.83067	3122
3.83133	3121
3.83200	3119
3.83267	3118
3.83333	3116
3.83400	3115
3.83467	3113
3.83533	3112
3.83600	3111
3.83667	3109
3.83733	3108
3.83800	3106
3.83867	3105
3.83933	3103
3.84000	3102
3.84067	3101
3.84133	3099
3.84200	3098
3.84267	3096
3.84333	3095
3.84400	3094
3.84467	3092
3.84533	3091
3.84600	3090
3.84667	3089
3.84733	3087
3.84800	3086
3.84867	3085
3.84933	3084
3.85000	3083
3.85067	3081
3.85133	3080
3.85200	3079
3.85267	3078
3.85333	3077
3.85400	3076
3.85467	3074
3.85533	3073
3.85600	3072
3.85667	3071
3.85733	3070
3.85800	3069
3.85867	3068
3.85933	3067
3.86000	3066
3.86067	3064
3.86133	3063
3.86200	3062
3.86267	3061
3.86333	3060
3.86400	3059
3.86467	3058
3.86533	3057
3.86600	3055
3.86667	3054
3.86733	3053
3.86800	3052
3.86867	3051
3.86933	3050
3.87000	3049
3.87067	3048
3.87133	3047
3.87200	3046
3.87267	3045
3.87333	3044
3.87400	3043
3.87467	3042
3.87533	3041
3.87600	3040
3.87667	3039
3.87733	3038
3.87800	3037
3.87867	3036
3.87933	3035
3.88000	3035
3.88067	3034
3.88133	3033
3.88200	3032
3.88267	3031
3.88333	3030
3.88400	3029
3.88467	3029
3.88533	3028
3.88600	3027
3.88667	3026
3.88733	3025
3.88800	3024
3.88867	3024
3.88933	3023
3.89000	3022
3.89067	3021
3.89133	3021
3.89200	3020
3.89267	3019
3.89333	3019
3.89400	3018
3.89467	3017
3.89533	3016
3.89600	3016
3.89667	3015
3.89733	3014
3.89800	3013
3.89867	3012
3.89933	3012
3.90000	3011
3.90067	3010
3.90133	3009
3.90200	3009
3.90267	3008
3.90333	3007
3.90400	3007
3.90467	3006
3.90533	3006
3.90600	3005
3.90667	3004
3.90733	3004
3.90800	3003
3.90867	3003
3.90933	3003
3.91000	3002
3.91067	3002
3.91133	3001
3.91200	3001
3.91267	3000
3.91333	3000
3.91400	3000
3.91467	2999
3.91533	2999
3.91600	2999
3.91667	2998
3.91733	2998
3.91800	2997
3.91867	2997
3.91933	2997
3.92000	2996
3.92067	2996
3.92133	2996
3.92200	2995
3.92267	2995
3.92333	2994
3.92400	2994
3.92467	2993
3.92533	2993
3.92600	2992
3.92667	2992
3.92733	2991
3.92800	2991
3.92867	2990
3.92933	2990
3.93000	2989
3.93067	2989
3.93133	2988
3.93200	2988
3.93267	2987
3.93333	2987
3.93400	2986
3.93467	2986
3.93533	2985
3.93600	2985
3.93667	2985
3.93733	2984
3.93800	2984
3.93867	2983
3.93933	2983
3.94000	2983
3.94067	2982
3.94133	2982
3.94200	2981
3.94267	2981
3.94333	2981
3.94400	2980
3.94467	2980
3.94533	2980
3.94600	2979
3.94667	2979
3.94733	2978
3.94800	2978
3.94867	2978
3.94933	2977
3.95000	2977
3.95067	2977
3.95133	2976
3.95200	2976
3.95267	2976
3.95333	2975
3.95400	2975
3.95467	2975
3.95533	2975
3.95600	2974
3.95667	2974
3.95733	2973
3.95800	2973
3.95867	2973
3.95933	2972
3.96000	2972
3.96067	2971
3.96133	2971
3.96200	2970
3.96267	2970
3.96333	2969
3.96400	2969
3.96467	2968
3.96533	2968
3.96600	2967
3.96667	2967
3.96733	2967
3.96800	2966
3.96867	2966
3.96933	2965
3.97000	2965
3.97067	2965
3.97133	2964
3.97200	2964
3.97267	2963
3.97333	2963
3.97400	2963
3.97467	2962
3.97533	2962
3.97600	2962
3.97667	2961
3.97733	2961
3.97800	2961
3.97867	2960
3.97933	2960
3.98000	2960
3.98067	2960
3.98133	2960
3.98200	2960
3.98267	2959
3.98333	2959
3.98400	2959
3.98467	2959
3.98533	2959
3.98600	2959
3.98667	2959
3.98733	2959
3.98800	2960
3.98867	2960
3.98933	2960
3.99000	2960
3.99067	2960
3.99133	2960
3.99200	2961
3.99267	2961
3.99333	2961
3.99400	2962
3.99467	2962
3.99533	2962
3.99600	2963
3.99667	2963
3.99733	2964
3.99800	2965
3.99867	2965
3.99933	2966
4.00000	2967
4.00067	2967
4.00133	2968
4.00200	2969
4.00267	2970
4.00333	2971
4.00400	2972
4.00467	2973
4.00533	2974
4.00600	2975
4.00667	2976
4.00733	2977
4.00800	2979
4.00867	2980
4.00933	2981
4.01000	2983
4.01067	2984
4.01133	2986
4.01200	2987
4.01267	2989
4.01333	2991
4.01400	2993
4.01467	2994
4.01533	2996
4.01600	2998
4.01667	3000
4.01733	3002
4.01800	3005
4.01867	3007
4.01933	3009
4.02000	3012
4.02067	3014
4.02133	3017
4.02200	3019
4.02267	3022
4.02333	3025
4.02400	3028
4.02467	3031
4.02533	3034
4.02600	3037
4.02667	3040
4.02733	3043
4.02800	3047
4.02867	3050
4.02933	3054
4.03000	3057
4.03067	3061
4.03133	3065
4.03200	3069
4.03267	3072
4.03333	3076
4.03400	3080
4.03467	3084
4.03533	3088
4.03600	3092
4.03667	3096
4.03733	3100
4.03800	3105
4.03867	3109
4.03933	3113
4.04000	3117
4.04067	3122
4.04133	3126
4.04200	3131
4.04267	3135
4.04333	3140
4.04400	3144
4.04467	3149
4.04533	3153
4.04600	3158
4.04667	3163
4.04733	3167
4.04800	3172
4.04867	3177
4.04933	3182
4.05000	3186
4.05067	3191
4.05133	3196
4.05200	3201
4.05267	3206
4.05333	3210
4.05400	3215
4.05467	3220
4.05533	3225
4.05600	3230
4.05667	3235
4.05733	3240
4.05800	3245
4.05867	3250
4.05933	3255
4.06000	3260
4.06067	3264
4.06133	3269
4.06200	3274
4.06267	3279
4.06333	3284
4.06400	3289
4.06467	3293
4.06533	3298
4.06600	3303
4.06667	3307
4.06733	3312
4.06800	3316
4.06867	3321
4.06933	3325
4.07000	3330
4.07067	3334
4.07133	3338
4.07200	3342
4.07267	3346
4.07333	3350
4.07400	3354
4.07467	3358
4.07533	3362
4.07600	3365
4.07667	3369
4.07733	3373
4.07800	3376
4.07867	3380
4.07933	3383
4.08000	3387
4.08067	3390
4.08133	3393
4.08200	3396
4.08267	3399
4.08333	3402
4.08400	3405
4.08467	3408
4.08533	3410
4.08600	3413
4.08667	3416
4.08733	3418
4.08800	3421
4.08867	3423
4.08933	3425
4.09000	3427
4.09067	3429
4.09133	3431
4.09200	3433
4.09267	3435
4.09333	3436
4.09400	3438
4.09467	3439
4.09533	3441
4.09600	3442
4.09667	3443
4.09733	3444
4.09800	3445
4.09867	3446
4.09933	3447
4.10000	3448
4.10067	3449
4.10133	3450
4.10200	3450
4.10267	3451
4.10333	3452
4.10400	3452
4.10467	3453
4.10533	3453
4.10600	3454
4.10667	3454
4.10733	3454
4.10800	3455
4.10867	3455
4.10933	3455
4.11000	3455
4.11067	3455
4.11133	3455
4.11200	3456
4.11267	3456
4.11333	3456
4.11400	3456
4.11467	3456
4.11533	3456
4.11600	3456
4.11667	3456
4.11733	3455
4.11800	3455
4.11867	3455
4.11933	3455
4.12000	3455
4.12067	3455
4.12133	3455
4.12200	3455
4.12267	3455
4.12333	3455
4.12400	3455
4.12467	3455
4.12533	3454
4.12600	3454
4.12667	3454
4.12733	3454
4.12800	3454
4.12867	3454
4.12933	3454
4.13000	3454
4.13067	3454
4.13133	3454
4.13200	3454
4.13267	3454
4.13333	3453
4.13400	3453
4.13467	3453
4.13533	3453
4.13600	3453
4.13667	3453
4.13733	3453
4.13800	3453
4.13867	3453
4.13933	3453
4.14000	3453
4.14067	3454
4.14133	3454
4.14200	3454
4.14267	3454
4.14333	3454
4.14400	3455
4.14467	3455
4.14533	3455
4.14600	3455
4.14667	3455
4.14733	3455
4.14800	3456
4.14867	3456
4.14933	3456
4.15000	3456
4.15067	3456
4.15133	3456
4.15200	3457
4.15267	3457
4.15333	3457
4.15400	3457
4.15467	3457
4.15533	3457
4.15600	3458
4.15667	3458
4.15733	3458
4.15800	3458
4.15867	3459
4.15933	3459
4.16000	3459
4.16067	3459
4.16133	3460
4.16200	3460
4.16267	3460
4.16333	3460
4.16400	3460
4.16467	3461
4.16533	3461
4.16600	3461
4.16667	3461
4.16733	3461
4.16800	3461
4.16867	3461
4.16933	3461
4.17000	3461
4.17067	3462
4.17133	3462
4.17200	3462
4.17267	3462
4.17333	3462
4.17400	3462
4.17467	3462
4.17533	3462
4.17600	3462
4.17667	3462
4.17733	3462
4.17800	3462
4.17867	3462
4.17933	3462
4.18000	3462
4.18067	3462
4.18133	3462
4.18200	3462
4.18267	3462
4.18333	3462
4.18400	3462
4.18467	3462
4.18533	3462
4.18600	3462
4.18667	3462
4.18733	3462
4.18800	3462
4.18867	3462
4.18933	3462
4.19000	3462
4.19067	3463
4.19133	3463
4.19200	3463
4.19267	3463
4.19333	3464
4.19400	3464
4.19467	3465
4.19533	3465
4.19600	3466
4.19667	3467
4.19733	3467
4.19800	3468
4.19867	3469
4.19933	3470
4.20000	3472
4.20067	3473
4.20133	3474
4.20200	3475
4.20267	3477
4.20333	3479
4.20400	3480
4.20467	3482
4.20533	3484
4.20600	3486
4.20667	3488
4.20733	3491
4.20800	3493
4.20867	3495
4.20933	3498
4.21000	3501
4.21067	3504
4.21133	3507
4.21200	3510
4.21267	3514
4.21333	3517
4.21400	3521
4.21467	3525
4.21533	3529
4.21600	3533
4.21667	3538
4.21733	3543
4.21800	3548
4.21867	3553
4.21933	3558
4.22000	3564
4.22067	3569
4.22133	3576
4.22200	3582
4.22267	3588
4.22333	3595
4.22400	3602
4.22467	3609
4.22533	3617
4.22600	3625
4.22667	3633
4.22733	3641
4.22800	3649
4.22867	3658
4.22933	3667
4.23000	3676
4.23067	3686
4.23133	3696
4.23200	3706
4.23267	3717
4.23333	3727
4.23400	3738
4.23467	3750
4.23533	3762
4.23600	3773
4.23667	3786
4.23733	3798
4.23800	3811
4.23867	3824
4.23933	3838
4.24000	3852
4.24067	3866
4.24133	3880
4.24200	3895
4.24267	3910
4.24333	3925
4.24400	3941
4.24467	3956
4.24533	3973
4.24600	3989
4.24667	4006
4.24733	4023
4.24800	4040
4.24867	4058
4.24933	4076
4.25000	4095
4.25067	4114
4.25133	4133
4.25200	4152
4.25267	4172
4.25333	4192
4.25400	4212
4.25467	4232
4.25533	4253
4.25600	4274
4.25667	4295
4.25733	4317
4.25800	4339
4.25867	4361
4.25933	4383
4.26000	4405
4.26067	4428
4.26133	4451
4.26200	4474
4.26267	4497
4.26333	4521
4.26400	4545
4.26467	4569
4.26533	4593
4.26600	4617
4.26667	4641
4.26733	4666
4.26800	4691
4.26867	4716
4.26933	4741
4.27000	4767
4.27067	4792
4.27133	4818
4.27200	4844
4.27267	4870
4.27333	4896
4.27400	4923
4.27467	4949
4.27533	4976
4.27600	5002
4.27667	5029
4.27733	5056
4.27800	5083
4.27867	5110
4.27933	5137
4.28000	5164
4.28067	5191
4.28133	5218
4.28200	5245
4.28267	5273
4.28333	5300
4.28400	5327
4.28467	5355
4.28533	5382
4.28600	5410
4.28667	5437
4.28733	5465
4.28800	5492
4.28867	5520
4.28933	5548
4.29000	5575
4.29067	5603
4.29133	5631
4.29200	5658
4.29267	5686
4.29333	5713
4.29400	5741
4.29467	5768
4.29533	5796
4.29600	5823
4.29667	5850
4.29733	5877
4.29800	5904
4.29867	5930
4.29933	5956
4.30000	5983
4.30067	6009
4.30133	6034
4.30200	6060
4.30267	6086
4.30333	6111
4.30400	6136
4.30467	6161
4.30533	6185
4.30600	6209
4.30667	6233
4.30733	6257
4.30800	6281
4.30867	6304
4.30933	6327
4.31000	6349
4.31067	6372
4.31133	6394
4.31200	6415
4.31267	6437
4.31333	6458
4.31400	6479
4.31467	6499
4.31533	6519
4.31600	6539
4.31667	6558
4.31733	6577
4.31800	6595
4.31867	6614
4.31933	6631
4.32000	6648
4.32067	6665
4.32133	6681
4.32200	6697
4.32267	6712
4.32333	6727
4.32400	6742
4.32467	6755
4.32533	6769
4.32600	6782
4.32667	6794
4.32733	6806
4.32800	6817
4.32867	6828
4.32933	6839
4.33000	6849
4.33067	6858
4.33133	6867
4.33200	6876
4.33267	6884
4.33333	6891
4.33400	6899
4.33467	6905
4.33533	6912
4.33600	6917
4.33667	6923
4.33733	6928
4.33800	6932
4.33867	6936
4.33933	6940
4.34000	6943
4.34067	6946
4.34133	6948
4.34200	6951
4.34267	6952
4.34333	6954
4.34400	6955
4.34467	6956
4.34533	6956
4.34600	6956
4.34667	6956
4.34733	6956
4.34800	6956
4.34867	6955
4.34933	6954
4.35000	6954
4.35067	6953
4.35133	6952
4.35200	6950
4.35267	6949
4.35333	6948
4.35400	6947
4.35467	6945
4.35533	6944
4.35600	6943
4.35667	6942
4.35733	6940
4.35800	6939
4.35867	6939
4.35933	6938
4.36000	6938
4.36067	6937
4.36133	6938
4.36200	6938
4.36267	6939
4.36333	6940
4.36400	6942
4.36467	6945
4.36533	6947
4.36600	6951
4.36667	6955
4.36733	6960
4.36800	6965
4.36867	6971
4.36933	6978
4.37000	6985
4.37067	6994
4.37133	7003
4.37200	7013
4.37267	7024
4.37333	7035
4.37400	7048
4.37467	7062
4.37533	7077
4.37600	7093
4.37667	7110
4.37733	7128
4.37800	7147
4.37867	7167
4.37933	7189
4.38000	7212
4.38067	7236
4.38133	7261
4.38200	7288
4.38267	7316
4.38333	7345
4.38400	7375
4.38467	7407
4.38533	7441
4.38600	7475
4.38667	7511
4.38733	7549
4.38800	7588
4.38867	7628
4.38933	7670
4.39000	7714
4.39067	7758
4.39133	7805
4.39200	7853
4.39267	7902
4.39333	7953
4.39400	8005
4.39467	8059
4.39533	8114
4.39600	8171
4.39667	8229
4.39733	8289
4.39800	8350
4.39867	8412
4.39933	8476
4.40000	8542
4.40067	8608
4.40133	8676
4.40200	8746
4.40267	8817
4.40333	8889
4.40400	8963
4.40467	9038
4.40533	9114
4.40600	9192
4.40667	9271
4.40733	9351
4.40800	9432
4.40867	9515
4.40933	9599
4.41000	9684
4.41067	9769
4.41133	9856
4.41200	9944
4.41267	10033
4.41333	10122
4.41400	10213
4.41467	10304
4.41533	10396
4.41600	10489
4.41667	10582
4.41733	10676
4.41800	10771
4.41867	10866
4.41933	10961
4.42000	11057
4.42067	11153
4.42133	11249
4.42200	11345
4.42267	11442
4.42333	11538
4.42400	11634
4.42467	11729
4.42533	11825
4.42600	11920
4.42667	12014
4.42733	12108
4.42800	12202
4.42867	12295
4.42933	12387
4.43000	12479
4.43067	12569
4.43133	12659
4.43200	12749
4.43267	12837
4.43333	12924
4.43400	13010
4.43467	13096
4.43533	13180
4.43600	13262
4.43667	13344
4.43733	13424
4.43800	13502
4.43867	13579
4.43933	13654
4.44000	13727
4.44067	13799
4.44133	13869
4.44200	13937
4.44267	14003
4.44333	14067
4.44400	14129
4.44467	14189
4.44533	14247
4.44600	14303
4.44667	14357
4.44733	14409
4.44800	14458
4.44867	14505
4.44933	14550
4.45000	14593
4.45067	14633
4.45133	14671
4.45200	14706
4.45267	14740
4.45333	14770
4.45400	14799
4.45467	14825
4.45533	14849
4.45600	14870
4.45667	14889
4.45733	14906
4.45800	14920
4.45867	14931
4.45933	14940
4.46000	14947
4.46067	14951
4.46133	14952
4.46200	14951
4.46267	14947
4.46333	14941
4.46400	14933
4.46467	14921
4.46533	14908
4.46600	14892
4.46667	14873
4.46733	14852
4.46800	14829
4.46867	14803
4.46933	14774
4.47000	14744
4.47067	14711
4.47133	14675
4.47200	14638
4.47267	14598
4.47333	14556
4.47400	14511
4.47467	14465
4.47533	14416
4.47600	14365
4.47667	14313
4.47733	14258
4.47800	14201
4.47867	14143
4.47933	14082
4.48000	14020
4.48067	13956
4.48133	13890
4.48200	13823
4.48267	13754
4.48333	13684
4.48400	13612
4.48467	13538
4.48533	13463
4.48600	13387
4.48667	13310
4.48733	13231
4.48800	13151
4.48867	13070
4.48933	12988
4.49000	12905
4.49067	12822
4.49133	12737
4.49200	12652
4.49267	12565
4.49333	12479
4.49400	12391
4.49467	12303
4.49533	12214
4.49600	12125
4.49667	12036
4.49733	11946
4.49800	11856
4.49867	11766
4.49933	11676
4.50000	11586
4.50067	11495
4.50133	11405
4.50200	11315
4.50267	11225
4.50333	11136
4.50400	11046
4.50467	10957
4.50533	10869
4.50600	10781
4.50667	10693
4.50733	10606
4.50800	10519
4.50867	10433
4.50933	10348
4.51000	10263
4.51067	10179
4.51133	10096
4.51200	10014
4.51267	9932
4.51333	9852
4.51400	9773
4.51467	9694
4.51533	9617
4.51600	9541
4.51667	9465
4.51733	9392
4.51800	9319
4.51867	9248
4.51933	9177
4.52000	9109
4.52067	9041
4.52133	8975
4.52200	8910
4.52267	8847
4.52333	8785
4.52400	8725
4.52467	8666
4.52533	8608
4.52600	8552
4.52667	8498
4.52733	8445
4.52800	8394
4.52867	8344
4.52933	8296
4.53000	8250
4.53067	8205
4.53133	8162
4.53200	8121
4.53267	8081
4.53333	8043
4.53400	8007
4.53467	7972
4.53533	7939
4.53600	7908
4.53667	7879
4.53733	7851
4.53800	7826
4.53867	7801
4.53933	7779
4.54000	7758
4.54067	7740
4.54133	7723
4.54200	7707
4.54267	7693
4.54333	7681
4.54400	7671
4.54467	7662
4.54533	7655
4.54600	7650
4.54667	7646
4.54733	7644
4.54800	7644
4.54867	7645
4.54933	7648
4.55000	7652
4.55067	7658
4.55133	7665
4.55200	7674
4.55267	7685
4.55333	7697
4.55400	7710
4.55467	7725
4.55533	7741
4.55600	7758
4.55667	7777
4.55733	7797
4.55800	7819
4.55867	7841
4.55933	7865
4.56000	7891
4.56067	7917
4.56133	7945
4.56200	7973
4.56267	8003
4.56333	8034
4.56400	8066
4.56467	8099
4.56533	8132
4.56600	8167
4.56667	8203
4.56733	8239
4.56800	8276
4.56867	8314
4.56933	8352
4.57000	8392
4.57067	8431
4.57133	8472
4.57200	8513
4.57267	8555
4.57333	8597
4.57400	8640
4.57467	8683
4.57533	8727
4.57600	8771
4.57667	8815
4.57733	8860
4.57800	8905
4.57867	8950
4.57933	8995
4.58000	9040
4.58067	9085
4.58133	9130
4.58200	9176
4.58267	9221
4.58333	9265
4.58400	9310
4.58467	9354
4.58533	9398
4.58600	9442
4.58667	9486
4.58733	9529
4.58800	9571
4.58867	9613
4.58933	9655
4.59000	9696
4.59067	9737
4.59133	9777
4.59200	9816
4.59267	9855
4.59333	9893
4.59400	9931
4.59467	9968
4.59533	10004
4.59600	10039
4.59667	10073
4.59733	10107
4.59800	10140
4.59867	10172
4.59933	10203
4.60000	10233
4.60067	10262
4.60133	10291
4.60200	10318
4.60267	10345
4.60333	10371
4.60400	10395
4.60467	10419
4.60533	10442
4.60600	10464
4.60667	10485
4.60733	10505
4.60800	10524
4.60867	10542
4.60933	10559
4.61000	10575
4.61067	10590
4.61133	10605
4.61200	10618
4.61267	10630
4.61333	10641
4.61400	10652
4.61467	10661
4.61533	10670
4.61600	10677
4.61667	10684
4.61733	10689
4.61800	10694
4.61867	10698
4.61933	10701
4.62000	10703
4.62067	10704
4.62133	10705
4.62200	10704
4.62267	10703
4.62333	10701
4.62400	10698
4.62467	10694
4.62533	10689
4.62600	10684
4.62667	10678
4.62733	10671
4.62800	10663
4.62867	10654
4.62933	10645
4.63000	10635
4.63067	10624
4.63133	10612
4.63200	10600
4.63267	10587
4.63333	10573
4.63400	10559
4.63467	10543
4.63533	10528
4.63600	10511
4.63667	10495
4.63733	10477
4.63800	10459
4.63867	10440
4.63933	10421
4.64000	10401
4.64067	10381
4.64133	10360
4.64200	10339
4.64267	10317
4.64333	10295
4.64400	10272
4.64467	10249
4.64533	10226
4.64600	10202
4.64667	10178
4.64733	10154
4.64800	10130
4.64867	10105
4.64933	10080
4.65000	10054
4.65067	10028
4.65133	10003
4.65200	9977
4.65267	9950
4.65333	9924
4.65400	9897
4.65467	9871
4.65533	9844
4.65600	9817
4.65667	9790
4.65733	9763
4.65800	9736
4.65867	9709
4.65933	9682
4.66000	9655
4.66067	9628
4.66133	9601
4.66200	9575
4.66267	9548
4.66333	9521
4.66400	9494
4.66467	9467
4.66533	9440
4.66600	9413
4.66667	9387
4.66733	9360
4.66800	9334
4.66867	9307
4.66933	9281
4.67000	9255
4.67067	9228
4.67133	9202
4.67200	9176
4.67267	9150
4.67333	9124
4.67400	9098
4.67467	9073
4.67533	9047
4.67600	9022
4.67667	8997
4.67733	8972
4.67800	8947
4.67867	8923
4.67933	8898
4.68000	8874
4.68067	8850
4.68133	8826
4.68200	8802
4.68267	8778
4.68333	8754
4.68400	8731
4.68467	8707
4.68533	8684
4.68600	8661
4.68667	8639
4.68733	8616
4.68800	8594
4.68867	8572
4.68933	8550
4.69000	8528
4.69067	8507
4.69133	8485
4.69200	8464
4.69267	8443
4.69333	8422
4.69400	8402
4.69467	8382
4.69533	8362
4.69600	8342
4.69667	8322
4.69733	8303
4.69800	8284
4.69867	8265
4.69933	8246
4.70000	8227
4.70067	8209
4.70133	8191
4.70200	8172
4.70267	8155
4.70333	8137
4.70400	8120
4.70467	8102
4.70533	8085
4.70600	8069
4.70667	8052
4.70733	8036
4.70800	8020
4.70867	8004
4.70933	7988
4.71000	7972
4.71067	7956
4.71133	7941
4.71200	7926
4.71267	7911
4.71333	7896
4.71400	7881
4.71467	7866
4.71533	7851
4.71600	7837
4.71667	7822
4.71733	7808
4.71800	7793
4.71867	7779
4.71933	7765
4.72000	7751
4.72067	7737
4.72133	7723
4.72200	7710
4.72267	7696
4.72333	7683
4.72400	7669
4.72467	7656
4.72533	7643
4.72600	7630
4.72667	7617
4.72733	7605
4.72800	7592
4.72867	7579
4.72933	7567
4.73000	7555
4.73067	7542
4.73133	7530
4.73200	7518
4.73267	7507
4.73333	7495
4.73400	7483
4.73467	7472
4.73533	7460
4.73600	7449
4.73667	7438
4.73733	7427
4.73800	7416
4.73867	7406
4.73933	7395
4.74000	7385
4.74067	7374
4.74133	7364
4.74200	7354
4.74267	7344
4.74333	7335
4.74400	7325
4.74467	7315
4.74533	7306
4.74600	7297
4.74667	7287
4.74733	7278
4.74800	7269
4.74867	7260
4.74933	7251
4.75000	7242
4.75067	7233
4.75133	7225
4.75200	7216
4.75267	7207
4.75333	7199
4.75400	7190
4.75467	7182
4.75533	7173
4.75600	7165
4.75667	7157
4.75733	7148
4.75800	7140
4.75867	7132
4.75933	7124
4.76000	7116
4.76067	7108
4.76133	7100
4.76200	7092
4.76267	7084
4.76333	7077
4.76400	7069
4.76467	7061
4.76533	7054
4.76600	7047
4.76667	7039
4.76733	7032
4.76800	7024
4.76867	7017
4.76933	7010
4.77000	7002
4.77067	6995
4.77133	6988
4.77200	6981
4.77267	6974
4.77333	6967
4.77400	6960
4.77467	6953
4.77533	6946
4.77600	6939
4.77667	6933
4.77733	6926
4.77800	6919
4.77867	6912
4.77933	6906
4.78000	6899
4.78067	6893
4.78133	6886
4.78200	6880
4.78267	6874
4.78333	6868
4.78400	6861
4.78467	6855
4.78533	6849
4.78600	6843
4.78667	6837
4.78733	6831
4.78800	6825
4.78867	6819
4.78933	6813
4.79000	6807
4.79067	6801
4.79133	6795
4.79200	6790
4.79267	6784
4.79333	6778
4.79400	6773
4.79467	6767
4.79533	6761
4.79600	6756
4.79667	6750
4.79733	6744
4.79800	6739
4.79867	6733
4.79933	6727
4.80000	6722
4.80067	6716
4.80133	6711
4.80200	6705
4.80267	6699
4.80333	6694
4.80400	6688
4.80467	6683
4.80533	6677
4.80600	6672
4.80667	6666
4.80733	6661
4.80800	6655
4.80867	6649
4.80933	6644
4.81000	6638
4.81067	6633
4.81133	6627
4.81200	6622
4.81267	6616
4.81333	6611
4.81400	6605
4.81467	6600
4.81533	6594
4.81600	6589
4.81667	6583
4.81733	6578
4.81800	6572
4.81867	6566
4.81933	6561
4.82000	6555
4.82067	6550
4.82133	6544
4.82200	6539
4.82267	6533
4.82333	6528
4.82400	6522
4.82467	6517
4.82533	6512
4.82600	6506
4.82667	6501
4.82733	6496
4.82800	6491
4.82867	6486
4.82933	6480
4.83000	6475
4.83067	6470
4.83133	6465
4.83200	6460
4.83267	6455
4.83333	6449
4.83400	6444
4.83467	6439
4.83533	6434
4.83600	6429
4.83667	6424
4.83733	6418
4.83800	6413
4.83867	6408
4.83933	6403
4.84000	6398
4.84067	6393
4.84133	6388
4.84200	6383
4.84267	6378
4.84333	6373
4.84400	6368
4.84467	6363
4.84533	6358
4.84600	6353
4.84667	6348
4.84733	6344
4.84800	6339
4.84867	6334
4.84933	6329
4.85000	6324
4.85067	6319
4.85133	6315
4.85200	6310
4.85267	6305
4.85333	6301
4.85400	6296
4.85467	6291
4.85533	6287
4.85600	6282
4.85667	6278
4.85733	6273
4.85800	6269
4.85867	6264
4.85933	6260
4.86000	6256
4.86067	6252
4.86133	6247
4.86200	6243
4.86267	6239
4.86333	6235
4.86400	6230
4.86467	6226
4.86533	6222
4.86600	6218
4.86667	6214
4.86733	6210
4.86800	6206
4.86867	6202
4.86933	6197
4.87000	6193
4.87067	6189
4.87133	6185
4.87200	6181
4.87267	6177
4.87333	6173
4.87400	6169
4.87467	6165
4.87533	6161
4.87600	6157
4.87667	6153
4.87733	6149
4.87800	6145
4.87867	6141
4.87933	6137
4.88000	6133
4.88067	6129
4.88133	6125
4.88200	6121
4.88267	6117
4.88333	6113
4.88400	6109
4.88467	6105
4.88533	6101
4.88600	6097
4.88667	6093
4.88733	6089
4.88800	6085
4.88867	6081
4.88933	6077
4.89000	6073
4.89067	6069
4.89133	6065
4.89200	6061
4.89267	6057
4.89333	6054
4.89400	6050
4.89467	6046
4.89533	6042
4.89600	6038
4.89667	6035
4.89733	6031
4.89800	6027
4.89867	6023
4.89933	6020
4.90000	6016
4.90067	6012
4.90133	6009
4.90200	6005
4.90267	6002
4.90333	5998
4.90400	5995
4.90467	5991
4.90533	5988
4.90600	5984
4.90667	5981
4.90733	5977
4.90800	5974
4.90867	5971
4.90933	5967
4.91000	5964
4.91067	5960
4.91133	5957
4.91200	5953
4.91267	5950
4.91333	5947
4.91400	5943
4.91467	5940
4.91533	5936
4.91600	5933
4.91667	5929
4.91733	5926
4.91800	5922
4.91867	5919
4.91933	5915
4.92000	5912
4.92067	5909
4.92133	5905
4.92200	5902
4.92267	5898
4.92333	5895
4.92400	5891
4.92467	5888
4.92533	5884
4.92600	5881
4.92667	5877
4.92733	5874
4.92800	5870
4.92867	5867
4.92933	5864
4.93000	5860
4.93067	5857
4.93133	5854
4.93200	5850
4.93267	5847
4.93333	5844
4.93400	5841
4.93467	5837
4.93533	5834
4.93600	5831
4.93667	5828
4.93733	5825
4.93800	5822
4.93867	5819
4.93933	5815
4.94000	5812
4.94067	5809
4.94133	5806
4.94200	5803
4.94267	5800
4.94333	5797
4.94400	5794
4.94467	5791
4.94533	5788
4.94600	5785
4.94667	5782
4.94733	5779
4.94800	5776
4.94867	5773
4.94933	5770
4.95000	5767
4.95067	5765
4.95133	5762
4.95200	5759
4.95267	5756
4.95333	5753
4.95400	5750
4.95467	5747
4.95533	5744
4.95600	5741
4.95667	5738
4.95733	5735
4.95800	5733
4.95867	5730
4.95933	5727
4.96000	5724
4.96067	5721
4.96133	5718
4.96200	5715
4.96267	5712
4.96333	5709
4.96400	5706
4.96467	5703
4.96533	5700
4.96600	5698
4.96667	5695
4.96733	5692
4.96800	5689
4.96867	5686
4.96933	5683
4.97000	5681
4.97067	5678
4.97133	5675
4.97200	5672
4.97267	5669
4.97333	5667
4.97400	5664
4.97467	5661
4.97533	5658
4.97600	5656
4.97667	5653
4.97733	5650
4.97800	5647
4.97867	5644
4.97933	5642
4.98000	5639
4.98067	5636
4.98133	5633
4.98200	5631
4.98267	5628
4.98333	5625
4.98400	5622
4.98467	5620
4.98533	5617
4.98600	5614
4.98667	5611
4.98733	5609
4.98800	5606
4.98867	5603
4.98933	5601
4.99000	5598
4.99067	5596
4.99133	5593
4.99200	5590
4.99267	5588
4.99333	5585
4.99400	5583
4.99467	5580
4.99533	5578
4.99600	5575
4.99667	5573
4.99733	5570
4.99800	5568
4.99867	5565
4.99933	5563
5.00000	5560
5.00067	5558
5.00133	5556
5.00200	5553
5.00267	5551
5.00333	5549
5.00400	5546
5.00467	5544
5.00533	5542
5.00600	5540
5.00667	5537
5.00733	5535
5.00800	5533
5.00867	5531
5.00933	5528
5.01000	5526
5.01067	5524
5.01133	5521
5.01200	5519
5.01267	5517
5.01333	5515
5.01400	5512
5.01467	5510
5.01533	5508
5.01600	5506
5.01667	5503
5.01733	5501
5.01800	5499
5.01867	5496
5.01933	5494
5.02000	5492
5.02067	5489
5.02133	5487
5.02200	5485
5.02267	5482
5.02333	5480
5.02400	5478
5.02467	5476
5.02533	5473
5.02600	5471
5.02667	5469
5.02733	5467
5.02800	5464
5.02867	5462
5.02933	5460
5.03000	5458
5.03067	5456
5.03133	5453
5.03200	5451
5.03267	5449
5.03333	5447
5.03400	5444
5.03467	5442
5.03533	5440
5.03600	5438
5.03667	5435
5.03733	5433
5.03800	5431
5.03867	5428
5.03933	5426
5.04000	5424
5.04067	5422
5.04133	5419
5.04200	5417
5.04267	5415
5.04333	5413
5.04400	5410
5.04467	5408
5.04533	5406
5.04600	5404
5.04667	5402
5.04733	5399
5.04800	5397
5.04867	5395
5.04933	5393
5.05000	5391
5.05067	5389
5.05133	5386
5.05200	5384
5.05267	5382
5.05333	5380
5.05400	5378
5.05467	5376
5.05533	5375
5.05600	5373
5.05667	5371
5.05733	5369
5.05800	5367
5.05867	5366
5.05933	5364
5.06000	5362
5.06067	5361
5.06133	5359
5.06200	5358
5.06267	5356
5.06333	5355
5.06400	5353
5.06467	5351
5.06533	5350
5.06600	5348
5.06667	5347
5.06733	5346
5.06800	5344
5.06867	5343
5.06933	5342
5.07000	5340
5.07067	5339
5.07133	5338
5.07200	5337
5.07267	5336
5.07333	5334
5.07400	5333
5.07467	5332
5.07533	5331
5.07600	5330
5.07667	5329
5.07733	5328
5.07800	5328
5.07867	5327
5.07933	5326
5.08000	5326
5.08067	5325
5.08133	5324
5.08200	5324
5.08267	5324
5.08333	5323
5.08400	5323
5.08467	5323
5.08533	5322
5.08600	5322
5.08667	5322
5.08733	5322
5.08800	5322
5.08867	5322
5.08933	5322
5.09000	5323
5.09067	5323
5.09133	5323
5.09200	5323
5.09267	5324
5.09333	5324
5.09400	5325
5.09467	5326
5.09533	5327
5.09600	5328
5.09667	5329
5.09733	5330
5.09800	5331
5.09867	5332
5.09933	5334
5.10000	5335
5.10067	5337
5.10133	5339
5.10200	5341
5.10267	5343
5.10333	5345
5.10400	5348
5.10467	5350
5.10533	5353
5.10600	5356
5.10667	5359
5.10733	5363
5.10800	5366
5.10867	5370
5.10933	5374
5.11000	5378
5.11067	5383
5.11133	5387
5.11200	5392
5.11267	5397
5.11333	5402
5.11400	5408
5.11467	5413
5.11533	5419
5.11600	5426
5.11667	5432
5.11733	5439
5.11800	5446
5.11867	5454
5.11933	5462
5.12000	5470
5.12067	5479
5.12133	5488
5.12200	5497
5.12267	5507
5.12333	5517
5.12400	5528
5.12467	5539
5.12533	5550
5.12600	5561
5.12667	5574
5.12733	5586
5.12800	5599
5.12867	5613
5.12933	5627
5.13000	5641
5.13067	5656
5.13133	5672
5.13200	5688
5.13267	5705
5.13333	5722
5.13400	5740
5.13467	5758
5.13533	5778
5.13600	5797
5.13667	5818
5.13733	5839
5.13800	5860
5.13867	5882
5.13933	5905
5.14000	5929
5.14067	5953
5.14133	5978
5.14200	6003
5.14267	6029
5.14333	6056
5.14400	6084
5.14467	6112
5.14533	6141
5.14600	6171
5.14667	6201
5.14733	6233
5.14800	6265
5.14867	6298
5.14933	6331
5.15000	6366
5.15067	6401
5.15133	6437
5.15200	6474
5.15267	6512
5.15333	6551
5.15400	6590
5.15467	6630
5.15533	6672
5.15600	6714
5.15667	6757
5.15733	6801
5.15800	6846
5.15867	6891
5.15933	6938
5.16000	6986
5.16067	7034
5.16133	7083
5.16200	7134
5.16267	7185
5.16333	7237
5.16400	7290
5.16467	7343
5.16533	7398
5.16600	7453
5.16667	7509
5.16733	7566
5.16800	7624
5.16867	7682
5.16933	7742
5.17000	7802
5.17067	7862
5.17133	7924
5.17200	7986
5.17267	8049
5.17333	8112
5.17400	8176
5.17467	8241
5.17533	8307
5.17600	8373
5.17667	8439
5.17733	8507
5.17800	8575
5.17867	8643
5.17933	8712
5.18000	8782
5.18067	8852
5.18133	8922
5.18200	8993
5.18267	9065
5.18333	9137
5.18400	9210
5.18467	9282
5.18533	9356
5.18600	9429
5.18667	9503
5.18733	9577
5.18800	9651
5.18867	9725
5.18933	9800
5.19000	9875
5.19067	9950
5.19133	10025
5.19200	10100
5.19267	10175
5.19333	10250
5.19400	10325
5.19467	10400
5.19533	10474
5.19600	10549
5.19667	10623
5.19733	10697
5.19800	10771
5.19867	10844
5.19933	10917
5.20000	10990
5.20067	11062
5.20133	11134
5.20200	11205
5.20267	11276
5.20333	11346
5.20400	11415
5.20467	11484
5.20533	11552
5.20600	11620
5.20667	11687
5.20733	11752
5.20800	11818
5.20867	11882
5.20933	11945
5.21000	12007
5.21067	12068
5.21133	12128
5.21200	12188
5.21267	12245
5.21333	12302
5.21400	12358
5.21467	12412
5.21533	12465
5.21600	12517
5.21667	12567
5.21733	12616
5.21800	12664
5.21867	12710
5.21933	12755
5.22000	12798
5.22067	12840
5.22133	12880
5.22200	12919
5.22267	12956
5.22333	12992
5.22400	13026
5.22467	13059
5.22533	13090
5.22600	13119
5.22667	13147
5.22733	13173
5.22800	13198
5.22867	13221
5.22933	13242
5.23000	13262
5.23067	13280
5.23133	13296
5.23200	13311
5.23267	13324
5.23333	13336
5.23400	13346
5.23467	13354
5.23533	13360
5.23600	13365
5.23667	13369
5.23733	13370
5.23800	13370
5.23867	13369
5.23933	13366
5.24000	13361
5.24067	13355
5.24133	13348
5.24200	13339
5.24267	13328
5.24333	13317
5.24400	13304
5.24467	13289
5.24533	13273
5.24600	13256
5.24667	13238
5.24733	13218
5.24800	13197
5.24867	13175
5.24933	13151
5.25000	13127
5.25067	13101
5.25133	13074
5.25200	13046
5.25267	13017
5.25333	12987
5.25400	12956
5.25467	12924
5.25533	12891
5.25600	12857
5.25667	12822
5.25733	12786
5.25800	12749
5.25867	12711
5.25933	12672
5.26000	12633
5.26067	12592
5.26133	12551
5.26200	12509
5.26267	12467
5.26333	12423
5.26400	12379
5.26467	12335
5.26533	12289
5.26600	12243
5.26667	12197
5.26733	12150
5.26800	12102
5.26867	12054
5.26933	12006
5.27000	11957
5.27067	11908
5.27133	11858
5.27200	11809
5.27267	11758
5.27333	11708
5.27400	11657
5.27467	11606
5.27533	11555
5.27600	11504
5.27667	11452
5.27733	11401
5.27800	11349
5.27867	11297
5.27933	11245
5.28000	11193
5.28067	11141
5.28133	11089
5.28200	11037
5.28267	10985
5.28333	10933
5.28400	10882
5.28467	10830
5.28533	10778
5.28600	10727
5.28667	10676
5.28733	10625
5.28800	10574
5.28867	10524
5.28933	10473
5.29000	10423
5.29067	10373
5.29133	10324
5.29200	10274
5.29267	10225
5.29333	10176
5.29400	10128
5.29467	10079
5.29533	10031
5.29600	9984
5.29667	9936
5.29733	9889
5.29800	9842
5.29867	9795
5.29933	9749
5.30000	9703
5.30067	9658
5.30133	9612
5.30200	9567
5.30267	9523
5.30333	9479
5.30400	9435
5.30467	9391
5.30533	9348
5.30600	9305
5.30667	9263
5.30733	9221
5.30800	9179
5.30867	9138
5.30933	9097
5.31000	9057
5.31067	9017
5.31133	8977
5.31200	8938
5.31267	8899
5.31333	8861
5.31400	8823
5.31467	8785
5.31533	8748
5.31600	8711
5.31667	8675
5.31733	8639
5.31800	8603
5.31867	8568
5.31933	8533
5.32000	8499
5.32067	8465
5.32133	8432
5.32200	8398
5.32267	8366
5.32333	8333
5.32400	8301
5.32467	8269
5.32533	8238
5.32600	8207
5.32667	8177
5.32733	8146
5.32800	8117
5.32867	8087
5.32933	8058
5.33000	8029
5.33067	8001
5.33133	7973
5.33200	7945
5.33267	7917
5.33333	7890
5.33400	7864
5.33467	7837
5.33533	7811
5.33600	7785
5.33667	7760
5.33733	7735
5.33800	7710
5.33867	7685
5.33933	7661
5.34000	7637
5.34067	7614
5.34133	7590
5.34200	7567
5.34267	7544
5.34333	7522
5.34400	7500
5.34467	7477
5.34533	7456
5.34600	7434
5.34667	7413
5.34733	7392
5.34800	7371
5.34867	7350
5.34933	7330
5.35000	7310
5.35067	7290
5.35133	7270
5.35200	7251
5.35267	7231
5.35333	7212
5.35400	7193
5.35467	7174
5.35533	7156
5.35600	7138
5.35667	7120
5.35733	7102
5.35800	7084
5.35867	7066
5.35933	7049
5.36000	7032
5.36067	7015
5.36133	6998
5.36200	6981
5.36267	6964
5.36333	6948
5.36400	6932
5.36467	6916
5.36533	6900
5.36600	6885
5.36667	6870
5.36733	6854
5.36800	6839
5.36867	6825
5.36933	6810
5.37000	6796
5.37067	6781
5.37133	6767
5.37200	6753
5.37267	6739
5.37333	6726
5.37400	6712
5.37467	6699
5.37533	6686
5.37600	6672
5.37667	6659
5.37733	6647
5.37800	6634
5.37867	6621
5.37933	6609
5.38000	6597
5.38067	6584
5.38133	6572
5.38200	6560
5.38267	6549
5.38333	6537
5.38400	6525
5.38467	6514
5.38533	6503
5.38600	6492
5.38667	6481
5.38733	6470
5.38800	6459
5.38867	6449
5.38933	6438
5.39000	6428
5.39067	6417
5.39133	6407
5.39200	6397
5.39267	6387
5.39333	6377
5.39400	6367
5.39467	6358
5.39533	6348
5.39600	6339
5.39667	6329
5.39733	6320
5.39800	6311
5.39867	6302
5.39933	6293
5.40000	6285
5.40067	6276
5.40133	6268
5.40200	6259
5.40267	6251
5.40333	6243
5.40400	6235
5.40467	6227
5.40533	6219
5.40600	6211
5.40667	6204
5.40733	6196
5.40800	6188
5.40867	6181
5.40933	6173
5.41000	6166
5.41067	6159
5.41133	6151
5.41200	6144
5.41267	6137
5.41333	6130
5.41400	6123
5.41467	6116
5.41533	6109
5.41600	6102
5.41667	6095
5.41733	6088
5.41800	6082
5.41867	6075
5.41933	6068
5.42000	6061
5.42067	6055
5.42133	6048
5.42200	6041
5.42267	6035
5.42333	6028
5.42400	6022
5.42467	6015
5.42533	6009
5.42600	6003
5.42667	5996
5.42733	5990
5.42800	5984
5.42867	5978
5.42933	5972
5.43000	5966
5.43067	5960
5.43133	5954
5.43200	5948
5.43267	5942
5.43333	5936
5.43400	5931
5.43467	5925
5.43533	5919
5.43600	5913
5.43667	5908
5.43733	5902
5.43800	5897
5.43867	5891
5.43933	5886
5.44000	5880
5.44067	5875
5.44133	5869
5.44200	5864
5.44267	5858
5.44333	5853
5.44400	5847
5.44467	5842
5.44533	5836
5.44600	5831
5.44667	5825
5.44733	5820
5.44800	5814
5.44867	5809
5.44933	5804
5.45000	5798
5.45067	5793
5.45133	5788
5.45200	5783
5.45267	5777
5.45333	5772
5.45400	5767
5.45467	5762
5.45533	5757
5.45600	5752
5.45667	5747
5.45733	5742
5.45800	5737
5.45867	5732
5.45933	5728
5.46000	5723
5.46067	5718
5.46133	5713
5.46200	5708
5.46267	5703
5.46333	5699
5.46400	5694
5.46467	5689
5.46533	5685
5.46600	5680
5.46667	5675
5.46733	5670
5.46800	5666
5.46867	5661
5.46933	5656
5.47000	5652
5.47067	5647
5.47133	5642
5.47200	5638
5.47267	5633
5.47333	5629
5.47400	5624
5.47467	5620
5.47533	5615
5.47600	5611
5.47667	5606
5.47733	5602
5.47800	5597
5.47867	5593
5.47933	5589
5.48000	5585
5.48067	5580
5.48133	5576
5.48200	5572
5.48267	5568
5.48333	5563
5.48400	5559
5.48467	5555
5.48533	5551
5.48600	5547
5.48667	5543
5.48733	5539
5.48800	5535
5.48867	5531
5.48933	5527
5.49000	5523
5.49067	5519
5.49133	5515
5.49200	5511
5.49267	5507
5.49333	5503
5.49400	5499
5.49467	5495
5.49533	5491
5.49600	5488
5.49667	5484
5.49733	5480
5.49800	5476
5.49867	5472
5.49933	5469
5.50000	5465
5.50067	5461
5.50133	5458
5.50200	5454
5.50267	5450
5.50333	5447
5.50400	5443
5.50467	5440
5.50533	5436
5.50600	5433
5.50667	5429
5.50733	5426
5.50800	5422
5.50867	5419
5.50933	5416
5.51000	5412
5.51067	5409
5.51133	5406
5.51200	5402
5.51267	5399
5.51333	5396
5.51400	5393
5.51467	5390
5.51533	5386
5.51600	5383
5.51667	5380
5.51733	5377
5.51800	5373
5.51867	5370
5.51933	5367
5.52000	5364
5.52067	5361
5.52133	5358
5.52200	5355
5.52267	5352
5.52333	5349
5.52400	5346
5.52467	5343
5.52533	5340
5.52600	5337
5.52667	5334
5.52733	5331
5.52800	5328
5.52867	5325
5.52933	5323
5.53000	5320
5.53067	5317
5.53133	5314
5.53200	5312
5.53267	5309
5.53333	5306
5.53400	5304
5.53467	5301
5.53533	5298
5.53600	5296
5.53667	5293
5.53733	5291
5.53800	5288
5.53867	5285
5.53933	5283
5.54000	5280
5.54067	5278
5.54133	5275
5.54200	5273
5.54267	5270
5.54333	5268
5.54400	5265
5.54467	5263
5.54533	5260
5.54600	5258
5.54667	5255
5.54733	5253
5.54800	5250
5.54867	5248
5.54933	5245
5.55000	5243
5.55067	5240
5.55133	5238
5.55200	5235
5.55267	5233
5.55333	5230
5.55400	5228
5.55467	5225
5.55533	5223
5.55600	5221
5.55667	5218
5.55733	5216
5.55800	5213
5.55867	5211
5.55933	5209
5.56000	5206
5.56067	5204
5.56133	5202
5.56200	5199
5.56267	5197
5.56333	5195
5.56400	5193
5.56467	5191
5.56533	5189
5.56600	5187
5.56667	5185
5.56733	5183
5.56800	5181
5.56867	5179
5.56933	5177
5.57000	5175
5.57067	5173
5.57133	5171
5.57200	5169
5.57267	5168
5.57333	5166
5.57400	5164
5.57467	5162
5.57533	5160
5.57600	5159
5.57667	5157
5.57733	5155
5.57800	5153
5.57867	5152
5.57933	5150
5.58000	5148
5.58067	5147
5.58133	5145
5.58200	5144
5.58267	5142
5.58333	5140
5.58400	5139
5.58467	5137
5.58533	5136
5.58600	5134
5.58667	5133
5.58733	5131
5.58800	5130
5.58867	5128
5.58933	5127
5.59000	5125
5.59067	5124
5.59133	5122
5.59200	5121
5.59267	5120
5.59333	5118
5.59400	5117
5.59467	5115
5.59533	5114
5.59600	5113
5.59667	5111
5.59733	5110
5.59800	5108
5.59867	5107
5.59933	5106
5.60000	5104
5.60067	5103
5.60133	5101
5.60200	5100
5.60267	5099
5.60333	5097
5.60400	5096
5.60467	5095
5.60533	5094
5.60600	5092
5.60667	5091
5.60733	5090
5.60800	5089
5.60867	5087
5.60933	5086
5.61000	5085
5.61067	5084
5.61133	5082
5.61200	5081
5.61267	5080
5.61333	5078
5.61400	5077
5.61467	5076
5.61533	5075
5.61600	5074
5.61667	5072
5.61733	5071
5.61800	5070
5.61867	5069
5.61933	5068
5.62000	5066
5.62067	5065
5.62133	5064
5.62200	5063
5.62267	5061
5.62333	5060
5.62400	5059
5.62467	5057
5.62533	5056
5.62600	5055
5.62667	5054
5.62733	5052
5.62800	5051
5.62867	5050
5.62933	5048
5.63000	5047
5.63067	5046
5.63133	5044
5.63200	5043
5.63267	5042
5.63333	5040
5.63400	5039
5.63467	5038
5.63533	5036
5.63600	5035
5.63667	5034
5.63733	5033
5.63800	5031
5.63867	5030
5.63933	5029
5.64000	5027
5.64067	5026
5.64133	5025
5.64200	5023
5.64267	5022
5.64333	5021
5.64400	5019
5.64467	5018
5.64533	5016
5.64600	5015
5.64667	5014
5.64733	5012
5.64800	5011
5.64867	5010
5.64933	5008
5.65000	5007
5.65067	5005
5.65133	5004
5.65200	5002
5.65267	5001
5.65333	4999
5.65400	4998
5.65467	4996
5.65533	4995
5.65600	4993
5.65667	4992
5.65733	4990
5.65800	4989
5.65867	4987
5.65933	4986
5.66000	4984
5.66067	4983
5.66133	4981
5.66200	4980
5.66267	4978
5.66333	4976
5.66400	4975
5.66467	4973
5.66533	4972
5.66600	4970
5.66667	4968
5.66733	4967
5.66800	4965
5.66867	4964
5.66933	4962
5.67000	4960
5.67067	4959
5.67133	4957
5.67200	4956
5.67267	4954
5.67333	4953
5.67400	4951
5.67467	4950
5.67533	4948
5.67600	4947
5.67667	4946
5.67733	4944
5.67800	4943
5.67867	4941
5.67933	4940
5.68000	4939
5.68067	4937
5.68133	4936
5.68200	4934
5.68267	4933
5.68333	4932
5.68400	4930
5.68467	4929
5.68533	4928
5.68600	4927
5.68667	4925
5.68733	4924
5.68800	4923
5.68867	4921
5.68933	4920
5.69000	4919
5.69067	4917
5.69133	4916
5.69200	4915
5.69267	4914
5.69333	4912
5.69400	4911
5.69467	4910
5.69533	4908
5.69600	4907
5.69667	4906
5.69733	4905
5.69800	4903
5.69867	4902
5.69933	4901
5.70000	4900
5.70067	4899
5.70133	4897
5.70200	4896
5.70267	4895
5.70333	4894
5.70400	4893
5.70467	4891
5.70533	4890
5.70600	4889
5.70667	4888
5.70733	4887
5.70800	4886
5.70867	4885
5.70933	4884
5.71000	4883
5.71067	4882
5.71133	4880
5.71200	4879
5.71267	4878
5.71333	4877
5.71400	4876
5.71467	4875
5.71533	4874
5.71600	4873
5.71667	4872
5.71733	4871
5.71800	4870
5.71867	4869
5.71933	4868
5.72000	4867
5.72067	4866
5.72133	4865
5.72200	4864
5.72267	4863
5.72333	4862
5.72400	4861
5.72467	4860
5.72533	4859
5.72600	4858
5.72667	4857
5.72733	4856
5.72800	4855
5.72867	4854
5.72933	4853
5.73000	4853
5.73067	4852
5.73133	4851
5.73200	4850
5.73267	4849
5.73333	4848
5.73400	4847
5.73467	4846
5.73533	4846
5.73600	4845
5.73667	4844
5.73733	4843
5.73800	4842
5.73867	4841
5.73933	4840
5.74000	4839
5.74067	4838
5.74133	4837
5.74200	4836
5.74267	4835
5.74333	4834
5.74400	4833
5.74467	4833
5.74533	4832
5.74600	4831
5.74667	4830
5.74733	4829
5.74800	4827
5.74867	4826
5.74933	4825
5.75000	4824
5.75067	4823
5.75133	4822
5.75200	4821
5.75267	4820
5.75333	4819
5.75400	4818
5.75467	4817
5.75533	4816
5.75600	4815
5.75667	4814
5.75733	4813
5.75800	4812
5.75867	4811
5.75933	4811
5.76000	4810
5.76067	4809
5.76133	4808
5.76200	4807
5.76267	4807
5.76333	4806
5.76400	4805
5.76467	4804
5.76533	4804
5.76600	4803
5.76667	4803
5.76733	4802
5.76800	4802
5.76867	4801
5.76933	4800
5.77000	4800
5.77067	4799
5.77133	4799
5.77200	4798
5.77267	4798
5.77333	4797
5.77400	4797
5.77467	4797
5.77533	4796
5.77600	4796
5.77667	4795
5.77733	4794
5.77800	4794
5.77867	4793
5.77933	4793
5.78000	4792
5.78067	4792
5.78133	4791
5.78200	4791
5.78267	4791
5.78333	4790
5.78400	4790
5.78467	4789
5.78533	4789
5.78600	4789
5.78667	4788
5.78733	4788
5.78800	4788
5.78867	4787
5.78933	4787
5.79000	4787
5.79067	4787
5.79133	4786
5.79200	4786
5.79267	4786
5.79333	4786
5.79400	4786
5.79467	4785
5.79533	4785
5.79600	4785
5.79667	4785
5.79733	4785
5.79800	4784
5.79867	4784
5.79933	4784
5.80000	4784
5.80067	4784
5.80133	4784
5.80200	4784
5.80267	4784
5.80333	4783
5.80400	4783
5.80467	4783
5.80533	4783
5.80600	4783
5.80667	4783
5.80733	4783
5.80800	4783
5.80867	4783
5.80933	4783
5.81000	4783
5.81067	4783
5.81133	4783
5.81200	4783
5.81267	4784
5.81333	4784
5.81400	4784
5.81467	4784
5.81533	4784
5.81600	4784
5.81667	4784
5.81733	4784
5.81800	4784
5.81867	4784
5.81933	4784
5.82000	4784
5.82067	4784
5.82133	4784
5.82200	4784
5.82267	4784
5.82333	4784
5.82400	4784
5.82467	4784
5.82533	4784
5.82600	4784
5.82667	4784
5.82733	4784
5.82800	4784
5.82867	4784
5.82933	4784
5.83000	4784
5.83067	4784
5.83133	4783
5.83200	4783
5.83267	4783
5.83333	4783
5.83400	4783
5.83467	4783
5.83533	4783
5.83600	4783
5.83667	4783
5.83733	4783
5.83800	4783
5.83867	4783
5.83933	4783
5.84000	4783
5.84067	4783
5.84133	4782
5.84200	4782
5.84267	4782
5.84333	4782
5.84400	4782
5.84467	4781
5.84533	4781
5.84600	4781
5.84667	4780
5.84733	4780
5.84800	4780
5.84867	4779
5.84933	4779
5.85000	4778
5.85067	4778
5.85133	4778
5.85200	4777
5.85267	4777
5.85333	4776
5.85400	4776
5.85467	4776
5.85533	4775
5.85600	4775
5.85667	4775
5.85733	4774
5.85800	4774
5.85867	4773
5.85933	4773
5.86000	4772
5.86067	4772
5.86133	4772
5.86200	4771
5.86267	4771
5.86333	4770
5.86400	4770
5.86467	4769
5.86533	4769
5.86600	4768
5.86667	4767
5.86733	4767
5.86800	4766
5.86867	4766
5.86933	4765
5.87000	4765
5.87067	4764
5.87133	4764
5.87200	4763
5.87267	4762
5.87333	4762
5.87400	4761
5.87467	4760
5.87533	4760
5.87600	4759
5.87667	4759
5.87733	4758
5.87800	4757
5.87867	4757
5.87933	4756
5.88000	4756
5.88067	4755
5.88133	4754
5.88200	4754
5.88267	4753
5.88333	4752
5.88400	4752
5.88467	4751
5.88533	4750
5.88600	4750
5.88667	4749
5.88733	4748
5.88800	4747
5.88867	4747
5.88933	4746
5.89000	4745
5.89067	4745
5.89133	4744
5.89200	4743
5.89267	4742
5.89333	4742
5.89400	4741
5.89467	4740
5.89533	4740
5.89600	4739
5.89667	4738
5.89733	4737
5.89800	4737
5.89867	4736
5.89933	4735
5.90000	4735
5.90067	4734
5.90133	4733
5.90200	4733
5.90267	4732
5.90333	4731
5.90400	4731
5.90467	4730
5.90533	4729
5.90600	4729
5.90667	4728
5.90733	4727
5.90800	4727
5.90867	4726
5.90933	4725
5.91000	4725
5.91067	4724
5.91133	4724
5.91200	4723
5.91267	4722
5.91333	4721
5.91400	4721
5.91467	4720
5.91533	4719
5.91600	4718
5.91667	4717
5.91733	4716
5.91800	4715
5.91867	4714
5.91933	4713
5.92000	4712
5.92067	4711
5.92133	4711
5.92200	4710
5.92267	4709
5.92333	4708
5.92400	4707
5.92467	4706
5.92533	4705
5.92600	4704
5.92667	4703
5.92733	4702
5.92800	4701
5.92867	4700
5.92933	4699
5.93000	4698
5.93067	4698
5.93133	4697
5.93200	4696
5.93267	4695
5.93333	4694
5.93400	4693
5.93467	4692
5.93533	4692
5.93600	4691
5.93667	4690
5.93733	4689
5.93800	4688
5.93867	4688
5.93933	4687
5.94000	4686
5.94067	4685
5.94133	4685
5.94200	4684
5.94267	4683
5.94333	4683
5.94400	4682
5.94467	4682
5.94533	4681
5.94600	4681
5.94667	4680
5.94733	4680
5.94800	4679
5.94867	4679
5.94933	4678
5.95000	4678
5.95067	4677
5.95133	4677
5.95200	4677
5.95267	4676
5.95333	4676
5.95400	4676
5.95467	4675
5.95533	4675
5.95600	4675
5.95667	4675
5.95733	4674
5.95800	4674
5.95867	4674
5.95933	4674
5.96000	4673
5.96067	4673
5.96133	4673
5.96200	4673
5.96267	4672
5.96333	4672
5.96400	4672
5.96467	4672
5.96533	4672
5.96600	4672
5.96667	4671
5.96733	4671
5.96800	4671
5.96867	4671
5.96933	4671
5.97000	4671
5.97067	4670
5.97133	4670
5.97200	4670
5.97267	4670
5.97333	4670
5.97400	4670
5.97467	4670
5.97533	4669
5.97600	4669
5.97667	4669
5.97733	4669
5.97800	4669
5.97867	4669
5.97933	4668
5.98000	4668
5.98067	4668
5.98133	4668
5.98200	4668
5.98267	4668
5.98333	4668
5.98400	4668
5.98467	4667
5.98533	4667
5.98600	4667
5.98667	4667
5.98733	4667
5.98800	4667
5.98867	4667
5.98933	4667
5.99000	4666
5.99067	4666
5.99133	4666
5.99200	4666
5.99267	4666
5.99333	4666
5.99400	4666
5.99467	4665
5.99533	4665
5.99600	4665
5.99667	4665
5.99733	4664
5.99800	4664
5.99867	4664
5.99933	4664
6.00000	4663
6.00067	4663
6.00133	4663
6.00200	4663
6.00267	4663
6.00333	4663
6.00400	4663
6.00467	4663
6.00533	4663
6.00600	4663
6.00667	4663
6.00733	4663
6.00800	4663
6.00867	4663
6.00933	4662
6.01000	4662
6.01067	4662
6.01133	4662
6.01200	4662
6.01267	4662
6.01333	4662
6.01400	4662
6.01467	4662
6.01533	4662
6.01600	4662
6.01667	4662
6.01733	4662
6.01800	4662
6.01867	4662
6.01933	4662
6.02000	4661
6.02067	4661
6.02133	4661
6.02200	4661
6.02267	4661
6.02333	4661
6.02400	4661
6.02467	4661
6.02533	4661
6.02600	4661
6.02667	4661
6.02733	4660
6.02800	4660
6.02867	4660
6.02933	4660
6.03000	4660
6.03067	4660
6.03133	4659
6.03200	4659
6.03267	4659
6.03333	4659
6.03400	4659
6.03467	4658
6.03533	4658
6.03600	4658
6.03667	4658
6.03733	4657
6.03800	4657
6.03867	4657
6.03933	4656
6.04000	4656
6.04067	4656
6.04133	4655
6.04200	4655
6.04267	4655
6.04333	4654
6.04400	4654
6.04467	4654
6.04533	4653
6.04600	4653
6.04667	4652
6.04733	4652
6.04800	4652
6.04867	4651
6.04933	4651
6.05000	4651
6.05067	4650
6.05133	4650
6.05200	4649
6.05267	4649
6.05333	4648
6.05400	4648
6.05467	4647
6.05533	4646
6.05600	4646
6.05667	4645
6.05733	4645
6.05800	4644
6.05867	4643
6.05933	4643
6.06000	4642
6.06067	4641
6.06133	4641
6.06200	4640
6.06267	4639
6.06333	4639
6.06400	4638
6.06467	4637
6.06533	4637
6.06600	4636
6.06667	4635
6.06733	4635
6.06800	4634
6.06867	4633
6.06933	4632
6.07000	4632
6.07067	4631
6.07133	4630
6.07200	4629
6.07267	4628
6.07333	4628
6.07400	4627
6.07467	4626
6.07533	4625
6.07600	4624
6.07667	4624
6.07733	4623
6.07800	4622
6.07867	4621
6.07933	4620
6.08000	4619
6.08067	4619
6.08133	4618
6.08200	4617
6.08267	4616
6.08333	4615
6.08400	4615
6.08467	4614
6.08533	4613
6.08600	4612
6.08667	4611
6.08733	4611
6.08800	4610
6.08867	4609
6.08933	4608
6.09000	4607
6.09067	4607
6.09133	4606
6.09200	4605
6.09267	4604
6.09333	4604
6.09400	4603
6.09467	4602
6.09533	4601
6.09600	4601
6.09667	4600
6.09733	4599
6.09800	4599
6.09867	4598
6.09933	4597
6.10000	4597
6.10067	4596
6.10133	4595
6.10200	4594
6.10267	4594
6.10333	4593
6.10400	4592
6.10467	4592
6.10533	4591
6.10600	4590
6.10667	4590
6.10733	4589
6.10800	4588
6.10867	4587
6.10933	4587
6.11000	4586
6.11067	4585
6.11133	4585
6.11200	4584
6.11267	4584
6.11333	4583
6.11400	4582
6.11467	4582
6.11533	4581
6.11600	4581
6.11667	4580
6.11733	4580
6.11800	4579
6.11867	4578
6.11933	4578
6.12000	4577
6.12067	4577
6.12133	4576
6.12200	4575
6.12267	4575
6.12333	4574
6.12400	4574
6.12467	4573
6.12533	4572
6.12600	4572
6.12667	4571
6.12733	4570
6.12800	4570
6.12867	4569
6.12933	4568
6.13000	4568
6.13067	4567
6.13133	4566
6.13200	4566
6.13267	4565
6.13333	4564
6.13400	4564
6.13467	4563
6.13533	4563
6.13600	4562
6.13667	4562
6.13733	4561
6.13800	4561
6.13867	4560
6.13933	4559
6.14000	4559
6.14067	4558
6.14133	4558
6.14200	4557
6.14267	4557
6.14333	4556
6.14400	4556
6.14467	4555
6.14533	4555
6.14600	4554
6.14667	4554
6.14733	4554
6.14800	4553
6.14867	4553
6.14933	4552
6.15000	4552
6.15067	4552
6.15133	4551
6.15200	4551
6.15267	4551
6.15333	4550
6.15400	4550
6.15467	4550
6.15533	4550
6.15600	4549
6.15667	4549
6.15733	4549
6.15800	4549
6.15867	4549
6.15933	4548
6.16000	4548
6.16067	4548
6.16133	4548
6.16200	4548
6.16267	4547
6.16333	4547
6.16400	4547
6.16467	4547
6.16533	4547
6.16600	4547
6.16667	4547
6.16733	4547
6.16800	4547
6.16867	4548
6.16933	4548
6.17000	4548
6.17067	4548
6.17133	4548
6.17200	4548
6.17267	4548
6.17333	4549
6.17400	4549
6.17467	4549
6.17533	4549
6.17600	4550
6.17667	4550
6.17733	4550
6.17800	4550
6.17867	4551
6.17933	4551
6.18000	4551
6.18067	4552
6.18133	4552
6.18200	4553
6.18267	4553
6.18333	4553
6.18400	4554
6.18467	4554
6.18533	4554
6.18600	4555
6.18667	4555
6.18733	4556
6.18800	4556
6.18867	4557
6.18933	4557
6.19000	4557
6.19067	4558
6.19133	4559
6.19200	4559
6.19267	4560
6.19333	4560
6.19400	4561
6.19467	4562
6.19533	4562
6.19600	4563
6.19667	4563
6.19733	4564
6.19800	4565
6.19867	4565
6.19933	4566
6.20000	4567
6.20067	4568
6.20133	4568
6.20200	4569
6.20267	4570
6.20333	4571
6.20400	4572
6.20467	4573
6.20533	4573
6.20600	4574
6.20667	4575
6.20733	4576
6.20800	4577
6.20867	4578
6.20933	4579
6.21000	4580
6.21067	4581
6.21133	4582
6.21200	4583
6.21267	4584
6.21333	4585
6.21400	4586
6.21467	4587
6.21533	4588
6.21600	4589
6.21667	4590
6.21733	4591
6.21800	4592
6.21867	4593
6.21933	4594
6.22000	4595
6.22067	4596
6.22133	4598
6.22200	4599
6.22267	4600
6.22333	4601
6.22400	4602
6.22467	4603
6.22533	4604
6.22600	4606
6.22667	4607
6.22733	4608
6.22800	4609
6.22867	4611
6.22933	4612
6.23000	4613
6.23067	4614
6.23133	4616
6.23200	4617
6.23267	4618
6.23333	4619
6.23400	4621
6.23467	4622
6.23533	4623
6.23600	4624
6.23667	4626
6.23733	4627
6.23800	4628
6.23867	4629
6.23933	4630
6.24000	4632
6.24067	4633
6.24133	4634
6.24200	4635
6.24267	4637
6.24333	4638
6.24400	4639
6.24467	4640
6.24533	4641
6.24600	4643
6.24667	4644
6.24733	4645
6.24800	4646
6.24867	4647
6.24933	4648
6.25000	4649
6.25067	4650
6.25133	4651
6.25200	4652
6.25267	4652
6.25333	4653
6.25400	4654
6.25467	4655
6.25533	4656
6.25600	4656
6.25667	4657
6.25733	4658
6.25800	4658
6.25867	4659
6.25933	4659
6.26000	4660
6.26067	4661
6.26133	4661
6.26200	4661
6.26267	4662
6.26333	4662
6.26400	4663
6.26467	4663
6.26533	4663
6.26600	4664
6.26667	4664
6.26733	4665
6.26800	4665
6.26867	4665
6.26933	4665
6.27000	4666
6.27067	4666
6.27133	4666
6.27200	4666
6.27267	4666
6.27333	4666
6.27400	4667
6.27467	4667
6.27533	4667
6.27600	4667
6.27667	4667
6.27733	4667
6.27800	4667
6.27867	4667
6.27933	4667
6.28000	4667
6.28067	4667
6.28133	4667
6.28200	4667
6.28267	4667
6.28333	4667
6.28400	4667
6.28467	4666
6.28533	4666
6.28600	4666
6.28667	4666
6.28733	4666
6.28800	4665
6.28867	4665
6.28933	4665
6.29000	4664
6.29067	4664
6.29133	4664
6.29200	4663
6.29267	4663
6.29333	4662
6.29400	4662
6.29467	4661
6.29533	4661
6.29600	4660
6.29667	4660
6.29733	4659
6.29800	4658
6.29867	4658
6.29933	4657
6.30000	4656
6.30067	4655
6.30133	4655
6.30200	4654
6.30267	4653
6.30333	4652
6.30400	4651
6.30467	4650
6.30533	4649
6.30600	4648
6.30667	4647
6.30733	4647
6.30800	4646
6.30867	4645
6.30933	4644
6.31000	4643
6.31067	4642
6.31133	4641
6.31200	4640
6.31267	4639
6.31333	4638
6.31400	4637
6.31467	4636
6.31533	4634
6.31600	4633
6.31667	4632
6.31733	4631
6.31800	4630
6.31867	4629
6.31933	4628
6.32000	4627
6.32067	4626
6.32133	4625
6.32200	4623
6.32267	4622
6.32333	4621
6.32400	4620
6.32467	4619
6.32533	4618
6.32600	4617
6.32667	4616
6.32733	4614
6.32800	4613
6.32867	4612
6.32933	4611
6.33000	4610
6.33067	4609
6.33133	4607
6.33200	4606
6.33267	4605
6.33333	4604
6.33400	4602
6.33467	4601
6.33533	4600
6.33600	4598
6.33667	4597
6.33733	4596
6.33800	4595
6.33867	4593
6.33933	4592
6.34000	4591
6.34067	4589
6.34133	4588
6.34200	4587
6.34267	4585
6.34333	4584
6.34400	4583
6.34467	4582
6.34533	4580
6.34600	4579
6.34667	4578
6.34733	4577
6.34800	4575
6.34867	4574
6.34933	4573
6.35000	4572
6.35067	4571
6.35133	4570
6.35200	4569
6.35267	4568
6.35333	4567
6.35400	4566
6.35467	4565
6.35533	4564
6.35600	4563
6.35667	4562
6.35733	4561
6.35800	4560
6.35867	4559
6.35933	4559
6.36000	4558
6.36067	4557
6.36133	4556
6.36200	4555
6.36267	4554
6.36333	4553
6.36400	4552
6.36467	4551
6.36533	4551
6.36600	4550
6.36667	4549
6.36733	4548
6.36800	4547
6.36867	4546
6.36933	4546
6.37000	4545
6.37067	4544
6.37133	4543
6.37200	4542
6.37267	4542
6.37333	4541
6.37400	4540
6.37467	4539
6.37533	4539
6.37600	4538
6.37667	4537
6.37733	4537
6.37800	4536
6.37867	4535
6.37933	4535
6.38000	4534
6.38067	4534
6.38133	4533
6.38200	4532
6.38267	4532
6.38333	4531
6.38400	4531
6.38467	4530
6.38533	4530
6.38600	4529
6.38667	4529
6.38733	4528
6.38800	4528
6.38867	4527
6.38933	4527
6.39000	4527
6.39067	4526
6.39133	4526
6.39200	4526
6.39267	4525
6.39333	4525
6.39400	4525
6.39467	4524
6.39533	4524
6.39600	4523
6.39667	4523
6.39733	4522
6.39800	4521
6.39867	4521
6.39933	4521

