[Header]
Application Name	LabSolutions
Version	5.73
Data File Name	C:\LabSolutions\Data\Project1\stephen\2016-01-06\12.gcd
Output Date	1/11/2016
Output Time	1:19:41 PM

[Configuration]
Instrument Name	WEISSTA-PC-Instrument1
Instrument #	1
Line #	1
# of Detectors	1
Detector ID	DET#2
Detector Name	DFID1
# of Channels	1

[Chromatogram (Ch1)]
Interval(msec)	40
# of Points	9600
Start Time(min)	0.000
End Time(min)	6.399
R.Time (min)	Intensity
0.00000	14
0.00067	14
0.00133	14
0.00200	14
0.00267	14
0.00333	14
0.00400	14
0.00467	14
0.00533	14
0.00600	13
0.00667	13
0.00733	13
0.00800	12
0.00867	12
0.00933	10
0.01000	9
0.01067	7
0.01133	5
0.01200	2
0.01267	-1
0.01333	-5
0.01400	-8
0.01467	-13
0.01533	-17
0.01600	-22
0.01667	-28
0.01733	-33
0.01800	-39
0.01867	-45
0.01933	-52
0.02000	-58
0.02067	-64
0.02133	-71
0.02200	-77
0.02267	-84
0.02333	-90
0.02400	-96
0.02467	-102
0.02533	-108
0.02600	-113
0.02667	-119
0.02733	-124
0.02800	-128
0.02867	-133
0.02933	-137
0.03000	-142
0.03067	-145
0.03133	-149
0.03200	-152
0.03267	-156
0.03333	-158
0.03400	-161
0.03467	-164
0.03533	-166
0.03600	-168
0.03667	-170
0.03733	-172
0.03800	-173
0.03867	-175
0.03933	-176
0.04000	-177
0.04067	-178
0.04133	-179
0.04200	-180
0.04267	-181
0.04333	-181
0.04400	-182
0.04467	-182
0.04533	-182
0.04600	-183
0.04667	-183
0.04733	-183
0.04800	-183
0.04867	-183
0.04933	-183
0.05000	-184
0.05067	-184
0.05133	-184
0.05200	-184
0.05267	-184
0.05333	-184
0.05400	-184
0.05467	-184
0.05533	-184
0.05600	-184
0.05667	-184
0.05733	-184
0.05800	-184
0.05867	-184
0.05933	-184
0.06000	-184
0.06067	-184
0.06133	-184
0.06200	-184
0.06267	-184
0.06333	-184
0.06400	-184
0.06467	-184
0.06533	-184
0.06600	-184
0.06667	-184
0.06733	-185
0.06800	-185
0.06867	-185
0.06933	-185
0.07000	-186
0.07067	-186
0.07133	-186
0.07200	-187
0.07267	-187
0.07333	-187
0.07400	-188
0.07467	-188
0.07533	-189
0.07600	-189
0.07667	-189
0.07733	-190
0.07800	-190
0.07867	-190
0.07933	-191
0.08000	-191
0.08067	-191
0.08133	-192
0.08200	-192
0.08267	-192
0.08333	-193
0.08400	-193
0.08467	-194
0.08533	-194
0.08600	-194
0.08667	-192
0.08733	-185
0.08800	-174
0.08867	-154
0.08933	-105
0.09000	-29
0.09067	82
0.09133	231
0.09200	415
0.09267	647
0.09333	926
0.09400	1288
0.09467	1693
0.09533	2146
0.09600	2682
0.09667	3298
0.09733	4019
0.09800	4882
0.09867	5933
0.09933	7114
0.10000	8390
0.10067	9776
0.10133	11243
0.10200	12809
0.10267	14484
0.10333	16217
0.10400	17981
0.10467	19844
0.10533	21778
0.10600	23826
0.10667	25944
0.10733	28077
0.10800	30140
0.10867	32097
0.10933	34000
0.11000	35860
0.11067	37655
0.11133	39361
0.11200	41037
0.11267	42705
0.11333	44436
0.11400	46171
0.11467	47861
0.11533	49446
0.11600	50951
0.11667	52389
0.11733	53773
0.11800	55082
0.11867	56319
0.11933	57506
0.12000	58608
0.12067	59635
0.12133	60682
0.12200	61657
0.12267	62504
0.12333	63239
0.12400	63910
0.12467	64532
0.12533	65100
0.12600	65575
0.12667	65998
0.12733	66357
0.12800	66632
0.12867	66885
0.12933	67074
0.13000	67163
0.13067	67158
0.13133	67101
0.13200	67037
0.13267	67075
0.13333	67752
0.13400	70574
0.13467	79048
0.13533	100103
0.13600	145850
0.13667	235102
0.13733	393491
0.13800	649922
0.13867	1032737
0.13933	1567013
0.14000	2274069
0.14067	3170518
0.14133	4269115
0.14200	5577134
0.14267	7098142
0.14333	8832739
0.14400	10779796
0.14467	12934511
0.14533	15291965
0.14600	17865975
0.14667	20689445
0.14733	23781331
0.14800	27140095
0.14867	30748923
0.14933	34583321
0.15000	38615521
0.15067	42816584
0.15133	47157985
0.15200	51612750
0.15267	56155524
0.15333	60761623
0.15400	65408025
0.15467	70073171
0.15533	74736545
0.15600	79378920
0.15667	83981729
0.15733	88527417
0.15800	92999468
0.15867	97382870
0.15933	101663917
0.16000	105830513
0.16067	109872310
0.16133	113780338
0.16200	117546187
0.16267	121163217
0.16333	124626074
0.16400	127931010
0.16467	131075078
0.16533	134056460
0.16600	136873872
0.16667	139526824
0.16733	142015488
0.16800	144340794
0.16867	146504059
0.16933	148506900
0.17000	150351406
0.17067	152040006
0.17133	153575339
0.17200	154960144
0.17267	156197419
0.17333	157290214
0.17400	158241876
0.17467	159055765
0.17533	159735547
0.17600	160284978
0.17667	160708201
0.17733	161009462
0.17800	161193250
0.17867	161263984
0.17933	161226191
0.18000	161084341
0.18067	160842856
0.18133	160506004
0.18200	160077980
0.18267	159562878
0.18333	158964747
0.18400	158287614
0.18467	157535392
0.18533	156711880
0.18600	155820731
0.18667	154865484
0.18733	153849636
0.18800	152776724
0.18867	151650268
0.18933	150473819
0.19000	149250857
0.19067	147985078
0.19133	146680633
0.19200	145341945
0.19267	143972728
0.19333	142575540
0.19400	141151980
0.19467	139703237
0.19533	138230386
0.19600	136734578
0.19667	135217090
0.19733	133679420
0.19800	132123182
0.19867	130550061
0.19933	128961806
0.20000	127360150
0.20067	125746833
0.20133	124123571
0.20200	122492080
0.20267	120854016
0.20333	119211018
0.20400	117564666
0.20467	115916542
0.20533	114268108
0.20600	112620760
0.20667	110975805
0.20733	109334502
0.20800	107698027
0.20867	106067529
0.20933	104444089
0.21000	102828745
0.21067	101222448
0.21133	99626110
0.21200	98040534
0.21267	96466514
0.21333	94904810
0.21400	93356121
0.21467	91821084
0.21533	90300288
0.21600	88794289
0.21667	87303567
0.21733	85828521
0.21800	84369505
0.21867	82926847
0.21933	81500826
0.22000	80091706
0.22067	78699714
0.22133	77325055
0.22200	75967886
0.22267	74628337
0.22333	73306508
0.22400	72002498
0.22467	70716388
0.22533	69448246
0.22600	68198092
0.22667	66965917
0.22733	65751696
0.22800	64555397
0.22867	63376961
0.22933	62216319
0.23000	61073399
0.23067	59948132
0.23133	58840443
0.23200	57750247
0.23267	56677458
0.23333	55621954
0.23400	54583592
0.23467	53562206
0.23533	52557647
0.23600	51569748
0.23667	50598348
0.23733	49643277
0.23800	48704372
0.23867	47781468
0.23933	46874409
0.24000	45983034
0.24067	45107186
0.24133	44246700
0.24200	43401407
0.24267	42571135
0.24333	41755718
0.24400	40955006
0.24467	40168848
0.24533	39397093
0.24600	38639584
0.24667	37896160
0.24733	37166654
0.24800	36450900
0.24867	35748722
0.24933	35059940
0.25000	34384385
0.25067	33721954
0.25133	33072601
0.25200	32436301
0.25267	31812976
0.25333	31202466
0.25400	30604530
0.25467	30018880
0.25533	29445188
0.25600	28883102
0.25667	28332255
0.25733	27792291
0.25800	27262870
0.25867	26743676
0.25933	26234402
0.26000	25734750
0.26067	25244435
0.26133	24763186
0.26200	24290750
0.26267	23826880
0.26333	23371345
0.26400	22923923
0.26467	22484399
0.26533	22052559
0.26600	21628205
0.26667	21211138
0.26733	20801184
0.26800	20398161
0.26867	20001906
0.26933	19612255
0.27000	19229058
0.27067	18852164
0.27133	18481430
0.27200	18116719
0.27267	17757905
0.27333	17404858
0.27400	17057458
0.27467	16715587
0.27533	16379136
0.27600	16048003
0.27667	15722089
0.27733	15401300
0.27800	15085551
0.27867	14774762
0.27933	14468857
0.28000	14167765
0.28067	13871419
0.28133	13579762
0.28200	13292735
0.28267	13010291
0.28333	12732379
0.28400	12458958
0.28467	12189987
0.28533	11925428
0.28600	11665246
0.28667	11409406
0.28733	11157875
0.28800	10910623
0.28867	10667620
0.28933	10428836
0.29000	10194242
0.29067	9963808
0.29133	9737506
0.29200	9515303
0.29267	9297170
0.29333	9083073
0.29400	8872982
0.29467	8666865
0.29533	8464689
0.29600	8266419
0.29667	8072020
0.29733	7881457
0.29800	7694692
0.29867	7511687
0.29933	7332402
0.30000	7156797
0.30067	6984831
0.30133	6816461
0.30200	6651646
0.30267	6490341
0.30333	6332501
0.30400	6178079
0.30467	6027031
0.30533	5879309
0.30600	5734866
0.30667	5593655
0.30733	5455626
0.30800	5320732
0.30867	5188922
0.30933	5060149
0.31000	4934362
0.31067	4811513
0.31133	4691550
0.31200	4574426
0.31267	4460088
0.31333	4348489
0.31400	4239577
0.31467	4133303
0.31533	4029619
0.31600	3928474
0.31667	3829819
0.31733	3733605
0.31800	3639783
0.31867	3548305
0.31933	3459122
0.32000	3372187
0.32067	3287452
0.32133	3204873
0.32200	3124402
0.32267	3045995
0.32333	2969607
0.32400	2895194
0.32467	2822713
0.32533	2752122
0.32600	2683378
0.32667	2616442
0.32733	2551272
0.32800	2487830
0.32867	2426076
0.32933	2365972
0.33000	2307481
0.33067	2250566
0.33133	2195193
0.33200	2141325
0.33267	2088930
0.33333	2037973
0.33400	1988423
0.33467	1940249
0.33533	1893420
0.33600	1847908
0.33667	1803684
0.33733	1760724
0.33800	1719002
0.33867	1678497
0.33933	1639190
0.34000	1601067
0.34067	1564118
0.34133	1528337
0.34200	1493726
0.34267	1460291
0.34333	1428043
0.34400	1396991
0.34467	1367149
0.34533	1338528
0.34600	1311138
0.34667	1284983
0.34733	1260064
0.34800	1236376
0.34867	1213907
0.34933	1192640
0.35000	1172547
0.35067	1153596
0.35133	1135752
0.35200	1118973
0.35267	1103214
0.35333	1088430
0.35400	1074571
0.35467	1061591
0.35533	1049443
0.35600	1038079
0.35667	1027453
0.35733	1017522
0.35800	1008242
0.35867	999573
0.35933	991476
0.36000	983912
0.36067	976844
0.36133	970235
0.36200	964053
0.36267	958263
0.36333	952836
0.36400	947741
0.36467	942953
0.36533	938448
0.36600	934200
0.36667	930190
0.36733	926398
0.36800	922806
0.36867	919399
0.36933	916161
0.37000	913077
0.37067	910134
0.37133	907318
0.37200	904617
0.37267	902020
0.37333	899516
0.37400	897096
0.37467	894752
0.37533	892477
0.37600	890265
0.37667	888108
0.37733	886004
0.37800	883948
0.37867	881938
0.37933	879974
0.38000	878057
0.38067	876189
0.38133	874371
0.38200	872606
0.38267	870895
0.38333	869240
0.38400	867637
0.38467	866083
0.38533	864573
0.38600	863102
0.38667	861662
0.38733	860248
0.38800	858852
0.38867	857471
0.38933	856100
0.39000	854734
0.39067	853366
0.39133	851993
0.39200	850609
0.39267	849210
0.39333	847794
0.39400	846356
0.39467	844894
0.39533	843408
0.39600	841895
0.39667	840355
0.39733	838784
0.39800	837179
0.39867	835537
0.39933	833852
0.40000	832120
0.40067	830334
0.40133	828486
0.40200	826568
0.40267	824571
0.40333	822487
0.40400	820307
0.40467	818021
0.40533	815617
0.40600	813085
0.40667	810412
0.40733	807584
0.40800	804587
0.40867	801407
0.40933	798028
0.41000	794436
0.41067	790615
0.41133	786551
0.41200	782231
0.41267	777640
0.41333	772768
0.41400	767604
0.41467	762141
0.41533	756374
0.41600	750303
0.41667	743931
0.41733	737261
0.41800	730304
0.41867	723071
0.41933	715575
0.42000	707831
0.42067	699855
0.42133	691666
0.42200	683281
0.42267	674718
0.42333	665996
0.42400	657133
0.42467	648147
0.42533	639055
0.42600	629872
0.42667	620616
0.42733	611302
0.42800	601944
0.42867	592556
0.42933	583152
0.43000	573743
0.43067	564341
0.43133	554959
0.43200	545605
0.43267	536290
0.43333	527022
0.43400	517811
0.43467	508663
0.43533	499586
0.43600	490586
0.43667	481669
0.43733	472842
0.43800	464107
0.43867	455472
0.43933	446939
0.44000	438512
0.44067	430195
0.44133	421991
0.44200	413903
0.44267	405933
0.44333	398083
0.44400	390355
0.44467	382751
0.44533	375271
0.44600	367916
0.44667	360687
0.44733	353585
0.44800	346609
0.44867	339759
0.44933	333036
0.45000	326439
0.45067	319968
0.45133	313623
0.45200	307404
0.45267	301310
0.45333	295341
0.45400	289496
0.45467	283775
0.45533	278175
0.45600	272697
0.45667	267339
0.45733	262099
0.45800	256978
0.45867	251972
0.45933	247081
0.46000	242305
0.46067	237640
0.46133	233086
0.46200	228642
0.46267	224306
0.46333	220078
0.46400	215955
0.46467	211938
0.46533	208025
0.46600	204214
0.46667	200507
0.46733	196901
0.46800	193397
0.46867	189993
0.46933	186689
0.47000	183485
0.47067	180381
0.47133	177374
0.47200	174462
0.47267	171644
0.47333	168914
0.47400	166272
0.47467	163713
0.47533	161236
0.47600	158839
0.47667	156518
0.47733	154271
0.47800	152096
0.47867	149990
0.47933	147951
0.48000	145976
0.48067	144062
0.48133	142208
0.48200	140411
0.48267	138669
0.48333	136980
0.48400	135341
0.48467	133752
0.48533	132210
0.48600	130714
0.48667	129262
0.48733	127851
0.48800	126482
0.48867	125151
0.48933	123858
0.49000	122601
0.49067	121378
0.49133	120189
0.49200	119031
0.49267	117905
0.49333	116808
0.49400	115739
0.49467	114698
0.49533	113682
0.49600	112690
0.49667	111722
0.49733	110776
0.49800	109851
0.49867	108946
0.49933	108061
0.50000	107195
0.50067	106346
0.50133	105515
0.50200	104699
0.50267	103900
0.50333	103115
0.50400	102345
0.50467	101588
0.50533	100844
0.50600	100113
0.50667	99395
0.50733	98687
0.50800	97991
0.50867	97305
0.50933	96629
0.51000	95964
0.51067	95308
0.51133	94660
0.51200	94022
0.51267	93391
0.51333	92769
0.51400	92155
0.51467	91547
0.51533	90948
0.51600	90355
0.51667	89768
0.51733	89189
0.51800	88615
0.51867	88048
0.51933	87486
0.52000	86930
0.52067	86380
0.52133	85835
0.52200	85295
0.52267	84759
0.52333	84229
0.52400	83703
0.52467	83182
0.52533	82665
0.52600	82152
0.52667	81644
0.52733	81139
0.52800	80639
0.52867	80142
0.52933	79650
0.53000	79161
0.53067	78675
0.53133	78194
0.53200	77715
0.53267	77241
0.53333	76769
0.53400	76301
0.53467	75836
0.53533	75375
0.53600	74916
0.53667	74461
0.53733	74009
0.53800	73559
0.53867	73113
0.53933	72670
0.54000	72230
0.54067	71792
0.54133	71358
0.54200	70926
0.54267	70497
0.54333	70071
0.54400	69648
0.54467	69228
0.54533	68811
0.54600	68397
0.54667	67986
0.54733	67578
0.54800	67173
0.54867	66771
0.54933	66372
0.55000	65977
0.55067	65585
0.55133	65196
0.55200	64810
0.55267	64427
0.55333	64048
0.55400	63672
0.55467	63299
0.55533	62929
0.55600	62562
0.55667	62199
0.55733	61839
0.55800	61482
0.55867	61127
0.55933	60776
0.56000	60427
0.56067	60082
0.56133	59739
0.56200	59398
0.56267	59060
0.56333	58724
0.56400	58391
0.56467	58060
0.56533	57731
0.56600	57404
0.56667	57079
0.56733	56757
0.56800	56436
0.56867	56117
0.56933	55801
0.57000	55486
0.57067	55173
0.57133	54862
0.57200	54553
0.57267	54247
0.57333	53942
0.57400	53639
0.57467	53338
0.57533	53039
0.57600	52742
0.57667	52447
0.57733	52154
0.57800	51863
0.57867	51574
0.57933	51287
0.58000	51002
0.58067	50718
0.58133	50437
0.58200	50157
0.58267	49879
0.58333	49603
0.58400	49329
0.58467	49057
0.58533	48786
0.58600	48517
0.58667	48250
0.58733	47984
0.58800	47720
0.58867	47458
0.58933	47198
0.59000	46939
0.59067	46682
0.59133	46427
0.59200	46173
0.59267	45921
0.59333	45671
0.59400	45422
0.59467	45175
0.59533	44930
0.59600	44686
0.59667	44444
0.59733	44204
0.59800	43966
0.59867	43730
0.59933	43495
0.60000	43262
0.60067	43031
0.60133	42801
0.60200	42573
0.60267	42347
0.60333	42123
0.60400	41901
0.60467	41680
0.60533	41462
0.60600	41245
0.60667	41029
0.60733	40816
0.60800	40604
0.60867	40395
0.60933	40187
0.61000	39981
0.61067	39777
0.61133	39574
0.61200	39373
0.61267	39175
0.61333	38978
0.61400	38783
0.61467	38589
0.61533	38398
0.61600	38208
0.61667	38020
0.61733	37834
0.61800	37650
0.61867	37467
0.61933	37286
0.62000	37107
0.62067	36929
0.62133	36753
0.62200	36579
0.62267	36406
0.62333	36235
0.62400	36065
0.62467	35896
0.62533	35729
0.62600	35563
0.62667	35398
0.62733	35235
0.62800	35073
0.62867	34912
0.62933	34752
0.63000	34594
0.63067	34437
0.63133	34281
0.63200	34126
0.63267	33972
0.63333	33820
0.63400	33669
0.63467	33519
0.63533	33370
0.63600	33223
0.63667	33076
0.63733	32932
0.63800	32788
0.63867	32646
0.63933	32505
0.64000	32365
0.64067	32227
0.64133	32090
0.64200	31954
0.64267	31820
0.64333	31687
0.64400	31555
0.64467	31424
0.64533	31295
0.64600	31167
0.64667	31040
0.64733	30914
0.64800	30789
0.64867	30666
0.64933	30543
0.65000	30421
0.65067	30300
0.65133	30180
0.65200	30061
0.65267	29943
0.65333	29825
0.65400	29707
0.65467	29591
0.65533	29475
0.65600	29360
0.65667	29245
0.65733	29131
0.65800	29017
0.65867	28903
0.65933	28790
0.66000	28678
0.66067	28566
0.66133	28454
0.66200	28343
0.66267	28232
0.66333	28122
0.66400	28012
0.66467	27902
0.66533	27793
0.66600	27684
0.66667	27576
0.66733	27468
0.66800	27361
0.66867	27254
0.66933	27147
0.67000	27041
0.67067	26936
0.67133	26831
0.67200	26726
0.67267	26622
0.67333	26519
0.67400	26416
0.67467	26313
0.67533	26212
0.67600	26110
0.67667	26009
0.67733	25909
0.67800	25810
0.67867	25711
0.67933	25613
0.68000	25516
0.68067	25420
0.68133	25324
0.68200	25230
0.68267	25137
0.68333	25045
0.68400	24954
0.68467	24865
0.68533	24778
0.68600	24692
0.68667	24608
0.68733	24526
0.68800	24446
0.68867	24369
0.68933	24293
0.69000	24221
0.69067	24151
0.69133	24084
0.69200	24021
0.69267	23960
0.69333	23903
0.69400	23849
0.69467	23799
0.69533	23752
0.69600	23708
0.69667	23667
0.69733	23629
0.69800	23595
0.69867	23563
0.69933	23533
0.70000	23506
0.70067	23481
0.70133	23458
0.70200	23436
0.70267	23416
0.70333	23396
0.70400	23377
0.70467	23358
0.70533	23339
0.70600	23319
0.70667	23299
0.70733	23278
0.70800	23256
0.70867	23232
0.70933	23206
0.71000	23179
0.71067	23149
0.71133	23117
0.71200	23083
0.71267	23047
0.71333	23008
0.71400	22967
0.71467	22924
0.71533	22878
0.71600	22830
0.71667	22779
0.71733	22727
0.71800	22672
0.71867	22616
0.71933	22557
0.72000	22497
0.72067	22435
0.72133	22372
0.72200	22307
0.72267	22240
0.72333	22173
0.72400	22104
0.72467	22034
0.72533	21963
0.72600	21891
0.72667	21819
0.72733	21746
0.72800	21672
0.72867	21598
0.72933	21523
0.73000	21448
0.73067	21372
0.73133	21296
0.73200	21220
0.73267	21144
0.73333	21068
0.73400	20991
0.73467	20915
0.73533	20838
0.73600	20762
0.73667	20685
0.73733	20609
0.73800	20533
0.73867	20457
0.73933	20381
0.74000	20306
0.74067	20230
0.74133	20155
0.74200	20081
0.74267	20006
0.74333	19932
0.74400	19858
0.74467	19785
0.74533	19712
0.74600	19639
0.74667	19567
0.74733	19495
0.74800	19424
0.74867	19353
0.74933	19282
0.75000	19212
0.75067	19143
0.75133	19074
0.75200	19006
0.75267	18938
0.75333	18870
0.75400	18803
0.75467	18736
0.75533	18670
0.75600	18605
0.75667	18540
0.75733	18475
0.75800	18411
0.75867	18348
0.75933	18285
0.76000	18222
0.76067	18160
0.76133	18098
0.76200	18037
0.76267	17977
0.76333	17917
0.76400	17857
0.76467	17798
0.76533	17740
0.76600	17682
0.76667	17624
0.76733	17567
0.76800	17511
0.76867	17455
0.76933	17399
0.77000	17344
0.77067	17289
0.77133	17235
0.77200	17182
0.77267	17129
0.77333	17076
0.77400	17024
0.77467	16972
0.77533	16921
0.77600	16870
0.77667	16820
0.77733	16770
0.77800	16721
0.77867	16672
0.77933	16624
0.78000	16576
0.78067	16528
0.78133	16481
0.78200	16434
0.78267	16387
0.78333	16341
0.78400	16296
0.78467	16250
0.78533	16206
0.78600	16161
0.78667	16117
0.78733	16073
0.78800	16030
0.78867	15987
0.78933	15944
0.79000	15902
0.79067	15860
0.79133	15818
0.79200	15777
0.79267	15736
0.79333	15696
0.79400	15655
0.79467	15615
0.79533	15576
0.79600	15536
0.79667	15497
0.79733	15458
0.79800	15420
0.79867	15382
0.79933	15344
0.80000	15306
0.80067	15269
0.80133	15232
0.80200	15195
0.80267	15159
0.80333	15123
0.80400	15087
0.80467	15052
0.80533	15017
0.80600	14982
0.80667	14947
0.80733	14912
0.80800	14878
0.80867	14844
0.80933	14811
0.81000	14777
0.81067	14744
0.81133	14711
0.81200	14679
0.81267	14647
0.81333	14615
0.81400	14583
0.81467	14552
0.81533	14521
0.81600	14490
0.81667	14460
0.81733	14429
0.81800	14400
0.81867	14370
0.81933	14340
0.82000	14311
0.82067	14282
0.82133	14254
0.82200	14225
0.82267	14197
0.82333	14169
0.82400	14141
0.82467	14113
0.82533	14085
0.82600	14058
0.82667	14031
0.82733	14004
0.82800	13977
0.82867	13951
0.82933	13925
0.83000	13898
0.83067	13872
0.83133	13847
0.83200	13821
0.83267	13795
0.83333	13770
0.83400	13745
0.83467	13720
0.83533	13695
0.83600	13670
0.83667	13645
0.83733	13620
0.83800	13596
0.83867	13572
0.83933	13547
0.84000	13523
0.84067	13499
0.84133	13475
0.84200	13452
0.84267	13428
0.84333	13405
0.84400	13381
0.84467	13358
0.84533	13335
0.84600	13312
0.84667	13289
0.84733	13266
0.84800	13243
0.84867	13221
0.84933	13198
0.85000	13176
0.85067	13153
0.85133	13131
0.85200	13109
0.85267	13086
0.85333	13064
0.85400	13042
0.85467	13020
0.85533	12998
0.85600	12977
0.85667	12955
0.85733	12933
0.85800	12912
0.85867	12890
0.85933	12869
0.86000	12847
0.86067	12826
0.86133	12805
0.86200	12784
0.86267	12763
0.86333	12742
0.86400	12721
0.86467	12700
0.86533	12680
0.86600	12659
0.86667	12639
0.86733	12618
0.86800	12598
0.86867	12577
0.86933	12557
0.87000	12537
0.87067	12517
0.87133	12497
0.87200	12477
0.87267	12457
0.87333	12437
0.87400	12417
0.87467	12398
0.87533	12378
0.87600	12359
0.87667	12339
0.87733	12320
0.87800	12300
0.87867	12281
0.87933	12262
0.88000	12243
0.88067	12224
0.88133	12205
0.88200	12186
0.88267	12168
0.88333	12149
0.88400	12131
0.88467	12112
0.88533	12094
0.88600	12076
0.88667	12058
0.88733	12040
0.88800	12022
0.88867	12004
0.88933	11987
0.89000	11969
0.89067	11952
0.89133	11934
0.89200	11917
0.89267	11900
0.89333	11883
0.89400	11866
0.89467	11849
0.89533	11832
0.89600	11815
0.89667	11799
0.89733	11782
0.89800	11766
0.89867	11750
0.89933	11733
0.90000	11717
0.90067	11701
0.90133	11685
0.90200	11669
0.90267	11653
0.90333	11637
0.90400	11621
0.90467	11605
0.90533	11589
0.90600	11574
0.90667	11558
0.90733	11543
0.90800	11527
0.90867	11512
0.90933	11496
0.91000	11481
0.91067	11465
0.91133	11450
0.91200	11435
0.91267	11419
0.91333	11404
0.91400	11389
0.91467	11374
0.91533	11359
0.91600	11344
0.91667	11329
0.91733	11314
0.91800	11299
0.91867	11285
0.91933	11270
0.92000	11255
0.92067	11241
0.92133	11226
0.92200	11212
0.92267	11198
0.92333	11183
0.92400	11169
0.92467	11155
0.92533	11141
0.92600	11127
0.92667	11113
0.92733	11100
0.92800	11086
0.92867	11072
0.92933	11058
0.93000	11045
0.93067	11031
0.93133	11018
0.93200	11005
0.93267	10991
0.93333	10978
0.93400	10965
0.93467	10952
0.93533	10938
0.93600	10925
0.93667	10912
0.93733	10899
0.93800	10886
0.93867	10873
0.93933	10860
0.94000	10847
0.94067	10834
0.94133	10821
0.94200	10808
0.94267	10795
0.94333	10782
0.94400	10769
0.94467	10757
0.94533	10744
0.94600	10731
0.94667	10718
0.94733	10705
0.94800	10693
0.94867	10680
0.94933	10667
0.95000	10655
0.95067	10642
0.95133	10629
0.95200	10617
0.95267	10605
0.95333	10592
0.95400	10580
0.95467	10568
0.95533	10557
0.95600	10545
0.95667	10534
0.95733	10522
0.95800	10511
0.95867	10500
0.95933	10489
0.96000	10478
0.96067	10467
0.96133	10457
0.96200	10446
0.96267	10436
0.96333	10425
0.96400	10415
0.96467	10405
0.96533	10395
0.96600	10385
0.96667	10375
0.96733	10365
0.96800	10356
0.96867	10346
0.96933	10336
0.97000	10326
0.97067	10316
0.97133	10306
0.97200	10297
0.97267	10287
0.97333	10277
0.97400	10267
0.97467	10257
0.97533	10246
0.97600	10236
0.97667	10226
0.97733	10216
0.97800	10205
0.97867	10195
0.97933	10184
0.98000	10174
0.98067	10163
0.98133	10152
0.98200	10142
0.98267	10131
0.98333	10120
0.98400	10109
0.98467	10097
0.98533	10086
0.98600	10075
0.98667	10064
0.98733	10052
0.98800	10041
0.98867	10029
0.98933	10018
0.99000	10006
0.99067	9995
0.99133	9983
0.99200	9972
0.99267	9960
0.99333	9948
0.99400	9937
0.99467	9925
0.99533	9913
0.99600	9902
0.99667	9890
0.99733	9879
0.99800	9867
0.99867	9855
0.99933	9844
1.00000	9832
1.00067	9820
1.00133	9809
1.00200	9797
1.00267	9786
1.00333	9774
1.00400	9763
1.00467	9751
1.00533	9740
1.00600	9728
1.00667	9717
1.00733	9706
1.00800	9695
1.00867	9683
1.00933	9672
1.01000	9661
1.01067	9650
1.01133	9639
1.01200	9628
1.01267	9618
1.01333	9607
1.01400	9596
1.01467	9586
1.01533	9575
1.01600	9565
1.01667	9555
1.01733	9545
1.01800	9535
1.01867	9525
1.01933	9515
1.02000	9505
1.02067	9496
1.02133	9487
1.02200	9477
1.02267	9468
1.02333	9459
1.02400	9450
1.02467	9442
1.02533	9433
1.02600	9425
1.02667	9416
1.02733	9408
1.02800	9400
1.02867	9392
1.02933	9384
1.03000	9376
1.03067	9368
1.03133	9360
1.03200	9352
1.03267	9345
1.03333	9337
1.03400	9329
1.03467	9321
1.03533	9314
1.03600	9306
1.03667	9298
1.03733	9290
1.03800	9282
1.03867	9274
1.03933	9267
1.04000	9259
1.04067	9251
1.04133	9243
1.04200	9235
1.04267	9226
1.04333	9218
1.04400	9210
1.04467	9202
1.04533	9194
1.04600	9185
1.04667	9177
1.04733	9169
1.04800	9160
1.04867	9152
1.04933	9144
1.05000	9135
1.05067	9127
1.05133	9118
1.05200	9110
1.05267	9102
1.05333	9094
1.05400	9085
1.05467	9077
1.05533	9069
1.05600	9060
1.05667	9052
1.05733	9044
1.05800	9036
1.05867	9028
1.05933	9019
1.06000	9011
1.06067	9003
1.06133	8995
1.06200	8987
1.06267	8978
1.06333	8970
1.06400	8962
1.06467	8954
1.06533	8946
1.06600	8938
1.06667	8930
1.06733	8922
1.06800	8914
1.06867	8906
1.06933	8898
1.07000	8890
1.07067	8882
1.07133	8874
1.07200	8867
1.07267	8859
1.07333	8851
1.07400	8844
1.07467	8836
1.07533	8828
1.07600	8821
1.07667	8813
1.07733	8806
1.07800	8798
1.07867	8791
1.07933	8784
1.08000	8776
1.08067	8769
1.08133	8762
1.08200	8754
1.08267	8747
1.08333	8740
1.08400	8732
1.08467	8725
1.08533	8718
1.08600	8711
1.08667	8703
1.08733	8696
1.08800	8689
1.08867	8682
1.08933	8674
1.09000	8667
1.09067	8660
1.09133	8653
1.09200	8645
1.09267	8638
1.09333	8631
1.09400	8624
1.09467	8617
1.09533	8609
1.09600	8602
1.09667	8595
1.09733	8588
1.09800	8581
1.09867	8574
1.09933	8567
1.10000	8559
1.10067	8552
1.10133	8545
1.10200	8538
1.10267	8531
1.10333	8524
1.10400	8518
1.10467	8511
1.10533	8504
1.10600	8497
1.10667	8490
1.10733	8483
1.10800	8477
1.10867	8470
1.10933	8463
1.11000	8456
1.11067	8450
1.11133	8443
1.11200	8436
1.11267	8430
1.11333	8423
1.11400	8416
1.11467	8410
1.11533	8403
1.11600	8397
1.11667	8390
1.11733	8384
1.11800	8378
1.11867	8371
1.11933	8365
1.12000	8359
1.12067	8353
1.12133	8347
1.12200	8340
1.12267	8334
1.12333	8328
1.12400	8322
1.12467	8316
1.12533	8310
1.12600	8305
1.12667	8299
1.12733	8293
1.12800	8287
1.12867	8282
1.12933	8276
1.13000	8271
1.13067	8266
1.13133	8260
1.13200	8255
1.13267	8250
1.13333	8245
1.13400	8240
1.13467	8235
1.13533	8231
1.13600	8226
1.13667	8221
1.13733	8217
1.13800	8213
1.13867	8209
1.13933	8204
1.14000	8200
1.14067	8197
1.14133	8193
1.14200	8189
1.14267	8185
1.14333	8182
1.14400	8178
1.14467	8175
1.14533	8172
1.14600	8169
1.14667	8166
1.14733	8163
1.14800	8160
1.14867	8157
1.14933	8154
1.15000	8151
1.15067	8148
1.15133	8145
1.15200	8142
1.15267	8140
1.15333	8137
1.15400	8133
1.15467	8130
1.15533	8127
1.15600	8124
1.15667	8121
1.15733	8118
1.15800	8114
1.15867	8111
1.15933	8107
1.16000	8104
1.16067	8100
1.16133	8096
1.16200	8092
1.16267	8089
1.16333	8085
1.16400	8081
1.16467	8077
1.16533	8073
1.16600	8069
1.16667	8064
1.16733	8060
1.16800	8056
1.16867	8051
1.16933	8047
1.17000	8042
1.17067	8038
1.17133	8033
1.17200	8028
1.17267	8023
1.17333	8019
1.17400	8014
1.17467	8009
1.17533	8004
1.17600	7999
1.17667	7994
1.17733	7989
1.17800	7985
1.17867	7980
1.17933	7975
1.18000	7970
1.18067	7965
1.18133	7960
1.18200	7955
1.18267	7950
1.18333	7945
1.18400	7940
1.18467	7936
1.18533	7931
1.18600	7926
1.18667	7921
1.18733	7917
1.18800	7912
1.18867	7907
1.18933	7903
1.19000	7898
1.19067	7894
1.19133	7889
1.19200	7885
1.19267	7881
1.19333	7876
1.19400	7872
1.19467	7868
1.19533	7864
1.19600	7860
1.19667	7856
1.19733	7852
1.19800	7848
1.19867	7844
1.19933	7840
1.20000	7836
1.20067	7832
1.20133	7829
1.20200	7825
1.20267	7821
1.20333	7818
1.20400	7814
1.20467	7811
1.20533	7808
1.20600	7804
1.20667	7801
1.20733	7798
1.20800	7795
1.20867	7792
1.20933	7789
1.21000	7786
1.21067	7783
1.21133	7780
1.21200	7777
1.21267	7775
1.21333	7772
1.21400	7769
1.21467	7767
1.21533	7764
1.21600	7762
1.21667	7759
1.21733	7757
1.21800	7754
1.21867	7752
1.21933	7750
1.22000	7747
1.22067	7745
1.22133	7743
1.22200	7741
1.22267	7739
1.22333	7737
1.22400	7735
1.22467	7733
1.22533	7732
1.22600	7730
1.22667	7728
1.22733	7726
1.22800	7725
1.22867	7723
1.22933	7721
1.23000	7720
1.23067	7718
1.23133	7716
1.23200	7715
1.23267	7713
1.23333	7712
1.23400	7710
1.23467	7709
1.23533	7707
1.23600	7706
1.23667	7705
1.23733	7704
1.23800	7702
1.23867	7701
1.23933	7700
1.24000	7699
1.24067	7698
1.24133	7697
1.24200	7696
1.24267	7695
1.24333	7694
1.24400	7693
1.24467	7693
1.24533	7692
1.24600	7691
1.24667	7690
1.24733	7690
1.24800	7689
1.24867	7689
1.24933	7688
1.25000	7688
1.25067	7687
1.25133	7687
1.25200	7687
1.25267	7686
1.25333	7686
1.25400	7686
1.25467	7686
1.25533	7686
1.25600	7686
1.25667	7686
1.25733	7686
1.25800	7687
1.25867	7687
1.25933	7687
1.26000	7688
1.26067	7688
1.26133	7689
1.26200	7690
1.26267	7691
1.26333	7692
1.26400	7694
1.26467	7695
1.26533	7697
1.26600	7699
1.26667	7701
1.26733	7703
1.26800	7705
1.26867	7708
1.26933	7710
1.27000	7713
1.27067	7716
1.27133	7719
1.27200	7722
1.27267	7726
1.27333	7729
1.27400	7733
1.27467	7737
1.27533	7742
1.27600	7746
1.27667	7751
1.27733	7756
1.27800	7761
1.27867	7767
1.27933	7773
1.28000	7778
1.28067	7784
1.28133	7791
1.28200	7797
1.28267	7804
1.28333	7811
1.28400	7817
1.28467	7824
1.28533	7832
1.28600	7839
1.28667	7846
1.28733	7853
1.28800	7861
1.28867	7868
1.28933	7875
1.29000	7883
1.29067	7890
1.29133	7897
1.29200	7904
1.29267	7911
1.29333	7917
1.29400	7923
1.29467	7929
1.29533	7935
1.29600	7941
1.29667	7946
1.29733	7951
1.29800	7956
1.29867	7960
1.29933	7964
1.30000	7968
1.30067	7971
1.30133	7974
1.30200	7977
1.30267	7979
1.30333	7981
1.30400	7983
1.30467	7984
1.30533	7985
1.30600	7986
1.30667	7986
1.30733	7986
1.30800	7986
1.30867	7985
1.30933	7984
1.31000	7983
1.31067	7981
1.31133	7979
1.31200	7977
1.31267	7975
1.31333	7972
1.31400	7969
1.31467	7966
1.31533	7962
1.31600	7959
1.31667	7955
1.31733	7950
1.31800	7946
1.31867	7941
1.31933	7937
1.32000	7932
1.32067	7926
1.32133	7921
1.32200	7916
1.32267	7910
1.32333	7904
1.32400	7898
1.32467	7892
1.32533	7886
1.32600	7880
1.32667	7874
1.32733	7867
1.32800	7861
1.32867	7854
1.32933	7848
1.33000	7841
1.33067	7834
1.33133	7827
1.33200	7820
1.33267	7812
1.33333	7805
1.33400	7798
1.33467	7791
1.33533	7783
1.33600	7776
1.33667	7768
1.33733	7760
1.33800	7753
1.33867	7745
1.33933	7737
1.34000	7729
1.34067	7721
1.34133	7713
1.34200	7705
1.34267	7697
1.34333	7689
1.34400	7681
1.34467	7672
1.34533	7664
1.34600	7656
1.34667	7648
1.34733	7639
1.34800	7631
1.34867	7623
1.34933	7615
1.35000	7607
1.35067	7599
1.35133	7591
1.35200	7583
1.35267	7575
1.35333	7567
1.35400	7559
1.35467	7551
1.35533	7543
1.35600	7536
1.35667	7528
1.35733	7521
1.35800	7513
1.35867	7506
1.35933	7499
1.36000	7492
1.36067	7485
1.36133	7478
1.36200	7471
1.36267	7464
1.36333	7457
1.36400	7451
1.36467	7444
1.36533	7438
1.36600	7431
1.36667	7425
1.36733	7419
1.36800	7413
1.36867	7407
1.36933	7401
1.37000	7395
1.37067	7389
1.37133	7383
1.37200	7377
1.37267	7371
1.37333	7366
1.37400	7360
1.37467	7355
1.37533	7350
1.37600	7344
1.37667	7339
1.37733	7334
1.37800	7329
1.37867	7324
1.37933	7320
1.38000	7315
1.38067	7310
1.38133	7306
1.38200	7301
1.38267	7297
1.38333	7293
1.38400	7288
1.38467	7284
1.38533	7280
1.38600	7276
1.38667	7272
1.38733	7268
1.38800	7264
1.38867	7260
1.38933	7256
1.39000	7252
1.39067	7248
1.39133	7244
1.39200	7240
1.39267	7237
1.39333	7233
1.39400	7229
1.39467	7225
1.39533	7221
1.39600	7218
1.39667	7214
1.39733	7210
1.39800	7206
1.39867	7202
1.39933	7198
1.40000	7194
1.40067	7190
1.40133	7187
1.40200	7183
1.40267	7179
1.40333	7175
1.40400	7171
1.40467	7167
1.40533	7163
1.40600	7159
1.40667	7156
1.40733	7152
1.40800	7148
1.40867	7144
1.40933	7140
1.41000	7136
1.41067	7132
1.41133	7128
1.41200	7124
1.41267	7120
1.41333	7116
1.41400	7113
1.41467	7109
1.41533	7105
1.41600	7101
1.41667	7097
1.41733	7094
1.41800	7090
1.41867	7086
1.41933	7083
1.42000	7079
1.42067	7075
1.42133	7072
1.42200	7068
1.42267	7065
1.42333	7061
1.42400	7058
1.42467	7055
1.42533	7051
1.42600	7048
1.42667	7045
1.42733	7042
1.42800	7039
1.42867	7036
1.42933	7033
1.43000	7030
1.43067	7027
1.43133	7024
1.43200	7022
1.43267	7019
1.43333	7017
1.43400	7014
1.43467	7011
1.43533	7009
1.43600	7007
1.43667	7004
1.43733	7002
1.43800	6999
1.43867	6997
1.43933	6995
1.44000	6992
1.44067	6990
1.44133	6988
1.44200	6986
1.44267	6983
1.44333	6981
1.44400	6979
1.44467	6976
1.44533	6974
1.44600	6971
1.44667	6969
1.44733	6967
1.44800	6964
1.44867	6962
1.44933	6959
1.45000	6957
1.45067	6954
1.45133	6952
1.45200	6949
1.45267	6947
1.45333	6945
1.45400	6942
1.45467	6940
1.45533	6938
1.45600	6935
1.45667	6933
1.45733	6931
1.45800	6928
1.45867	6926
1.45933	6924
1.46000	6921
1.46067	6919
1.46133	6917
1.46200	6914
1.46267	6912
1.46333	6910
1.46400	6907
1.46467	6905
1.46533	6903
1.46600	6900
1.46667	6898
1.46733	6896
1.46800	6893
1.46867	6891
1.46933	6889
1.47000	6887
1.47067	6884
1.47133	6882
1.47200	6880
1.47267	6878
1.47333	6876
1.47400	6873
1.47467	6871
1.47533	6869
1.47600	6867
1.47667	6865
1.47733	6863
1.47800	6861
1.47867	6859
1.47933	6857
1.48000	6855
1.48067	6853
1.48133	6851
1.48200	6849
1.48267	6847
1.48333	6845
1.48400	6843
1.48467	6841
1.48533	6839
1.48600	6837
1.48667	6835
1.48733	6833
1.48800	6831
1.48867	6829
1.48933	6826
1.49000	6824
1.49067	6822
1.49133	6820
1.49200	6818
1.49267	6816
1.49333	6814
1.49400	6811
1.49467	6809
1.49533	6807
1.49600	6805
1.49667	6802
1.49733	6800
1.49800	6798
1.49867	6795
1.49933	6793
1.50000	6790
1.50067	6788
1.50133	6785
1.50200	6782
1.50267	6780
1.50333	6777
1.50400	6775
1.50467	6772
1.50533	6769
1.50600	6767
1.50667	6764
1.50733	6761
1.50800	6759
1.50867	6756
1.50933	6754
1.51000	6751
1.51067	6749
1.51133	6746
1.51200	6743
1.51267	6741
1.51333	6738
1.51400	6736
1.51467	6733
1.51533	6731
1.51600	6728
1.51667	6726
1.51733	6723
1.51800	6721
1.51867	6718
1.51933	6716
1.52000	6714
1.52067	6711
1.52133	6709
1.52200	6706
1.52267	6704
1.52333	6702
1.52400	6699
1.52467	6697
1.52533	6695
1.52600	6693
1.52667	6691
1.52733	6688
1.52800	6686
1.52867	6684
1.52933	6682
1.53000	6680
1.53067	6678
1.53133	6676
1.53200	6674
1.53267	6672
1.53333	6670
1.53400	6668
1.53467	6667
1.53533	6665
1.53600	6663
1.53667	6661
1.53733	6660
1.53800	6658
1.53867	6656
1.53933	6654
1.54000	6653
1.54067	6651
1.54133	6649
1.54200	6648
1.54267	6646
1.54333	6644
1.54400	6642
1.54467	6641
1.54533	6639
1.54600	6637
1.54667	6635
1.54733	6634
1.54800	6632
1.54867	6630
1.54933	6628
1.55000	6626
1.55067	6624
1.55133	6622
1.55200	6620
1.55267	6618
1.55333	6616
1.55400	6614
1.55467	6612
1.55533	6610
1.55600	6608
1.55667	6606
1.55733	6605
1.55800	6603
1.55867	6601
1.55933	6599
1.56000	6597
1.56067	6596
1.56133	6594
1.56200	6592
1.56267	6590
1.56333	6588
1.56400	6587
1.56467	6585
1.56533	6583
1.56600	6581
1.56667	6580
1.56733	6578
1.56800	6576
1.56867	6575
1.56933	6573
1.57000	6572
1.57067	6570
1.57133	6569
1.57200	6567
1.57267	6566
1.57333	6565
1.57400	6563
1.57467	6562
1.57533	6561
1.57600	6559
1.57667	6558
1.57733	6557
1.57800	6555
1.57867	6554
1.57933	6553
1.58000	6552
1.58067	6550
1.58133	6549
1.58200	6548
1.58267	6547
1.58333	6545
1.58400	6544
1.58467	6543
1.58533	6542
1.58600	6541
1.58667	6539
1.58733	6538
1.58800	6537
1.58867	6536
1.58933	6535
1.59000	6534
1.59067	6533
1.59133	6532
1.59200	6531
1.59267	6531
1.59333	6530
1.59400	6528
1.59467	6527
1.59533	6526
1.59600	6525
1.59667	6524
1.59733	6523
1.59800	6522
1.59867	6520
1.59933	6519
1.60000	6518
1.60067	6517
1.60133	6516
1.60200	6514
1.60267	6513
1.60333	6512
1.60400	6511
1.60467	6510
1.60533	6508
1.60600	6507
1.60667	6506
1.60733	6505
1.60800	6504
1.60867	6503
1.60933	6501
1.61000	6500
1.61067	6499
1.61133	6499
1.61200	6498
1.61267	6497
1.61333	6496
1.61400	6495
1.61467	6494
1.61533	6493
1.61600	6492
1.61667	6491
1.61733	6490
1.61800	6489
1.61867	6488
1.61933	6487
1.62000	6486
1.62067	6485
1.62133	6484
1.62200	6484
1.62267	6483
1.62333	6482
1.62400	6481
1.62467	6480
1.62533	6479
1.62600	6478
1.62667	6478
1.62733	6477
1.62800	6476
1.62867	6475
1.62933	6474
1.63000	6473
1.63067	6472
1.63133	6471
1.63200	6470
1.63267	6469
1.63333	6468
1.63400	6467
1.63467	6467
1.63533	6466
1.63600	6465
1.63667	6464
1.63733	6464
1.63800	6463
1.63867	6462
1.63933	6461
1.64000	6461
1.64067	6460
1.64133	6459
1.64200	6459
1.64267	6458
1.64333	6457
1.64400	6457
1.64467	6456
1.64533	6456
1.64600	6455
1.64667	6455
1.64733	6454
1.64800	6454
1.64867	6453
1.64933	6453
1.65000	6452
1.65067	6452
1.65133	6451
1.65200	6450
1.65267	6450
1.65333	6449
1.65400	6449
1.65467	6448
1.65533	6448
1.65600	6447
1.65667	6447
1.65733	6446
1.65800	6446
1.65867	6445
1.65933	6445
1.66000	6444
1.66067	6444
1.66133	6443
1.66200	6443
1.66267	6442
1.66333	6442
1.66400	6441
1.66467	6441
1.66533	6440
1.66600	6440
1.66667	6439
1.66733	6438
1.66800	6438
1.66867	6437
1.66933	6436
1.67000	6435
1.67067	6435
1.67133	6434
1.67200	6433
1.67267	6432
1.67333	6432
1.67400	6431
1.67467	6430
1.67533	6429
1.67600	6428
1.67667	6427
1.67733	6426
1.67800	6425
1.67867	6424
1.67933	6423
1.68000	6422
1.68067	6421
1.68133	6420
1.68200	6419
1.68267	6418
1.68333	6417
1.68400	6416
1.68467	6415
1.68533	6414
1.68600	6413
1.68667	6412
1.68733	6411
1.68800	6410
1.68867	6410
1.68933	6409
1.69000	6408
1.69067	6407
1.69133	6406
1.69200	6404
1.69267	6403
1.69333	6402
1.69400	6401
1.69467	6400
1.69533	6399
1.69600	6398
1.69667	6396
1.69733	6395
1.69800	6394
1.69867	6392
1.69933	6391
1.70000	6389
1.70067	6388
1.70133	6386
1.70200	6385
1.70267	6384
1.70333	6382
1.70400	6380
1.70467	6379
1.70533	6377
1.70600	6376
1.70667	6374
1.70733	6373
1.70800	6371
1.70867	6370
1.70933	6368
1.71000	6367
1.71067	6365
1.71133	6364
1.71200	6363
1.71267	6361
1.71333	6360
1.71400	6359
1.71467	6359
1.71533	6358
1.71600	6358
1.71667	6359
1.71733	6359
1.71800	6361
1.71867	6363
1.71933	6366
1.72000	6370
1.72067	6375
1.72133	6382
1.72200	6391
1.72267	6403
1.72333	6417
1.72400	6435
1.72467	6456
1.72533	6483
1.72600	6515
1.72667	6555
1.72733	6603
1.72800	6661
1.72867	6730
1.72933	6813
1.73000	6911
1.73067	7028
1.73133	7166
1.73200	7328
1.73267	7519
1.73333	7741
1.73400	7999
1.73467	8298
1.73533	8643
1.73600	9041
1.73667	9497
1.73733	10019
1.73800	10612
1.73867	11285
1.73933	12046
1.74000	12904
1.74067	13867
1.74133	14944
1.74200	16142
1.74267	17469
1.74333	18934
1.74400	20545
1.74467	22311
1.74533	24243
1.74600	26350
1.74667	28641
1.74733	31126
1.74800	33814
1.74867	36712
1.74933	39827
1.75000	43164
1.75067	46728
1.75133	50524
1.75200	54554
1.75267	58820
1.75333	63321
1.75400	68055
1.75467	73018
1.75533	78203
1.75600	83600
1.75667	89200
1.75733	94990
1.75800	100957
1.75867	107084
1.75933	113353
1.76000	119739
1.76067	126222
1.76133	132775
1.76200	139376
1.76267	145999
1.76333	152618
1.76400	159210
1.76467	165749
1.76533	172208
1.76600	178562
1.76667	184788
1.76733	190861
1.76800	196758
1.76867	202459
1.76933	207943
1.77000	213189
1.77067	218181
1.77133	222900
1.77200	227333
1.77267	231468
1.77333	235294
1.77400	238802
1.77467	241987
1.77533	244845
1.77600	247374
1.77667	249575
1.77733	251452
1.77800	253010
1.77867	254253
1.77933	255190
1.78000	255829
1.78067	256179
1.78133	256250
1.78200	256053
1.78267	255599
1.78333	254899
1.78400	253966
1.78467	252811
1.78533	251448
1.78600	249888
1.78667	248145
1.78733	246229
1.78800	244152
1.78867	241927
1.78933	239565
1.79000	237076
1.79067	234472
1.79133	231763
1.79200	228958
1.79267	226067
1.79333	223099
1.79400	220063
1.79467	216967
1.79533	213820
1.79600	210627
1.79667	207397
1.79733	204136
1.79800	200851
1.79867	197546
1.79933	194228
1.80000	190902
1.80067	187573
1.80133	184245
1.80200	180921
1.80267	177607
1.80333	174306
1.80400	171021
1.80467	167755
1.80533	164510
1.80600	161291
1.80667	158098
1.80733	154935
1.80800	151803
1.80867	148705
1.80933	145641
1.81000	142613
1.81067	139624
1.81133	136673
1.81200	133763
1.81267	130893
1.81333	128066
1.81400	125281
1.81467	122539
1.81533	119841
1.81600	117188
1.81667	114578
1.81733	112014
1.81800	109495
1.81867	107020
1.81933	104591
1.82000	102207
1.82067	99868
1.82133	97573
1.82200	95324
1.82267	93118
1.82333	90957
1.82400	88840
1.82467	86766
1.82533	84736
1.82600	82748
1.82667	80802
1.82733	78899
1.82800	77037
1.82867	75216
1.82933	73435
1.83000	71694
1.83067	69993
1.83133	68330
1.83200	66706
1.83267	65120
1.83333	63570
1.83400	62058
1.83467	60581
1.83533	59139
1.83600	57732
1.83667	56360
1.83733	55020
1.83800	53714
1.83867	52440
1.83933	51198
1.84000	49987
1.84067	48806
1.84133	47655
1.84200	46533
1.84267	45440
1.84333	44375
1.84400	43338
1.84467	42327
1.84533	41343
1.84600	40384
1.84667	39450
1.84733	38542
1.84800	37657
1.84867	36795
1.84933	35957
1.85000	35141
1.85067	34347
1.85133	33574
1.85200	32822
1.85267	32090
1.85333	31378
1.85400	30685
1.85467	30012
1.85533	29356
1.85600	28719
1.85667	28099
1.85733	27496
1.85800	26910
1.85867	26340
1.85933	25785
1.86000	25246
1.86067	24722
1.86133	24213
1.86200	23718
1.86267	23237
1.86333	22769
1.86400	22314
1.86467	21873
1.86533	21443
1.86600	21026
1.86667	20620
1.86733	20226
1.86800	19843
1.86867	19471
1.86933	19109
1.87000	18758
1.87067	18416
1.87133	18084
1.87200	17762
1.87267	17449
1.87333	17144
1.87400	16849
1.87467	16561
1.87533	16282
1.87600	16011
1.87667	15748
1.87733	15492
1.87800	15244
1.87867	15002
1.87933	14768
1.88000	14540
1.88067	14319
1.88133	14103
1.88200	13895
1.88267	13691
1.88333	13494
1.88400	13303
1.88467	13116
1.88533	12935
1.88600	12760
1.88667	12589
1.88733	12423
1.88800	12262
1.88867	12105
1.88933	11953
1.89000	11805
1.89067	11661
1.89133	11522
1.89200	11386
1.89267	11254
1.89333	11126
1.89400	11002
1.89467	10881
1.89533	10764
1.89600	10650
1.89667	10539
1.89733	10431
1.89800	10326
1.89867	10225
1.89933	10126
1.90000	10030
1.90067	9936
1.90133	9845
1.90200	9757
1.90267	9671
1.90333	9588
1.90400	9507
1.90467	9428
1.90533	9351
1.90600	9276
1.90667	9204
1.90733	9133
1.90800	9065
1.90867	8998
1.90933	8933
1.91000	8869
1.91067	8808
1.91133	8747
1.91200	8689
1.91267	8632
1.91333	8576
1.91400	8521
1.91467	8468
1.91533	8417
1.91600	8366
1.91667	8317
1.91733	8269
1.91800	8222
1.91867	8176
1.91933	8131
1.92000	8087
1.92067	8044
1.92133	8001
1.92200	7960
1.92267	7920
1.92333	7880
1.92400	7842
1.92467	7804
1.92533	7767
1.92600	7731
1.92667	7696
1.92733	7661
1.92800	7627
1.92867	7594
1.92933	7561
1.93000	7529
1.93067	7498
1.93133	7468
1.93200	7438
1.93267	7409
1.93333	7380
1.93400	7352
1.93467	7325
1.93533	7298
1.93600	7272
1.93667	7246
1.93733	7221
1.93800	7197
1.93867	7173
1.93933	7150
1.94000	7127
1.94067	7105
1.94133	7083
1.94200	7062
1.94267	7041
1.94333	7021
1.94400	7002
1.94467	6982
1.94533	6964
1.94600	6945
1.94667	6927
1.94733	6910
1.94800	6893
1.94867	6876
1.94933	6860
1.95000	6844
1.95067	6828
1.95133	6813
1.95200	6798
1.95267	6784
1.95333	6770
1.95400	6756
1.95467	6742
1.95533	6729
1.95600	6716
1.95667	6704
1.95733	6691
1.95800	6679
1.95867	6668
1.95933	6656
1.96000	6645
1.96067	6634
1.96133	6623
1.96200	6613
1.96267	6602
1.96333	6592
1.96400	6582
1.96467	6573
1.96533	6563
1.96600	6554
1.96667	6545
1.96733	6536
1.96800	6527
1.96867	6519
1.96933	6510
1.97000	6502
1.97067	6494
1.97133	6486
1.97200	6479
1.97267	6471
1.97333	6464
1.97400	6456
1.97467	6449
1.97533	6442
1.97600	6435
1.97667	6428
1.97733	6421
1.97800	6415
1.97867	6408
1.97933	6401
1.98000	6395
1.98067	6389
1.98133	6382
1.98200	6376
1.98267	6370
1.98333	6364
1.98400	6358
1.98467	6352
1.98533	6346
1.98600	6340
1.98667	6334
1.98733	6328
1.98800	6322
1.98867	6317
1.98933	6311
1.99000	6306
1.99067	6300
1.99133	6295
1.99200	6290
1.99267	6284
1.99333	6279
1.99400	6274
1.99467	6269
1.99533	6264
1.99600	6259
1.99667	6254
1.99733	6249
1.99800	6244
1.99867	6239
1.99933	6234
2.00000	6229
2.00067	6224
2.00133	6219
2.00200	6215
2.00267	6210
2.00333	6205
2.00400	6200
2.00467	6196
2.00533	6191
2.00600	6186
2.00667	6182
2.00733	6177
2.00800	6173
2.00867	6168
2.00933	6163
2.01000	6159
2.01067	6154
2.01133	6150
2.01200	6145
2.01267	6141
2.01333	6136
2.01400	6131
2.01467	6127
2.01533	6122
2.01600	6118
2.01667	6114
2.01733	6109
2.01800	6105
2.01867	6100
2.01933	6096
2.02000	6091
2.02067	6087
2.02133	6083
2.02200	6078
2.02267	6074
2.02333	6069
2.02400	6065
2.02467	6061
2.02533	6057
2.02600	6052
2.02667	6048
2.02733	6044
2.02800	6040
2.02867	6036
2.02933	6032
2.03000	6028
2.03067	6024
2.03133	6020
2.03200	6016
2.03267	6012
2.03333	6008
2.03400	6004
2.03467	6000
2.03533	5997
2.03600	5993
2.03667	5990
2.03733	5986
2.03800	5982
2.03867	5979
2.03933	5976
2.04000	5972
2.04067	5969
2.04133	5965
2.04200	5962
2.04267	5958
2.04333	5955
2.04400	5951
2.04467	5948
2.04533	5945
2.04600	5941
2.04667	5938
2.04733	5935
2.04800	5931
2.04867	5928
2.04933	5924
2.05000	5921
2.05067	5918
2.05133	5914
2.05200	5911
2.05267	5908
2.05333	5905
2.05400	5901
2.05467	5898
2.05533	5895
2.05600	5892
2.05667	5889
2.05733	5886
2.05800	5883
2.05867	5880
2.05933	5877
2.06000	5874
2.06067	5871
2.06133	5868
2.06200	5865
2.06267	5862
2.06333	5859
2.06400	5857
2.06467	5854
2.06533	5851
2.06600	5848
2.06667	5846
2.06733	5843
2.06800	5840
2.06867	5838
2.06933	5835
2.07000	5832
2.07067	5830
2.07133	5827
2.07200	5824
2.07267	5822
2.07333	5819
2.07400	5817
2.07467	5814
2.07533	5811
2.07600	5809
2.07667	5806
2.07733	5804
2.07800	5801
2.07867	5799
2.07933	5796
2.08000	5794
2.08067	5791
2.08133	5789
2.08200	5787
2.08267	5784
2.08333	5782
2.08400	5779
2.08467	5777
2.08533	5774
2.08600	5772
2.08667	5769
2.08733	5766
2.08800	5764
2.08867	5761
2.08933	5759
2.09000	5756
2.09067	5754
2.09133	5751
2.09200	5749
2.09267	5746
2.09333	5744
2.09400	5741
2.09467	5739
2.09533	5737
2.09600	5734
2.09667	5732
2.09733	5730
2.09800	5727
2.09867	5725
2.09933	5723
2.10000	5720
2.10067	5718
2.10133	5716
2.10200	5713
2.10267	5711
2.10333	5709
2.10400	5706
2.10467	5704
2.10533	5701
2.10600	5699
2.10667	5697
2.10733	5694
2.10800	5692
2.10867	5689
2.10933	5686
2.11000	5684
2.11067	5681
2.11133	5679
2.11200	5676
2.11267	5674
2.11333	5671
2.11400	5668
2.11467	5666
2.11533	5663
2.11600	5661
2.11667	5658
2.11733	5655
2.11800	5652
2.11867	5650
2.11933	5647
2.12000	5644
2.12067	5641
2.12133	5639
2.12200	5636
2.12267	5633
2.12333	5631
2.12400	5628
2.12467	5625
2.12533	5623
2.12600	5620
2.12667	5618
2.12733	5615
2.12800	5613
2.12867	5610
2.12933	5608
2.13000	5606
2.13067	5603
2.13133	5601
2.13200	5599
2.13267	5597
2.13333	5594
2.13400	5592
2.13467	5590
2.13533	5588
2.13600	5585
2.13667	5583
2.13733	5581
2.13800	5578
2.13867	5576
2.13933	5574
2.14000	5571
2.14067	5569
2.14133	5566
2.14200	5564
2.14267	5561
2.14333	5559
2.14400	5556
2.14467	5554
2.14533	5551
2.14600	5549
2.14667	5546
2.14733	5544
2.14800	5542
2.14867	5539
2.14933	5537
2.15000	5534
2.15067	5532
2.15133	5529
2.15200	5527
2.15267	5524
2.15333	5522
2.15400	5520
2.15467	5517
2.15533	5515
2.15600	5513
2.15667	5510
2.15733	5508
2.15800	5506
2.15867	5504
2.15933	5501
2.16000	5499
2.16067	5497
2.16133	5495
2.16200	5492
2.16267	5490
2.16333	5488
2.16400	5485
2.16467	5483
2.16533	5481
2.16600	5479
2.16667	5476
2.16733	5474
2.16800	5472
2.16867	5469
2.16933	5467
2.17000	5465
2.17067	5462
2.17133	5460
2.17200	5458
2.17267	5455
2.17333	5453
2.17400	5451
2.17467	5449
2.17533	5446
2.17600	5444
2.17667	5442
2.17733	5440
2.17800	5438
2.17867	5436
2.17933	5433
2.18000	5431
2.18067	5429
2.18133	5427
2.18200	5426
2.18267	5424
2.18333	5422
2.18400	5420
2.18467	5418
2.18533	5416
2.18600	5414
2.18667	5413
2.18733	5411
2.18800	5409
2.18867	5407
2.18933	5405
2.19000	5403
2.19067	5401
2.19133	5399
2.19200	5397
2.19267	5395
2.19333	5394
2.19400	5392
2.19467	5390
2.19533	5388
2.19600	5386
2.19667	5385
2.19733	5383
2.19800	5381
2.19867	5380
2.19933	5378
2.20000	5377
2.20067	5375
2.20133	5374
2.20200	5373
2.20267	5372
2.20333	5370
2.20400	5369
2.20467	5368
2.20533	5367
2.20600	5367
2.20667	5366
2.20733	5365
2.20800	5365
2.20867	5364
2.20933	5364
2.21000	5363
2.21067	5363
2.21133	5363
2.21200	5363
2.21267	5363
2.21333	5363
2.21400	5363
2.21467	5363
2.21533	5363
2.21600	5363
2.21667	5363
2.21733	5363
2.21800	5364
2.21867	5364
2.21933	5364
2.22000	5365
2.22067	5365
2.22133	5365
2.22200	5366
2.22267	5366
2.22333	5367
2.22400	5367
2.22467	5367
2.22533	5368
2.22600	5368
2.22667	5369
2.22733	5369
2.22800	5369
2.22867	5369
2.22933	5370
2.23000	5370
2.23067	5370
2.23133	5370
2.23200	5370
2.23267	5370
2.23333	5370
2.23400	5369
2.23467	5369
2.23533	5369
2.23600	5368
2.23667	5368
2.23733	5367
2.23800	5367
2.23867	5366
2.23933	5365
2.24000	5365
2.24067	5364
2.24133	5363
2.24200	5362
2.24267	5362
2.24333	5361
2.24400	5360
2.24467	5359
2.24533	5358
2.24600	5357
2.24667	5356
2.24733	5355
2.24800	5355
2.24867	5354
2.24933	5353
2.25000	5352
2.25067	5351
2.25133	5350
2.25200	5349
2.25267	5348
2.25333	5347
2.25400	5346
2.25467	5345
2.25533	5344
2.25600	5343
2.25667	5342
2.25733	5341
2.25800	5340
2.25867	5339
2.25933	5338
2.26000	5337
2.26067	5336
2.26133	5335
2.26200	5334
2.26267	5333
2.26333	5332
2.26400	5330
2.26467	5329
2.26533	5328
2.26600	5327
2.26667	5326
2.26733	5324
2.26800	5323
2.26867	5322
2.26933	5320
2.27000	5319
2.27067	5318
2.27133	5316
2.27200	5315
2.27267	5314
2.27333	5312
2.27400	5311
2.27467	5309
2.27533	5308
2.27600	5307
2.27667	5305
2.27733	5304
2.27800	5302
2.27867	5301
2.27933	5299
2.28000	5298
2.28067	5296
2.28133	5295
2.28200	5293
2.28267	5292
2.28333	5290
2.28400	5289
2.28467	5287
2.28533	5286
2.28600	5285
2.28667	5283
2.28733	5282
2.28800	5281
2.28867	5280
2.28933	5278
2.29000	5277
2.29067	5276
2.29133	5275
2.29200	5274
2.29267	5273
2.29333	5272
2.29400	5271
2.29467	5269
2.29533	5268
2.29600	5267
2.29667	5266
2.29733	5265
2.29800	5264
2.29867	5263
2.29933	5262
2.30000	5260
2.30067	5259
2.30133	5258
2.30200	5257
2.30267	5256
2.30333	5255
2.30400	5254
2.30467	5253
2.30533	5252
2.30600	5251
2.30667	5250
2.30733	5249
2.30800	5248
2.30867	5247
2.30933	5246
2.31000	5245
2.31067	5244
2.31133	5243
2.31200	5243
2.31267	5242
2.31333	5241
2.31400	5240
2.31467	5239
2.31533	5238
2.31600	5238
2.31667	5237
2.31733	5236
2.31800	5235
2.31867	5234
2.31933	5234
2.32000	5233
2.32067	5232
2.32133	5231
2.32200	5230
2.32267	5230
2.32333	5229
2.32400	5228
2.32467	5228
2.32533	5227
2.32600	5226
2.32667	5226
2.32733	5225
2.32800	5225
2.32867	5224
2.32933	5223
2.33000	5223
2.33067	5222
2.33133	5222
2.33200	5221
2.33267	5221
2.33333	5220
2.33400	5220
2.33467	5219
2.33533	5219
2.33600	5218
2.33667	5218
2.33733	5217
2.33800	5217
2.33867	5216
2.33933	5216
2.34000	5215
2.34067	5215
2.34133	5214
2.34200	5214
2.34267	5214
2.34333	5213
2.34400	5213
2.34467	5212
2.34533	5212
2.34600	5212
2.34667	5212
2.34733	5211
2.34800	5211
2.34867	5211
2.34933	5211
2.35000	5211
2.35067	5210
2.35133	5210
2.35200	5210
2.35267	5210
2.35333	5210
2.35400	5210
2.35467	5210
2.35533	5210
2.35600	5211
2.35667	5211
2.35733	5211
2.35800	5211
2.35867	5211
2.35933	5211
2.36000	5211
2.36067	5211
2.36133	5211
2.36200	5211
2.36267	5211
2.36333	5211
2.36400	5211
2.36467	5210
2.36533	5210
2.36600	5210
2.36667	5210
2.36733	5210
2.36800	5210
2.36867	5210
2.36933	5210
2.37000	5210
2.37067	5210
2.37133	5210
2.37200	5210
2.37267	5210
2.37333	5210
2.37400	5209
2.37467	5209
2.37533	5209
2.37600	5209
2.37667	5209
2.37733	5209
2.37800	5208
2.37867	5208
2.37933	5208
2.38000	5208
2.38067	5207
2.38133	5207
2.38200	5207
2.38267	5206
2.38333	5206
2.38400	5206
2.38467	5205
2.38533	5205
2.38600	5205
2.38667	5205
2.38733	5204
2.38800	5204
2.38867	5204
2.38933	5203
2.39000	5203
2.39067	5203
2.39133	5202
2.39200	5202
2.39267	5201
2.39333	5201
2.39400	5200
2.39467	5200
2.39533	5199
2.39600	5199
2.39667	5198
2.39733	5198
2.39800	5197
2.39867	5197
2.39933	5196
2.40000	5196
2.40067	5195
2.40133	5194
2.40200	5194
2.40267	5193
2.40333	5193
2.40400	5192
2.40467	5191
2.40533	5191
2.40600	5190
2.40667	5189
2.40733	5189
2.40800	5188
2.40867	5187
2.40933	5187
2.41000	5186
2.41067	5185
2.41133	5184
2.41200	5184
2.41267	5183
2.41333	5182
2.41400	5181
2.41467	5181
2.41533	5180
2.41600	5179
2.41667	5179
2.41733	5178
2.41800	5177
2.41867	5176
2.41933	5175
2.42000	5175
2.42067	5174
2.42133	5173
2.42200	5172
2.42267	5171
2.42333	5171
2.42400	5170
2.42467	5169
2.42533	5168
2.42600	5167
2.42667	5166
2.42733	5166
2.42800	5165
2.42867	5164
2.42933	5163
2.43000	5162
2.43067	5161
2.43133	5160
2.43200	5159
2.43267	5158
2.43333	5157
2.43400	5156
2.43467	5155
2.43533	5154
2.43600	5153
2.43667	5152
2.43733	5151
2.43800	5150
2.43867	5148
2.43933	5147
2.44000	5146
2.44067	5144
2.44133	5143
2.44200	5142
2.44267	5140
2.44333	5139
2.44400	5137
2.44467	5136
2.44533	5134
2.44600	5133
2.44667	5131
2.44733	5130
2.44800	5128
2.44867	5127
2.44933	5125
2.45000	5124
2.45067	5122
2.45133	5121
2.45200	5119
2.45267	5118
2.45333	5116
2.45400	5115
2.45467	5113
2.45533	5111
2.45600	5110
2.45667	5108
2.45733	5107
2.45800	5105
2.45867	5104
2.45933	5102
2.46000	5101
2.46067	5099
2.46133	5097
2.46200	5096
2.46267	5094
2.46333	5093
2.46400	5091
2.46467	5089
2.46533	5088
2.46600	5086
2.46667	5084
2.46733	5083
2.46800	5081
2.46867	5079
2.46933	5077
2.47000	5076
2.47067	5074
2.47133	5072
2.47200	5070
2.47267	5069
2.47333	5067
2.47400	5065
2.47467	5063
2.47533	5061
2.47600	5059
2.47667	5057
2.47733	5055
2.47800	5053
2.47867	5051
2.47933	5049
2.48000	5047
2.48067	5045
2.48133	5043
2.48200	5041
2.48267	5039
2.48333	5037
2.48400	5035
2.48467	5033
2.48533	5031
2.48600	5029
2.48667	5027
2.48733	5025
2.48800	5023
2.48867	5021
2.48933	5019
2.49000	5017
2.49067	5015
2.49133	5013
2.49200	5011
2.49267	5009
2.49333	5007
2.49400	5005
2.49467	5002
2.49533	5000
2.49600	4998
2.49667	4996
2.49733	4994
2.49800	4992
2.49867	4989
2.49933	4987
2.50000	4985
2.50067	4983
2.50133	4981
2.50200	4979
2.50267	4977
2.50333	4975
2.50400	4972
2.50467	4970
2.50533	4968
2.50600	4966
2.50667	4964
2.50733	4962
2.50800	4960
2.50867	4958
2.50933	4956
2.51000	4954
2.51067	4952
2.51133	4950
2.51200	4948
2.51267	4946
2.51333	4944
2.51400	4942
2.51467	4940
2.51533	4938
2.51600	4936
2.51667	4934
2.51733	4932
2.51800	4930
2.51867	4928
2.51933	4926
2.52000	4924
2.52067	4922
2.52133	4920
2.52200	4918
2.52267	4916
2.52333	4914
2.52400	4913
2.52467	4911
2.52533	4909
2.52600	4907
2.52667	4905
2.52733	4903
2.52800	4901
2.52867	4899
2.52933	4897
2.53000	4895
2.53067	4893
2.53133	4891
2.53200	4889
2.53267	4887
2.53333	4885
2.53400	4884
2.53467	4882
2.53533	4880
2.53600	4878
2.53667	4876
2.53733	4875
2.53800	4873
2.53867	4871
2.53933	4869
2.54000	4867
2.54067	4865
2.54133	4863
2.54200	4861
2.54267	4859
2.54333	4857
2.54400	4856
2.54467	4854
2.54533	4852
2.54600	4850
2.54667	4848
2.54733	4846
2.54800	4844
2.54867	4842
2.54933	4841
2.55000	4839
2.55067	4837
2.55133	4835
2.55200	4833
2.55267	4832
2.55333	4830
2.55400	4828
2.55467	4826
2.55533	4825
2.55600	4823
2.55667	4821
2.55733	4820
2.55800	4818
2.55867	4816
2.55933	4815
2.56000	4813
2.56067	4811
2.56133	4810
2.56200	4808
2.56267	4807
2.56333	4805
2.56400	4803
2.56467	4802
2.56533	4800
2.56600	4799
2.56667	4797
2.56733	4796
2.56800	4794
2.56867	4792
2.56933	4791
2.57000	4790
2.57067	4788
2.57133	4787
2.57200	4785
2.57267	4784
2.57333	4782
2.57400	4781
2.57467	4780
2.57533	4778
2.57600	4777
2.57667	4776
2.57733	4774
2.57800	4773
2.57867	4771
2.57933	4770
2.58000	4769
2.58067	4767
2.58133	4766
2.58200	4765
2.58267	4764
2.58333	4762
2.58400	4761
2.58467	4760
2.58533	4759
2.58600	4758
2.58667	4757
2.58733	4756
2.58800	4755
2.58867	4754
2.58933	4753
2.59000	4752
2.59067	4751
2.59133	4750
2.59200	4749
2.59267	4748
2.59333	4747
2.59400	4746
2.59467	4745
2.59533	4744
2.59600	4743
2.59667	4742
2.59733	4741
2.59800	4740
2.59867	4740
2.59933	4739
2.60000	4738
2.60067	4737
2.60133	4736
2.60200	4735
2.60267	4734
2.60333	4733
2.60400	4732
2.60467	4732
2.60533	4731
2.60600	4730
2.60667	4729
2.60733	4728
2.60800	4727
2.60867	4726
2.60933	4725
2.61000	4725
2.61067	4724
2.61133	4723
2.61200	4722
2.61267	4721
2.61333	4720
2.61400	4719
2.61467	4718
2.61533	4717
2.61600	4717
2.61667	4716
2.61733	4715
2.61800	4714
2.61867	4713
2.61933	4712
2.62000	4711
2.62067	4710
2.62133	4709
2.62200	4709
2.62267	4708
2.62333	4707
2.62400	4706
2.62467	4705
2.62533	4704
2.62600	4703
2.62667	4702
2.62733	4700
2.62800	4699
2.62867	4698
2.62933	4697
2.63000	4696
2.63067	4695
2.63133	4694
2.63200	4693
2.63267	4692
2.63333	4691
2.63400	4690
2.63467	4689
2.63533	4688
2.63600	4687
2.63667	4686
2.63733	4684
2.63800	4683
2.63867	4682
2.63933	4681
2.64000	4680
2.64067	4679
2.64133	4678
2.64200	4677
2.64267	4676
2.64333	4675
2.64400	4674
2.64467	4673
2.64533	4672
2.64600	4671
2.64667	4670
2.64733	4668
2.64800	4667
2.64867	4666
2.64933	4665
2.65000	4663
2.65067	4662
2.65133	4661
2.65200	4659
2.65267	4658
2.65333	4657
2.65400	4655
2.65467	4654
2.65533	4652
2.65600	4651
2.65667	4650
2.65733	4648
2.65800	4647
2.65867	4646
2.65933	4644
2.66000	4643
2.66067	4641
2.66133	4640
2.66200	4639
2.66267	4637
2.66333	4636
2.66400	4634
2.66467	4633
2.66533	4631
2.66600	4630
2.66667	4628
2.66733	4627
2.66800	4625
2.66867	4624
2.66933	4622
2.67000	4621
2.67067	4619
2.67133	4618
2.67200	4616
2.67267	4615
2.67333	4613
2.67400	4612
2.67467	4611
2.67533	4609
2.67600	4608
2.67667	4606
2.67733	4605
2.67800	4603
2.67867	4602
2.67933	4600
2.68000	4599
2.68067	4597
2.68133	4596
2.68200	4594
2.68267	4593
2.68333	4592
2.68400	4590
2.68467	4589
2.68533	4587
2.68600	4586
2.68667	4585
2.68733	4584
2.68800	4582
2.68867	4581
2.68933	4580
2.69000	4578
2.69067	4577
2.69133	4576
2.69200	4575
2.69267	4573
2.69333	4572
2.69400	4571
2.69467	4570
2.69533	4568
2.69600	4567
2.69667	4566
2.69733	4565
2.69800	4564
2.69867	4563
2.69933	4562
2.70000	4560
2.70067	4559
2.70133	4558
2.70200	4557
2.70267	4556
2.70333	4555
2.70400	4554
2.70467	4553
2.70533	4552
2.70600	4551
2.70667	4550
2.70733	4549
2.70800	4548
2.70867	4547
2.70933	4546
2.71000	4544
2.71067	4543
2.71133	4542
2.71200	4541
2.71267	4540
2.71333	4539
2.71400	4538
2.71467	4537
2.71533	4536
2.71600	4535
2.71667	4534
2.71733	4533
2.71800	4532
2.71867	4531
2.71933	4530
2.72000	4529
2.72067	4528
2.72133	4527
2.72200	4526
2.72267	4525
2.72333	4524
2.72400	4523
2.72467	4522
2.72533	4521
2.72600	4521
2.72667	4520
2.72733	4519
2.72800	4518
2.72867	4517
2.72933	4517
2.73000	4516
2.73067	4515
2.73133	4515
2.73200	4514
2.73267	4513
2.73333	4513
2.73400	4512
2.73467	4511
2.73533	4511
2.73600	4510
2.73667	4510
2.73733	4509
2.73800	4508
2.73867	4508
2.73933	4507
2.74000	4507
2.74067	4506
2.74133	4506
2.74200	4505
2.74267	4505
2.74333	4504
2.74400	4504
2.74467	4503
2.74533	4503
2.74600	4503
2.74667	4502
2.74733	4502
2.74800	4502
2.74867	4501
2.74933	4501
2.75000	4501
2.75067	4501
2.75133	4500
2.75200	4500
2.75267	4500
2.75333	4499
2.75400	4499
2.75467	4499
2.75533	4499
2.75600	4499
2.75667	4498
2.75733	4498
2.75800	4498
2.75867	4498
2.75933	4498
2.76000	4498
2.76067	4498
2.76133	4498
2.76200	4498
2.76267	4498
2.76333	4498
2.76400	4499
2.76467	4499
2.76533	4499
2.76600	4500
2.76667	4500
2.76733	4501
2.76800	4501
2.76867	4502
2.76933	4503
2.77000	4503
2.77067	4504
2.77133	4505
2.77200	4506
2.77267	4507
2.77333	4508
2.77400	4509
2.77467	4510
2.77533	4511
2.77600	4512
2.77667	4513
2.77733	4514
2.77800	4515
2.77867	4517
2.77933	4518
2.78000	4520
2.78067	4521
2.78133	4523
2.78200	4524
2.78267	4526
2.78333	4528
2.78400	4530
2.78467	4532
2.78533	4534
2.78600	4536
2.78667	4539
2.78733	4541
2.78800	4543
2.78867	4546
2.78933	4548
2.79000	4551
2.79067	4554
2.79133	4556
2.79200	4559
2.79267	4562
2.79333	4565
2.79400	4568
2.79467	4572
2.79533	4575
2.79600	4578
2.79667	4582
2.79733	4585
2.79800	4589
2.79867	4593
2.79933	4596
2.80000	4600
2.80067	4604
2.80133	4608
2.80200	4612
2.80267	4616
2.80333	4620
2.80400	4624
2.80467	4628
2.80533	4632
2.80600	4636
2.80667	4640
2.80733	4645
2.80800	4649
2.80867	4653
2.80933	4657
2.81000	4662
2.81067	4666
2.81133	4670
2.81200	4675
2.81267	4679
2.81333	4683
2.81400	4687
2.81467	4691
2.81533	4695
2.81600	4699
2.81667	4703
2.81733	4707
2.81800	4711
2.81867	4714
2.81933	4718
2.82000	4721
2.82067	4724
2.82133	4727
2.82200	4731
2.82267	4733
2.82333	4736
2.82400	4739
2.82467	4741
2.82533	4744
2.82600	4746
2.82667	4748
2.82733	4750
2.82800	4752
2.82867	4754
2.82933	4756
2.83000	4757
2.83067	4758
2.83133	4759
2.83200	4760
2.83267	4761
2.83333	4761
2.83400	4761
2.83467	4761
2.83533	4761
2.83600	4761
2.83667	4761
2.83733	4760
2.83800	4759
2.83867	4759
2.83933	4758
2.84000	4757
2.84067	4755
2.84133	4754
2.84200	4753
2.84267	4751
2.84333	4749
2.84400	4748
2.84467	4746
2.84533	4744
2.84600	4742
2.84667	4740
2.84733	4738
2.84800	4735
2.84867	4733
2.84933	4731
2.85000	4728
2.85067	4725
2.85133	4723
2.85200	4720
2.85267	4717
2.85333	4714
2.85400	4711
2.85467	4709
2.85533	4706
2.85600	4703
2.85667	4700
2.85733	4697
2.85800	4694
2.85867	4691
2.85933	4688
2.86000	4684
2.86067	4681
2.86133	4678
2.86200	4675
2.86267	4672
2.86333	4669
2.86400	4667
2.86467	4664
2.86533	4661
2.86600	4658
2.86667	4656
2.86733	4653
2.86800	4651
2.86867	4648
2.86933	4646
2.87000	4644
2.87067	4642
2.87133	4640
2.87200	4638
2.87267	4636
2.87333	4634
2.87400	4633
2.87467	4631
2.87533	4630
2.87600	4628
2.87667	4627
2.87733	4626
2.87800	4625
2.87867	4624
2.87933	4624
2.88000	4623
2.88067	4623
2.88133	4622
2.88200	4622
2.88267	4622
2.88333	4622
2.88400	4623
2.88467	4623
2.88533	4624
2.88600	4625
2.88667	4626
2.88733	4627
2.88800	4628
2.88867	4630
2.88933	4631
2.89000	4633
2.89067	4635
2.89133	4637
2.89200	4639
2.89267	4642
2.89333	4644
2.89400	4647
2.89467	4649
2.89533	4652
2.89600	4655
2.89667	4658
2.89733	4661
2.89800	4664
2.89867	4667
2.89933	4670
2.90000	4674
2.90067	4677
2.90133	4680
2.90200	4684
2.90267	4687
2.90333	4690
2.90400	4694
2.90467	4697
2.90533	4700
2.90600	4703
2.90667	4706
2.90733	4709
2.90800	4712
2.90867	4715
2.90933	4717
2.91000	4720
2.91067	4722
2.91133	4724
2.91200	4726
2.91267	4728
2.91333	4730
2.91400	4731
2.91467	4732
2.91533	4734
2.91600	4735
2.91667	4735
2.91733	4736
2.91800	4736
2.91867	4736
2.91933	4736
2.92000	4736
2.92067	4735
2.92133	4734
2.92200	4733
2.92267	4732
2.92333	4730
2.92400	4729
2.92467	4727
2.92533	4724
2.92600	4722
2.92667	4719
2.92733	4716
2.92800	4713
2.92867	4709
2.92933	4706
2.93000	4702
2.93067	4698
2.93133	4693
2.93200	4689
2.93267	4684
2.93333	4680
2.93400	4675
2.93467	4670
2.93533	4665
2.93600	4660
2.93667	4654
2.93733	4649
2.93800	4643
2.93867	4638
2.93933	4632
2.94000	4626
2.94067	4620
2.94133	4614
2.94200	4608
2.94267	4602
2.94333	4596
2.94400	4590
2.94467	4584
2.94533	4578
2.94600	4571
2.94667	4565
2.94733	4559
2.94800	4553
2.94867	4547
2.94933	4540
2.95000	4534
2.95067	4528
2.95133	4522
2.95200	4516
2.95267	4510
2.95333	4504
2.95400	4498
2.95467	4492
2.95533	4486
2.95600	4480
2.95667	4475
2.95733	4469
2.95800	4463
2.95867	4458
2.95933	4452
2.96000	4447
2.96067	4442
2.96133	4436
2.96200	4431
2.96267	4426
2.96333	4421
2.96400	4416
2.96467	4411
2.96533	4406
2.96600	4401
2.96667	4396
2.96733	4392
2.96800	4387
2.96867	4382
2.96933	4378
2.97000	4373
2.97067	4369
2.97133	4365
2.97200	4361
2.97267	4356
2.97333	4352
2.97400	4348
2.97467	4344
2.97533	4340
2.97600	4337
2.97667	4333
2.97733	4329
2.97800	4325
2.97867	4322
2.97933	4318
2.98000	4315
2.98067	4311
2.98133	4308
2.98200	4304
2.98267	4301
2.98333	4297
2.98400	4294
2.98467	4291
2.98533	4288
2.98600	4284
2.98667	4281
2.98733	4278
2.98800	4275
2.98867	4272
2.98933	4269
2.99000	4266
2.99067	4263
2.99133	4260
2.99200	4257
2.99267	4254
2.99333	4251
2.99400	4249
2.99467	4246
2.99533	4243
2.99600	4240
2.99667	4238
2.99733	4235
2.99800	4232
2.99867	4229
2.99933	4227
3.00000	4224
3.00067	4221
3.00133	4219
3.00200	4216
3.00267	4213
3.00333	4211
3.00400	4208
3.00467	4205
3.00533	4203
3.00600	4200
3.00667	4198
3.00733	4196
3.00800	4193
3.00867	4191
3.00933	4189
3.01000	4186
3.01067	4184
3.01133	4182
3.01200	4180
3.01267	4177
3.01333	4175
3.01400	4173
3.01467	4171
3.01533	4169
3.01600	4167
3.01667	4165
3.01733	4163
3.01800	4161
3.01867	4159
3.01933	4157
3.02000	4155
3.02067	4153
3.02133	4151
3.02200	4150
3.02267	4148
3.02333	4146
3.02400	4144
3.02467	4143
3.02533	4141
3.02600	4139
3.02667	4138
3.02733	4136
3.02800	4134
3.02867	4133
3.02933	4131
3.03000	4129
3.03067	4128
3.03133	4126
3.03200	4125
3.03267	4123
3.03333	4121
3.03400	4120
3.03467	4119
3.03533	4117
3.03600	4116
3.03667	4114
3.03733	4113
3.03800	4112
3.03867	4110
3.03933	4109
3.04000	4108
3.04067	4107
3.04133	4105
3.04200	4104
3.04267	4103
3.04333	4102
3.04400	4100
3.04467	4099
3.04533	4098
3.04600	4097
3.04667	4095
3.04733	4094
3.04800	4093
3.04867	4092
3.04933	4090
3.05000	4089
3.05067	4088
3.05133	4087
3.05200	4086
3.05267	4085
3.05333	4084
3.05400	4083
3.05467	4082
3.05533	4081
3.05600	4080
3.05667	4079
3.05733	4078
3.05800	4077
3.05867	4076
3.05933	4075
3.06000	4075
3.06067	4074
3.06133	4073
3.06200	4073
3.06267	4072
3.06333	4072
3.06400	4071
3.06467	4071
3.06533	4070
3.06600	4070
3.06667	4070
3.06733	4069
3.06800	4069
3.06867	4069
3.06933	4068
3.07000	4068
3.07067	4068
3.07133	4068
3.07200	4067
3.07267	4067
3.07333	4067
3.07400	4067
3.07467	4067
3.07533	4067
3.07600	4066
3.07667	4066
3.07733	4066
3.07800	4066
3.07867	4066
3.07933	4066
3.08000	4065
3.08067	4065
3.08133	4065
3.08200	4065
3.08267	4065
3.08333	4064
3.08400	4064
3.08467	4064
3.08533	4064
3.08600	4064
3.08667	4063
3.08733	4063
3.08800	4063
3.08867	4063
3.08933	4062
3.09000	4062
3.09067	4062
3.09133	4062
3.09200	4061
3.09267	4061
3.09333	4060
3.09400	4060
3.09467	4060
3.09533	4059
3.09600	4059
3.09667	4058
3.09733	4058
3.09800	4057
3.09867	4057
3.09933	4056
3.10000	4055
3.10067	4055
3.10133	4054
3.10200	4054
3.10267	4053
3.10333	4052
3.10400	4052
3.10467	4051
3.10533	4050
3.10600	4049
3.10667	4049
3.10733	4048
3.10800	4047
3.10867	4046
3.10933	4045
3.11000	4044
3.11067	4043
3.11133	4042
3.11200	4041
3.11267	4040
3.11333	4039
3.11400	4038
3.11467	4037
3.11533	4036
3.11600	4035
3.11667	4034
3.11733	4033
3.11800	4032
3.11867	4031
3.11933	4030
3.12000	4029
3.12067	4028
3.12133	4027
3.12200	4026
3.12267	4025
3.12333	4023
3.12400	4022
3.12467	4021
3.12533	4020
3.12600	4019
3.12667	4018
3.12733	4017
3.12800	4015
3.12867	4014
3.12933	4013
3.13000	4012
3.13067	4011
3.13133	4010
3.13200	4009
3.13267	4008
3.13333	4006
3.13400	4005
3.13467	4004
3.13533	4003
3.13600	4002
3.13667	4001
3.13733	3999
3.13800	3998
3.13867	3997
3.13933	3996
3.14000	3995
3.14067	3994
3.14133	3993
3.14200	3992
3.14267	3991
3.14333	3990
3.14400	3989
3.14467	3988
3.14533	3987
3.14600	3986
3.14667	3985
3.14733	3984
3.14800	3983
3.14867	3982
3.14933	3981
3.15000	3980
3.15067	3980
3.15133	3979
3.15200	3978
3.15267	3977
3.15333	3977
3.15400	3976
3.15467	3975
3.15533	3975
3.15600	3974
3.15667	3973
3.15733	3973
3.15800	3972
3.15867	3972
3.15933	3971
3.16000	3970
3.16067	3970
3.16133	3969
3.16200	3969
3.16267	3968
3.16333	3968
3.16400	3967
3.16467	3966
3.16533	3966
3.16600	3965
3.16667	3965
3.16733	3964
3.16800	3964
3.16867	3963
3.16933	3962
3.17000	3962
3.17067	3961
3.17133	3961
3.17200	3960
3.17267	3959
3.17333	3959
3.17400	3958
3.17467	3958
3.17533	3957
3.17600	3957
3.17667	3956
3.17733	3956
3.17800	3955
3.17867	3954
3.17933	3954
3.18000	3953
3.18067	3953
3.18133	3952
3.18200	3952
3.18267	3951
3.18333	3951
3.18400	3950
3.18467	3950
3.18533	3949
3.18600	3949
3.18667	3948
3.18733	3948
3.18800	3947
3.18867	3947
3.18933	3946
3.19000	3946
3.19067	3945
3.19133	3945
3.19200	3944
3.19267	3944
3.19333	3943
3.19400	3943
3.19467	3943
3.19533	3942
3.19600	3942
3.19667	3941
3.19733	3941
3.19800	3941
3.19867	3940
3.19933	3940
3.20000	3939
3.20067	3939
3.20133	3938
3.20200	3938
3.20267	3937
3.20333	3937
3.20400	3937
3.20467	3936
3.20533	3936
3.20600	3935
3.20667	3935
3.20733	3934
3.20800	3934
3.20867	3934
3.20933	3933
3.21000	3933
3.21067	3933
3.21133	3933
3.21200	3932
3.21267	3932
3.21333	3932
3.21400	3931
3.21467	3931
3.21533	3931
3.21600	3931
3.21667	3930
3.21733	3930
3.21800	3930
3.21867	3929
3.21933	3929
3.22000	3929
3.22067	3928
3.22133	3928
3.22200	3928
3.22267	3927
3.22333	3927
3.22400	3927
3.22467	3927
3.22533	3926
3.22600	3926
3.22667	3926
3.22733	3925
3.22800	3925
3.22867	3925
3.22933	3925
3.23000	3924
3.23067	3924
3.23133	3924
3.23200	3924
3.23267	3924
3.23333	3924
3.23400	3924
3.23467	3924
3.23533	3924
3.23600	3924
3.23667	3924
3.23733	3924
3.23800	3924
3.23867	3924
3.23933	3924
3.24000	3924
3.24067	3924
3.24133	3924
3.24200	3924
3.24267	3924
3.24333	3924
3.24400	3924
3.24467	3924
3.24533	3924
3.24600	3924
3.24667	3924
3.24733	3924
3.24800	3924
3.24867	3924
3.24933	3924
3.25000	3924
3.25067	3924
3.25133	3924
3.25200	3924
3.25267	3924
3.25333	3924
3.25400	3924
3.25467	3924
3.25533	3924
3.25600	3923
3.25667	3923
3.25733	3923
3.25800	3923
3.25867	3923
3.25933	3923
3.26000	3922
3.26067	3922
3.26133	3922
3.26200	3922
3.26267	3922
3.26333	3922
3.26400	3921
3.26467	3921
3.26533	3921
3.26600	3921
3.26667	3921
3.26733	3920
3.26800	3920
3.26867	3920
3.26933	3920
3.27000	3920
3.27067	3919
3.27133	3919
3.27200	3919
3.27267	3919
3.27333	3918
3.27400	3918
3.27467	3918
3.27533	3917
3.27600	3917
3.27667	3917
3.27733	3916
3.27800	3916
3.27867	3915
3.27933	3915
3.28000	3915
3.28067	3914
3.28133	3914
3.28200	3913
3.28267	3913
3.28333	3912
3.28400	3912
3.28467	3911
3.28533	3911
3.28600	3910
3.28667	3910
3.28733	3909
3.28800	3909
3.28867	3908
3.28933	3908
3.29000	3908
3.29067	3907
3.29133	3907
3.29200	3906
3.29267	3906
3.29333	3906
3.29400	3905
3.29467	3905
3.29533	3905
3.29600	3905
3.29667	3904
3.29733	3904
3.29800	3904
3.29867	3904
3.29933	3903
3.30000	3903
3.30067	3903
3.30133	3902
3.30200	3902
3.30267	3902
3.30333	3901
3.30400	3901
3.30467	3901
3.30533	3900
3.30600	3900
3.30667	3900
3.30733	3899
3.30800	3899
3.30867	3899
3.30933	3898
3.31000	3898
3.31067	3897
3.31133	3897
3.31200	3897
3.31267	3896
3.31333	3896
3.31400	3895
3.31467	3895
3.31533	3894
3.31600	3894
3.31667	3893
3.31733	3893
3.31800	3892
3.31867	3892
3.31933	3891
3.32000	3891
3.32067	3890
3.32133	3890
3.32200	3889
3.32267	3889
3.32333	3888
3.32400	3887
3.32467	3887
3.32533	3886
3.32600	3886
3.32667	3885
3.32733	3885
3.32800	3884
3.32867	3884
3.32933	3883
3.33000	3883
3.33067	3882
3.33133	3881
3.33200	3881
3.33267	3880
3.33333	3880
3.33400	3879
3.33467	3879
3.33533	3878
3.33600	3878
3.33667	3877
3.33733	3877
3.33800	3876
3.33867	3876
3.33933	3876
3.34000	3875
3.34067	3875
3.34133	3874
3.34200	3874
3.34267	3873
3.34333	3873
3.34400	3872
3.34467	3872
3.34533	3871
3.34600	3871
3.34667	3871
3.34733	3870
3.34800	3870
3.34867	3870
3.34933	3870
3.35000	3869
3.35067	3869
3.35133	3869
3.35200	3869
3.35267	3869
3.35333	3869
3.35400	3868
3.35467	3868
3.35533	3868
3.35600	3868
3.35667	3868
3.35733	3868
3.35800	3868
3.35867	3868
3.35933	3867
3.36000	3867
3.36067	3867
3.36133	3867
3.36200	3867
3.36267	3867
3.36333	3867
3.36400	3867
3.36467	3867
3.36533	3867
3.36600	3867
3.36667	3867
3.36733	3867
3.36800	3867
3.36867	3867
3.36933	3867
3.37000	3867
3.37067	3867
3.37133	3867
3.37200	3867
3.37267	3867
3.37333	3868
3.37400	3868
3.37467	3868
3.37533	3868
3.37600	3868
3.37667	3868
3.37733	3869
3.37800	3869
3.37867	3869
3.37933	3869
3.38000	3870
3.38067	3870
3.38133	3870
3.38200	3871
3.38267	3871
3.38333	3871
3.38400	3872
3.38467	3872
3.38533	3872
3.38600	3873
3.38667	3873
3.38733	3874
3.38800	3874
3.38867	3874
3.38933	3875
3.39000	3875
3.39067	3876
3.39133	3876
3.39200	3877
3.39267	3877
3.39333	3878
3.39400	3878
3.39467	3878
3.39533	3879
3.39600	3879
3.39667	3880
3.39733	3880
3.39800	3881
3.39867	3881
3.39933	3882
3.40000	3882
3.40067	3883
3.40133	3883
3.40200	3884
3.40267	3884
3.40333	3885
3.40400	3885
3.40467	3886
3.40533	3886
3.40600	3886
3.40667	3887
3.40733	3887
3.40800	3888
3.40867	3888
3.40933	3888
3.41000	3889
3.41067	3889
3.41133	3890
3.41200	3890
3.41267	3890
3.41333	3891
3.41400	3891
3.41467	3891
3.41533	3892
3.41600	3892
3.41667	3893
3.41733	3893
3.41800	3893
3.41867	3894
3.41933	3894
3.42000	3895
3.42067	3895
3.42133	3896
3.42200	3896
3.42267	3897
3.42333	3897
3.42400	3897
3.42467	3898
3.42533	3898
3.42600	3899
3.42667	3899
3.42733	3900
3.42800	3900
3.42867	3901
3.42933	3902
3.43000	3902
3.43067	3903
3.43133	3903
3.43200	3904
3.43267	3904
3.43333	3905
3.43400	3906
3.43467	3906
3.43533	3907
3.43600	3908
3.43667	3909
3.43733	3909
3.43800	3910
3.43867	3911
3.43933	3912
3.44000	3913
3.44067	3913
3.44133	3914
3.44200	3915
3.44267	3916
3.44333	3917
3.44400	3918
3.44467	3919
3.44533	3920
3.44600	3921
3.44667	3922
3.44733	3924
3.44800	3925
3.44867	3926
3.44933	3927
3.45000	3929
3.45067	3930
3.45133	3931
3.45200	3933
3.45267	3934
3.45333	3936
3.45400	3937
3.45467	3939
3.45533	3941
3.45600	3942
3.45667	3944
3.45733	3946
3.45800	3948
3.45867	3950
3.45933	3951
3.46000	3953
3.46067	3955
3.46133	3958
3.46200	3960
3.46267	3962
3.46333	3964
3.46400	3966
3.46467	3968
3.46533	3971
3.46600	3973
3.46667	3975
3.46733	3978
3.46800	3980
3.46867	3983
3.46933	3985
3.47000	3988
3.47067	3990
3.47133	3993
3.47200	3996
3.47267	3998
3.47333	4001
3.47400	4004
3.47467	4007
3.47533	4010
3.47600	4012
3.47667	4015
3.47733	4018
3.47800	4021
3.47867	4024
3.47933	4027
3.48000	4030
3.48067	4033
3.48133	4036
3.48200	4039
3.48267	4042
3.48333	4046
3.48400	4049
3.48467	4052
3.48533	4055
3.48600	4059
3.48667	4062
3.48733	4066
3.48800	4069
3.48867	4073
3.48933	4077
3.49000	4080
3.49067	4084
3.49133	4088
3.49200	4092
3.49267	4096
3.49333	4100
3.49400	4104
3.49467	4108
3.49533	4113
3.49600	4117
3.49667	4121
3.49733	4126
3.49800	4131
3.49867	4136
3.49933	4141
3.50000	4146
3.50067	4151
3.50133	4157
3.50200	4163
3.50267	4169
3.50333	4175
3.50400	4181
3.50467	4187
3.50533	4194
3.50600	4201
3.50667	4208
3.50733	4216
3.50800	4223
3.50867	4231
3.50933	4239
3.51000	4248
3.51067	4257
3.51133	4266
3.51200	4275
3.51267	4285
3.51333	4295
3.51400	4306
3.51467	4317
3.51533	4328
3.51600	4340
3.51667	4352
3.51733	4365
3.51800	4378
3.51867	4391
3.51933	4405
3.52000	4419
3.52067	4434
3.52133	4449
3.52200	4465
3.52267	4481
3.52333	4498
3.52400	4515
3.52467	4532
3.52533	4550
3.52600	4569
3.52667	4587
3.52733	4607
3.52800	4626
3.52867	4646
3.52933	4667
3.53000	4687
3.53067	4709
3.53133	4730
3.53200	4752
3.53267	4775
3.53333	4797
3.53400	4820
3.53467	4844
3.53533	4867
3.53600	4891
3.53667	4915
3.53733	4939
3.53800	4964
3.53867	4988
3.53933	5013
3.54000	5038
3.54067	5064
3.54133	5089
3.54200	5114
3.54267	5140
3.54333	5165
3.54400	5190
3.54467	5216
3.54533	5241
3.54600	5267
3.54667	5292
3.54733	5317
3.54800	5342
3.54867	5367
3.54933	5392
3.55000	5417
3.55067	5441
3.55133	5465
3.55200	5488
3.55267	5512
3.55333	5534
3.55400	5557
3.55467	5579
3.55533	5601
3.55600	5622
3.55667	5643
3.55733	5663
3.55800	5682
3.55867	5701
3.55933	5720
3.56000	5737
3.56067	5755
3.56133	5771
3.56200	5787
3.56267	5802
3.56333	5816
3.56400	5830
3.56467	5843
3.56533	5855
3.56600	5867
3.56667	5878
3.56733	5888
3.56800	5897
3.56867	5905
3.56933	5913
3.57000	5921
3.57067	5927
3.57133	5933
3.57200	5938
3.57267	5942
3.57333	5946
3.57400	5950
3.57467	5952
3.57533	5954
3.57600	5956
3.57667	5957
3.57733	5957
3.57800	5956
3.57867	5956
3.57933	5954
3.58000	5952
3.58067	5950
3.58133	5947
3.58200	5943
3.58267	5939
3.58333	5935
3.58400	5930
3.58467	5924
3.58533	5919
3.58600	5913
3.58667	5906
3.58733	5899
3.58800	5892
3.58867	5885
3.58933	5877
3.59000	5869
3.59067	5861
3.59133	5852
3.59200	5844
3.59267	5835
3.59333	5826
3.59400	5816
3.59467	5807
3.59533	5797
3.59600	5787
3.59667	5777
3.59733	5767
3.59800	5757
3.59867	5746
3.59933	5736
3.60000	5725
3.60067	5715
3.60133	5704
3.60200	5693
3.60267	5682
3.60333	5671
3.60400	5660
3.60467	5649
3.60533	5638
3.60600	5627
3.60667	5616
3.60733	5605
3.60800	5594
3.60867	5582
3.60933	5571
3.61000	5560
3.61067	5549
3.61133	5537
3.61200	5526
3.61267	5515
3.61333	5503
3.61400	5492
3.61467	5481
3.61533	5469
3.61600	5458
3.61667	5446
3.61733	5435
3.61800	5423
3.61867	5411
3.61933	5400
3.62000	5388
3.62067	5376
3.62133	5365
3.62200	5353
3.62267	5341
3.62333	5329
3.62400	5317
3.62467	5305
3.62533	5293
3.62600	5281
3.62667	5268
3.62733	5256
3.62800	5244
3.62867	5231
3.62933	5218
3.63000	5206
3.63067	5193
3.63133	5180
3.63200	5167
3.63267	5154
3.63333	5141
3.63400	5127
3.63467	5114
3.63533	5100
3.63600	5087
3.63667	5073
3.63733	5059
3.63800	5046
3.63867	5032
3.63933	5018
3.64000	5004
3.64067	4990
3.64133	4976
3.64200	4962
3.64267	4948
3.64333	4934
3.64400	4920
3.64467	4906
3.64533	4892
3.64600	4877
3.64667	4863
3.64733	4849
3.64800	4835
3.64867	4821
3.64933	4807
3.65000	4793
3.65067	4778
3.65133	4764
3.65200	4750
3.65267	4736
3.65333	4722
3.65400	4708
3.65467	4694
3.65533	4680
3.65600	4667
3.65667	4653
3.65733	4639
3.65800	4625
3.65867	4612
3.65933	4598
3.66000	4585
3.66067	4572
3.66133	4558
3.66200	4545
3.66267	4532
3.66333	4519
3.66400	4506
3.66467	4493
3.66533	4480
3.66600	4467
3.66667	4455
3.66733	4442
3.66800	4430
3.66867	4418
3.66933	4405
3.67000	4393
3.67067	4381
3.67133	4369
3.67200	4358
3.67267	4346
3.67333	4334
3.67400	4323
3.67467	4312
3.67533	4301
3.67600	4290
3.67667	4279
3.67733	4268
3.67800	4258
3.67867	4247
3.67933	4237
3.68000	4227
3.68067	4217
3.68133	4207
3.68200	4197
3.68267	4187
3.68333	4178
3.68400	4168
3.68467	4159
3.68533	4150
3.68600	4141
3.68667	4132
3.68733	4123
3.68800	4114
3.68867	4106
3.68933	4098
3.69000	4089
3.69067	4081
3.69133	4073
3.69200	4065
3.69267	4058
3.69333	4050
3.69400	4043
3.69467	4035
3.69533	4028
3.69600	4021
3.69667	4014
3.69733	4007
3.69800	4001
3.69867	3994
3.69933	3987
3.70000	3981
3.70067	3975
3.70133	3969
3.70200	3963
3.70267	3957
3.70333	3951
3.70400	3945
3.70467	3939
3.70533	3934
3.70600	3928
3.70667	3923
3.70733	3918
3.70800	3913
3.70867	3907
3.70933	3902
3.71000	3898
3.71067	3893
3.71133	3888
3.71200	3883
3.71267	3879
3.71333	3874
3.71400	3870
3.71467	3865
3.71533	3861
3.71600	3857
3.71667	3852
3.71733	3848
3.71800	3844
3.71867	3840
3.71933	3836
3.72000	3833
3.72067	3829
3.72133	3825
3.72200	3821
3.72267	3818
3.72333	3814
3.72400	3810
3.72467	3807
3.72533	3804
3.72600	3800
3.72667	3797
3.72733	3793
3.72800	3790
3.72867	3787
3.72933	3784
3.73000	3781
3.73067	3778
3.73133	3775
3.73200	3772
3.73267	3769
3.73333	3766
3.73400	3763
3.73467	3760
3.73533	3757
3.73600	3754
3.73667	3752
3.73733	3749
3.73800	3747
3.73867	3744
3.73933	3742
3.74000	3739
3.74067	3737
3.74133	3734
3.74200	3732
3.74267	3730
3.74333	3728
3.74400	3725
3.74467	3723
3.74533	3721
3.74600	3719
3.74667	3716
3.74733	3714
3.74800	3712
3.74867	3710
3.74933	3708
3.75000	3706
3.75067	3704
3.75133	3702
3.75200	3700
3.75267	3698
3.75333	3696
3.75400	3694
3.75467	3692
3.75533	3690
3.75600	3688
3.75667	3687
3.75733	3685
3.75800	3683
3.75867	3681
3.75933	3679
3.76000	3677
3.76067	3676
3.76133	3674
3.76200	3672
3.76267	3671
3.76333	3669
3.76400	3667
3.76467	3666
3.76533	3664
3.76600	3662
3.76667	3661
3.76733	3659
3.76800	3658
3.76867	3656
3.76933	3655
3.77000	3653
3.77067	3652
3.77133	3650
3.77200	3649
3.77267	3648
3.77333	3646
3.77400	3645
3.77467	3643
3.77533	3642
3.77600	3641
3.77667	3639
3.77733	3638
3.77800	3636
3.77867	3635
3.77933	3634
3.78000	3632
3.78067	3631
3.78133	3630
3.78200	3628
3.78267	3627
3.78333	3626
3.78400	3624
3.78467	3623
3.78533	3622
3.78600	3621
3.78667	3620
3.78733	3618
3.78800	3617
3.78867	3616
3.78933	3615
3.79000	3614
3.79067	3613
3.79133	3612
3.79200	3611
3.79267	3610
3.79333	3609
3.79400	3608
3.79467	3607
3.79533	3606
3.79600	3605
3.79667	3604
3.79733	3604
3.79800	3603
3.79867	3602
3.79933	3601
3.80000	3600
3.80067	3599
3.80133	3598
3.80200	3598
3.80267	3597
3.80333	3596
3.80400	3595
3.80467	3594
3.80533	3593
3.80600	3592
3.80667	3591
3.80733	3591
3.80800	3590
3.80867	3589
3.80933	3588
3.81000	3587
3.81067	3586
3.81133	3585
3.81200	3584
3.81267	3583
3.81333	3582
3.81400	3582
3.81467	3581
3.81533	3580
3.81600	3579
3.81667	3578
3.81733	3577
3.81800	3576
3.81867	3575
3.81933	3574
3.82000	3573
3.82067	3573
3.82133	3572
3.82200	3571
3.82267	3570
3.82333	3569
3.82400	3568
3.82467	3567
3.82533	3566
3.82600	3565
3.82667	3564
3.82733	3564
3.82800	3563
3.82867	3562
3.82933	3561
3.83000	3560
3.83067	3559
3.83133	3558
3.83200	3558
3.83267	3557
3.83333	3556
3.83400	3555
3.83467	3554
3.83533	3553
3.83600	3552
3.83667	3551
3.83733	3550
3.83800	3549
3.83867	3548
3.83933	3547
3.84000	3546
3.84067	3545
3.84133	3544
3.84200	3543
3.84267	3542
3.84333	3541
3.84400	3541
3.84467	3540
3.84533	3539
3.84600	3538
3.84667	3537
3.84733	3536
3.84800	3535
3.84867	3534
3.84933	3533
3.85000	3532
3.85067	3531
3.85133	3530
3.85200	3529
3.85267	3529
3.85333	3528
3.85400	3527
3.85467	3527
3.85533	3526
3.85600	3525
3.85667	3525
3.85733	3524
3.85800	3523
3.85867	3523
3.85933	3522
3.86000	3521
3.86067	3521
3.86133	3520
3.86200	3519
3.86267	3519
3.86333	3518
3.86400	3518
3.86467	3517
3.86533	3517
3.86600	3516
3.86667	3516
3.86733	3515
3.86800	3515
3.86867	3514
3.86933	3514
3.87000	3513
3.87067	3513
3.87133	3513
3.87200	3512
3.87267	3512
3.87333	3512
3.87400	3511
3.87467	3511
3.87533	3510
3.87600	3510
3.87667	3510
3.87733	3509
3.87800	3509
3.87867	3509
3.87933	3509
3.88000	3508
3.88067	3508
3.88133	3508
3.88200	3507
3.88267	3507
3.88333	3507
3.88400	3507
3.88467	3506
3.88533	3506
3.88600	3506
3.88667	3506
3.88733	3506
3.88800	3506
3.88867	3506
3.88933	3505
3.89000	3505
3.89067	3505
3.89133	3505
3.89200	3505
3.89267	3505
3.89333	3505
3.89400	3505
3.89467	3505
3.89533	3504
3.89600	3504
3.89667	3504
3.89733	3504
3.89800	3504
3.89867	3504
3.89933	3504
3.90000	3504
3.90067	3504
3.90133	3503
3.90200	3503
3.90267	3503
3.90333	3503
3.90400	3503
3.90467	3503
3.90533	3503
3.90600	3502
3.90667	3502
3.90733	3502
3.90800	3502
3.90867	3502
3.90933	3501
3.91000	3501
3.91067	3501
3.91133	3500
3.91200	3500
3.91267	3500
3.91333	3499
3.91400	3499
3.91467	3499
3.91533	3498
3.91600	3498
3.91667	3498
3.91733	3498
3.91800	3497
3.91867	3497
3.91933	3497
3.92000	3497
3.92067	3496
3.92133	3496
3.92200	3496
3.92267	3496
3.92333	3495
3.92400	3495
3.92467	3495
3.92533	3494
3.92600	3494
3.92667	3493
3.92733	3493
3.92800	3493
3.92867	3492
3.92933	3492
3.93000	3491
3.93067	3491
3.93133	3490
3.93200	3490
3.93267	3489
3.93333	3489
3.93400	3488
3.93467	3488
3.93533	3488
3.93600	3487
3.93667	3487
3.93733	3486
3.93800	3486
3.93867	3485
3.93933	3485
3.94000	3485
3.94067	3484
3.94133	3484
3.94200	3483
3.94267	3483
3.94333	3482
3.94400	3482
3.94467	3481
3.94533	3481
3.94600	3480
3.94667	3479
3.94733	3479
3.94800	3478
3.94867	3478
3.94933	3477
3.95000	3477
3.95067	3476
3.95133	3476
3.95200	3475
3.95267	3475
3.95333	3474
3.95400	3474
3.95467	3473
3.95533	3473
3.95600	3473
3.95667	3472
3.95733	3472
3.95800	3471
3.95867	3471
3.95933	3471
3.96000	3470
3.96067	3470
3.96133	3470
3.96200	3469
3.96267	3469
3.96333	3469
3.96400	3468
3.96467	3468
3.96533	3467
3.96600	3467
3.96667	3466
3.96733	3466
3.96800	3465
3.96867	3465
3.96933	3464
3.97000	3464
3.97067	3464
3.97133	3463
3.97200	3463
3.97267	3462
3.97333	3462
3.97400	3462
3.97467	3461
3.97533	3461
3.97600	3461
3.97667	3460
3.97733	3460
3.97800	3460
3.97867	3460
3.97933	3460
3.98000	3460
3.98067	3460
3.98133	3460
3.98200	3460
3.98267	3460
3.98333	3460
3.98400	3460
3.98467	3460
3.98533	3460
3.98600	3461
3.98667	3461
3.98733	3461
3.98800	3461
3.98867	3462
3.98933	3462
3.99000	3463
3.99067	3463
3.99133	3464
3.99200	3464
3.99267	3465
3.99333	3466
3.99400	3466
3.99467	3467
3.99533	3468
3.99600	3469
3.99667	3469
3.99733	3470
3.99800	3471
3.99867	3472
3.99933	3473
4.00000	3474
4.00067	3476
4.00133	3477
4.00200	3478
4.00267	3479
4.00333	3481
4.00400	3482
4.00467	3484
4.00533	3485
4.00600	3487
4.00667	3488
4.00733	3490
4.00800	3492
4.00867	3494
4.00933	3496
4.01000	3498
4.01067	3500
4.01133	3502
4.01200	3504
4.01267	3506
4.01333	3509
4.01400	3511
4.01467	3514
4.01533	3516
4.01600	3519
4.01667	3522
4.01733	3524
4.01800	3527
4.01867	3530
4.01933	3533
4.02000	3536
4.02067	3539
4.02133	3543
4.02200	3546
4.02267	3550
4.02333	3553
4.02400	3557
4.02467	3561
4.02533	3565
4.02600	3569
4.02667	3573
4.02733	3578
4.02800	3582
4.02867	3586
4.02933	3591
4.03000	3595
4.03067	3600
4.03133	3605
4.03200	3610
4.03267	3614
4.03333	3619
4.03400	3624
4.03467	3629
4.03533	3634
4.03600	3640
4.03667	3645
4.03733	3650
4.03800	3656
4.03867	3661
4.03933	3666
4.04000	3672
4.04067	3678
4.04133	3683
4.04200	3689
4.04267	3695
4.04333	3700
4.04400	3706
4.04467	3712
4.04533	3717
4.04600	3723
4.04667	3729
4.04733	3735
4.04800	3741
4.04867	3747
4.04933	3753
4.05000	3759
4.05067	3765
4.05133	3771
4.05200	3777
4.05267	3783
4.05333	3789
4.05400	3795
4.05467	3802
4.05533	3808
4.05600	3814
4.05667	3820
4.05733	3826
4.05800	3833
4.05867	3839
4.05933	3845
4.06000	3851
4.06067	3857
4.06133	3864
4.06200	3870
4.06267	3876
4.06333	3882
4.06400	3888
4.06467	3894
4.06533	3900
4.06600	3906
4.06667	3912
4.06733	3918
4.06800	3923
4.06867	3929
4.06933	3935
4.07000	3940
4.07067	3945
4.07133	3951
4.07200	3956
4.07267	3961
4.07333	3966
4.07400	3971
4.07467	3976
4.07533	3981
4.07600	3986
4.07667	3990
4.07733	3995
4.07800	3999
4.07867	4003
4.07933	4007
4.08000	4011
4.08067	4015
4.08133	4019
4.08200	4023
4.08267	4026
4.08333	4029
4.08400	4033
4.08467	4036
4.08533	4039
4.08600	4042
4.08667	4045
4.08733	4047
4.08800	4050
4.08867	4052
4.08933	4055
4.09000	4057
4.09067	4059
4.09133	4061
4.09200	4063
4.09267	4065
4.09333	4067
4.09400	4068
4.09467	4070
4.09533	4071
4.09600	4072
4.09667	4074
4.09733	4075
4.09800	4076
4.09867	4077
4.09933	4078
4.10000	4079
4.10067	4080
4.10133	4080
4.10200	4081
4.10267	4082
4.10333	4082
4.10400	4082
4.10467	4083
4.10533	4083
4.10600	4083
4.10667	4084
4.10733	4084
4.10800	4084
4.10867	4084
4.10933	4084
4.11000	4084
4.11067	4084
4.11133	4084
4.11200	4084
4.11267	4084
4.11333	4083
4.11400	4083
4.11467	4083
4.11533	4083
4.11600	4082
4.11667	4082
4.11733	4081
4.11800	4081
4.11867	4081
4.11933	4080
4.12000	4080
4.12067	4079
4.12133	4079
4.12200	4079
4.12267	4078
4.12333	4078
4.12400	4078
4.12467	4078
4.12533	4077
4.12600	4077
4.12667	4077
4.12733	4077
4.12800	4077
4.12867	4077
4.12933	4077
4.13000	4077
4.13067	4077
4.13133	4077
4.13200	4077
4.13267	4077
4.13333	4077
4.13400	4078
4.13467	4078
4.13533	4078
4.13600	4079
4.13667	4079
4.13733	4080
4.13800	4080
4.13867	4081
4.13933	4082
4.14000	4083
4.14067	4083
4.14133	4084
4.14200	4085
4.14267	4086
4.14333	4087
4.14400	4088
4.14467	4089
4.14533	4090
4.14600	4092
4.14667	4093
4.14733	4094
4.14800	4095
4.14867	4097
4.14933	4098
4.15000	4099
4.15067	4101
4.15133	4102
4.15200	4103
4.15267	4105
4.15333	4106
4.15400	4108
4.15467	4109
4.15533	4110
4.15600	4112
4.15667	4113
4.15733	4115
4.15800	4116
4.15867	4118
4.15933	4119
4.16000	4121
4.16067	4122
4.16133	4124
4.16200	4125
4.16267	4127
4.16333	4128
4.16400	4130
4.16467	4132
4.16533	4133
4.16600	4135
4.16667	4136
4.16733	4138
4.16800	4140
4.16867	4142
4.16933	4143
4.17000	4145
4.17067	4147
4.17133	4149
4.17200	4151
4.17267	4152
4.17333	4154
4.17400	4156
4.17467	4158
4.17533	4160
4.17600	4162
4.17667	4164
4.17733	4166
4.17800	4168
4.17867	4170
4.17933	4172
4.18000	4174
4.18067	4176
4.18133	4178
4.18200	4180
4.18267	4182
4.18333	4184
4.18400	4186
4.18467	4188
4.18533	4190
4.18600	4192
4.18667	4195
4.18733	4197
4.18800	4199
4.18867	4202
4.18933	4204
4.19000	4206
4.19067	4209
4.19133	4212
4.19200	4214
4.19267	4217
4.19333	4220
4.19400	4223
4.19467	4226
4.19533	4229
4.19600	4232
4.19667	4235
4.19733	4239
4.19800	4242
4.19867	4246
4.19933	4249
4.20000	4253
4.20067	4257
4.20133	4261
4.20200	4265
4.20267	4270
4.20333	4274
4.20400	4279
4.20467	4284
4.20533	4289
4.20600	4295
4.20667	4300
4.20733	4306
4.20800	4312
4.20867	4318
4.20933	4324
4.21000	4330
4.21067	4337
4.21133	4344
4.21200	4351
4.21267	4359
4.21333	4367
4.21400	4375
4.21467	4383
4.21533	4391
4.21600	4400
4.21667	4409
4.21733	4418
4.21800	4428
4.21867	4438
4.21933	4448
4.22000	4459
4.22067	4470
4.22133	4481
4.22200	4493
4.22267	4505
4.22333	4518
4.22400	4531
4.22467	4544
4.22533	4558
4.22600	4572
4.22667	4587
4.22733	4602
4.22800	4618
4.22867	4634
4.22933	4651
4.23000	4668
4.23067	4686
4.23133	4705
4.23200	4724
4.23267	4743
4.23333	4763
4.23400	4784
4.23467	4805
4.23533	4827
4.23600	4849
4.23667	4872
4.23733	4895
4.23800	4920
4.23867	4945
4.23933	4970
4.24000	4996
4.24067	5023
4.24133	5051
4.24200	5079
4.24267	5108
4.24333	5137
4.24400	5168
4.24467	5199
4.24533	5231
4.24600	5263
4.24667	5297
4.24733	5331
4.24800	5366
4.24867	5402
4.24933	5438
4.25000	5476
4.25067	5514
4.25133	5553
4.25200	5593
4.25267	5633
4.25333	5675
4.25400	5717
4.25467	5760
4.25533	5805
4.25600	5850
4.25667	5896
4.25733	5943
4.25800	5991
4.25867	6040
4.25933	6089
4.26000	6140
4.26067	6192
4.26133	6245
4.26200	6299
4.26267	6353
4.26333	6409
4.26400	6466
4.26467	6524
4.26533	6583
4.26600	6643
4.26667	6703
4.26733	6765
4.26800	6828
4.26867	6892
4.26933	6958
4.27000	7024
4.27067	7091
4.27133	7160
4.27200	7230
4.27267	7301
4.27333	7373
4.27400	7446
4.27467	7521
4.27533	7597
4.27600	7674
4.27667	7752
4.27733	7831
4.27800	7912
4.27867	7994
4.27933	8077
4.28000	8161
4.28067	8247
4.28133	8334
4.28200	8422
4.28267	8511
4.28333	8601
4.28400	8693
4.28467	8786
4.28533	8880
4.28600	8975
4.28667	9072
4.28733	9169
4.28800	9268
4.28867	9368
4.28933	9469
4.29000	9572
4.29067	9675
4.29133	9779
4.29200	9885
4.29267	9991
4.29333	10099
4.29400	10207
4.29467	10316
4.29533	10426
4.29600	10537
4.29667	10649
4.29733	10761
4.29800	10874
4.29867	10988
4.29933	11102
4.30000	11217
4.30067	11333
4.30133	11449
4.30200	11565
4.30267	11682
4.30333	11799
4.30400	11917
4.30467	12035
4.30533	12154
4.30600	12272
4.30667	12392
4.30733	12511
4.30800	12631
4.30867	12751
4.30933	12870
4.31000	12990
4.31067	13110
4.31133	13229
4.31200	13348
4.31267	13467
4.31333	13586
4.31400	13704
4.31467	13821
4.31533	13938
4.31600	14054
4.31667	14170
4.31733	14285
4.31800	14398
4.31867	14511
4.31933	14623
4.32000	14734
4.32067	14843
4.32133	14952
4.32200	15059
4.32267	15164
4.32333	15268
4.32400	15371
4.32467	15472
4.32533	15571
4.32600	15668
4.32667	15764
4.32733	15858
4.32800	15950
4.32867	16039
4.32933	16127
4.33000	16213
4.33067	16296
4.33133	16378
4.33200	16457
4.33267	16533
4.33333	16608
4.33400	16679
4.33467	16749
4.33533	16815
4.33600	16879
4.33667	16941
4.33733	16999
4.33800	17055
4.33867	17108
4.33933	17158
4.34000	17206
4.34067	17250
4.34133	17291
4.34200	17330
4.34267	17366
4.34333	17398
4.34400	17428
4.34467	17455
4.34533	17478
4.34600	17499
4.34667	17517
4.34733	17531
4.34800	17543
4.34867	17552
4.34933	17558
4.35000	17561
4.35067	17562
4.35133	17560
4.35200	17555
4.35267	17547
4.35333	17537
4.35400	17525
4.35467	17510
4.35533	17492
4.35600	17472
4.35667	17450
4.35733	17426
4.35800	17399
4.35867	17371
4.35933	17340
4.36000	17308
4.36067	17273
4.36133	17237
4.36200	17199
4.36267	17159
4.36333	17118
4.36400	17075
4.36467	17031
4.36533	16986
4.36600	16939
4.36667	16891
4.36733	16842
4.36800	16793
4.36867	16742
4.36933	16691
4.37000	16639
4.37067	16587
4.37133	16534
4.37200	16480
4.37267	16427
4.37333	16374
4.37400	16320
4.37467	16266
4.37533	16213
4.37600	16160
4.37667	16107
4.37733	16055
4.37800	16003
4.37867	15952
4.37933	15902
4.38000	15852
4.38067	15804
4.38133	15756
4.38200	15709
4.38267	15663
4.38333	15618
4.38400	15575
4.38467	15532
4.38533	15492
4.38600	15452
4.38667	15414
4.38733	15377
4.38800	15343
4.38867	15309
4.38933	15278
4.39000	15248
4.39067	15220
4.39133	15195
4.39200	15171
4.39267	15149
4.39333	15130
4.39400	15112
4.39467	15097
4.39533	15085
4.39600	15074
4.39667	15066
4.39733	15060
4.39800	15057
4.39867	15056
4.39933	15057
4.40000	15061
4.40067	15066
4.40133	15075
4.40200	15085
4.40267	15098
4.40333	15113
4.40400	15130
4.40467	15150
4.40533	15172
4.40600	15196
4.40667	15223
4.40733	15252
4.40800	15283
4.40867	15316
4.40933	15352
4.41000	15390
4.41067	15430
4.41133	15472
4.41200	15516
4.41267	15562
4.41333	15610
4.41400	15660
4.41467	15712
4.41533	15765
4.41600	15821
4.41667	15878
4.41733	15936
4.41800	15996
4.41867	16057
4.41933	16120
4.42000	16184
4.42067	16250
4.42133	16316
4.42200	16384
4.42267	16452
4.42333	16522
4.42400	16592
4.42467	16663
4.42533	16735
4.42600	16807
4.42667	16880
4.42733	16953
4.42800	17026
4.42867	17100
4.42933	17173
4.43000	17246
4.43067	17319
4.43133	17391
4.43200	17463
4.43267	17535
4.43333	17606
4.43400	17676
4.43467	17745
4.43533	17814
4.43600	17882
4.43667	17948
4.43733	18014
4.43800	18079
4.43867	18142
4.43933	18204
4.44000	18265
4.44067	18325
4.44133	18383
4.44200	18440
4.44267	18496
4.44333	18549
4.44400	18602
4.44467	18653
4.44533	18702
4.44600	18749
4.44667	18795
4.44733	18839
4.44800	18881
4.44867	18922
4.44933	18960
4.45000	18996
4.45067	19030
4.45133	19062
4.45200	19092
4.45267	19120
4.45333	19145
4.45400	19169
4.45467	19189
4.45533	19207
4.45600	19223
4.45667	19236
4.45733	19247
4.45800	19255
4.45867	19261
4.45933	19264
4.46000	19264
4.46067	19262
4.46133	19257
4.46200	19249
4.46267	19239
4.46333	19226
4.46400	19210
4.46467	19192
4.46533	19171
4.46600	19148
4.46667	19121
4.46733	19092
4.46800	19061
4.46867	19026
4.46933	18989
4.47000	18950
4.47067	18908
4.47133	18863
4.47200	18816
4.47267	18766
4.47333	18714
4.47400	18659
4.47467	18602
4.47533	18543
4.47600	18482
4.47667	18419
4.47733	18353
4.47800	18286
4.47867	18216
4.47933	18145
4.48000	18072
4.48067	17997
4.48133	17920
4.48200	17841
4.48267	17761
4.48333	17680
4.48400	17597
4.48467	17512
4.48533	17427
4.48600	17340
4.48667	17252
4.48733	17163
4.48800	17072
4.48867	16981
4.48933	16889
4.49000	16796
4.49067	16703
4.49133	16609
4.49200	16514
4.49267	16419
4.49333	16323
4.49400	16227
4.49467	16131
4.49533	16034
4.49600	15938
4.49667	15841
4.49733	15745
4.49800	15649
4.49867	15553
4.49933	15458
4.50000	15363
4.50067	15268
4.50133	15175
4.50200	15082
4.50267	14990
4.50333	14898
4.50400	14808
4.50467	14719
4.50533	14631
4.50600	14545
4.50667	14459
4.50733	14376
4.50800	14293
4.50867	14213
4.50933	14134
4.51000	14057
4.51067	13981
4.51133	13908
4.51200	13837
4.51267	13768
4.51333	13701
4.51400	13636
4.51467	13574
4.51533	13515
4.51600	13457
4.51667	13403
4.51733	13351
4.51800	13302
4.51867	13256
4.51933	13213
4.52000	13173
4.52067	13136
4.52133	13102
4.52200	13071
4.52267	13044
4.52333	13020
4.52400	13000
4.52467	12983
4.52533	12970
4.52600	12961
4.52667	12956
4.52733	12954
4.52800	12956
4.52867	12962
4.52933	12972
4.53000	12986
4.53067	13004
4.53133	13027
4.53200	13053
4.53267	13084
4.53333	13120
4.53400	13159
4.53467	13203
4.53533	13252
4.53600	13305
4.53667	13362
4.53733	13424
4.53800	13491
4.53867	13562
4.53933	13638
4.54000	13719
4.54067	13805
4.54133	13895
4.54200	13990
4.54267	14090
4.54333	14195
4.54400	14305
4.54467	14420
4.54533	14539
4.54600	14664
4.54667	14793
4.54733	14927
4.54800	15067
4.54867	15211
4.54933	15360
4.55000	15513
4.55067	15672
4.55133	15836
4.55200	16004
4.55267	16177
4.55333	16355
4.55400	16538
4.55467	16726
4.55533	16918
4.55600	17115
4.55667	17317
4.55733	17523
4.55800	17733
4.55867	17949
4.55933	18168
4.56000	18392
4.56067	18619
4.56133	18851
4.56200	19087
4.56267	19326
4.56333	19569
4.56400	19816
4.56467	20066
4.56533	20320
4.56600	20577
4.56667	20836
4.56733	21099
4.56800	21365
4.56867	21634
4.56933	21905
4.57000	22179
4.57067	22455
4.57133	22734
4.57200	23014
4.57267	23297
4.57333	23582
4.57400	23869
4.57467	24157
4.57533	24447
4.57600	24737
4.57667	25028
4.57733	25320
4.57800	25612
4.57867	25904
4.57933	26196
4.58000	26487
4.58067	26778
4.58133	27068
4.58200	27357
4.58267	27645
4.58333	27931
4.58400	28216
4.58467	28500
4.58533	28782
4.58600	29061
4.58667	29339
4.58733	29614
4.58800	29887
4.58867	30157
4.58933	30424
4.59000	30687
4.59067	30948
4.59133	31206
4.59200	31460
4.59267	31710
4.59333	31956
4.59400	32198
4.59467	32436
4.59533	32670
4.59600	32899
4.59667	33124
4.59733	33345
4.59800	33560
4.59867	33771
4.59933	33976
4.60000	34177
4.60067	34372
4.60133	34562
4.60200	34746
4.60267	34925
4.60333	35098
4.60400	35265
4.60467	35427
4.60533	35583
4.60600	35733
4.60667	35877
4.60733	36015
4.60800	36147
4.60867	36273
4.60933	36393
4.61000	36506
4.61067	36614
4.61133	36715
4.61200	36810
4.61267	36899
4.61333	36982
4.61400	37059
4.61467	37130
4.61533	37195
4.61600	37253
4.61667	37306
4.61733	37353
4.61800	37393
4.61867	37428
4.61933	37457
4.62000	37480
4.62067	37498
4.62133	37509
4.62200	37516
4.62267	37517
4.62333	37512
4.62400	37503
4.62467	37488
4.62533	37468
4.62600	37444
4.62667	37414
4.62733	37380
4.62800	37340
4.62867	37297
4.62933	37248
4.63000	37195
4.63067	37138
4.63133	37077
4.63200	37011
4.63267	36942
4.63333	36869
4.63400	36792
4.63467	36711
4.63533	36627
4.63600	36540
4.63667	36450
4.63733	36356
4.63800	36259
4.63867	36160
4.63933	36057
4.64000	35952
4.64067	35844
4.64133	35734
4.64200	35621
4.64267	35506
4.64333	35389
4.64400	35269
4.64467	35147
4.64533	35024
4.64600	34899
4.64667	34772
4.64733	34643
4.64800	34513
4.64867	34382
4.64933	34250
4.65000	34116
4.65067	33982
4.65133	33846
4.65200	33710
4.65267	33573
4.65333	33435
4.65400	33297
4.65467	33158
4.65533	33019
4.65600	32880
4.65667	32740
4.65733	32600
4.65800	32460
4.65867	32321
4.65933	32181
4.66000	32041
4.66067	31900
4.66133	31760
4.66200	31621
4.66267	31481
4.66333	31341
4.66400	31202
4.66467	31063
4.66533	30924
4.66600	30786
4.66667	30648
4.66733	30510
4.66800	30374
4.66867	30237
4.66933	30101
4.67000	29966
4.67067	29832
4.67133	29699
4.67200	29566
4.67267	29434
4.67333	29304
4.67400	29174
4.67467	29046
4.67533	28918
4.67600	28792
4.67667	28666
4.67733	28542
4.67800	28419
4.67867	28297
4.67933	28175
4.68000	28055
4.68067	27936
4.68133	27818
4.68200	27701
4.68267	27585
4.68333	27470
4.68400	27355
4.68467	27242
4.68533	27130
4.68600	27018
4.68667	26907
4.68733	26798
4.68800	26689
4.68867	26581
4.68933	26474
4.69000	26368
4.69067	26262
4.69133	26158
4.69200	26055
4.69267	25952
4.69333	25851
4.69400	25750
4.69467	25651
4.69533	25552
4.69600	25454
4.69667	25357
4.69733	25261
4.69800	25166
4.69867	25072
4.69933	24978
4.70000	24886
4.70067	24794
4.70133	24703
4.70200	24612
4.70267	24523
4.70333	24434
4.70400	24346
4.70467	24259
4.70533	24173
4.70600	24087
4.70667	24003
4.70733	23919
4.70800	23837
4.70867	23755
4.70933	23674
4.71000	23594
4.71067	23515
4.71133	23436
4.71200	23359
4.71267	23282
4.71333	23207
4.71400	23132
4.71467	23058
4.71533	22984
4.71600	22912
4.71667	22840
4.71733	22769
4.71800	22699
4.71867	22630
4.71933	22561
4.72000	22493
4.72067	22426
4.72133	22360
4.72200	22295
4.72267	22230
4.72333	22167
4.72400	22104
4.72467	22042
4.72533	21980
4.72600	21920
4.72667	21860
4.72733	21801
4.72800	21742
4.72867	21684
4.72933	21627
4.73000	21570
4.73067	21514
4.73133	21458
4.73200	21403
4.73267	21349
4.73333	21295
4.73400	21241
4.73467	21189
4.73533	21136
4.73600	21085
4.73667	21034
4.73733	20983
4.73800	20933
4.73867	20883
4.73933	20834
4.74000	20785
4.74067	20737
4.74133	20689
4.74200	20642
4.74267	20596
4.74333	20549
4.74400	20504
4.74467	20458
4.74533	20414
4.74600	20369
4.74667	20325
4.74733	20282
4.74800	20239
4.74867	20197
4.74933	20155
4.75000	20114
4.75067	20073
4.75133	20033
4.75200	19993
4.75267	19954
4.75333	19915
4.75400	19877
4.75467	19839
4.75533	19801
4.75600	19764
4.75667	19728
4.75733	19692
4.75800	19656
4.75867	19621
4.75933	19586
4.76000	19552
4.76067	19518
4.76133	19485
4.76200	19452
4.76267	19419
4.76333	19387
4.76400	19356
4.76467	19324
4.76533	19293
4.76600	19262
4.76667	19232
4.76733	19202
4.76800	19172
4.76867	19142
4.76933	19112
4.77000	19083
4.77067	19054
4.77133	19024
4.77200	18995
4.77267	18966
4.77333	18937
4.77400	18909
4.77467	18880
4.77533	18851
4.77600	18823
4.77667	18794
4.77733	18766
4.77800	18738
4.77867	18710
4.77933	18682
4.78000	18654
4.78067	18626
4.78133	18598
4.78200	18570
4.78267	18543
4.78333	18515
4.78400	18488
4.78467	18460
4.78533	18433
4.78600	18405
4.78667	18378
4.78733	18350
4.78800	18323
4.78867	18296
4.78933	18269
4.79000	18242
4.79067	18215
4.79133	18188
4.79200	18162
4.79267	18135
4.79333	18109
4.79400	18083
4.79467	18057
4.79533	18031
4.79600	18005
4.79667	17979
4.79733	17954
4.79800	17929
4.79867	17903
4.79933	17879
4.80000	17854
4.80067	17829
4.80133	17805
4.80200	17780
4.80267	17756
4.80333	17732
4.80400	17708
4.80467	17683
4.80533	17659
4.80600	17635
4.80667	17611
4.80733	17586
4.80800	17562
4.80867	17538
4.80933	17514
4.81000	17490
4.81067	17466
4.81133	17442
4.81200	17418
4.81267	17394
4.81333	17371
4.81400	17347
4.81467	17324
4.81533	17300
4.81600	17277
4.81667	17253
4.81733	17230
4.81800	17207
4.81867	17184
4.81933	17162
4.82000	17139
4.82067	17116
4.82133	17094
4.82200	17071
4.82267	17049
4.82333	17026
4.82400	17004
4.82467	16982
4.82533	16960
4.82600	16937
4.82667	16915
4.82733	16893
4.82800	16871
4.82867	16849
4.82933	16828
4.83000	16806
4.83067	16784
4.83133	16763
4.83200	16742
4.83267	16720
4.83333	16699
4.83400	16678
4.83467	16657
4.83533	16636
4.83600	16616
4.83667	16595
4.83733	16575
4.83800	16554
4.83867	16534
4.83933	16514
4.84000	16494
4.84067	16474
4.84133	16453
4.84200	16433
4.84267	16413
4.84333	16393
4.84400	16373
4.84467	16353
4.84533	16333
4.84600	16314
4.84667	16294
4.84733	16274
4.84800	16254
4.84867	16234
4.84933	16215
4.85000	16196
4.85067	16176
4.85133	16157
4.85200	16138
4.85267	16119
4.85333	16101
4.85400	16083
4.85467	16064
4.85533	16046
4.85600	16029
4.85667	16011
4.85733	15993
4.85800	15976
4.85867	15959
4.85933	15941
4.86000	15924
4.86067	15907
4.86133	15889
4.86200	15872
4.86267	15855
4.86333	15838
4.86400	15820
4.86467	15803
4.86533	15786
4.86600	15769
4.86667	15752
4.86733	15735
4.86800	15718
4.86867	15701
4.86933	15684
4.87000	15668
4.87067	15651
4.87133	15635
4.87200	15619
4.87267	15603
4.87333	15587
4.87400	15572
4.87467	15556
4.87533	15540
4.87600	15524
4.87667	15509
4.87733	15493
4.87800	15477
4.87867	15461
4.87933	15446
4.88000	15430
4.88067	15414
4.88133	15399
4.88200	15383
4.88267	15368
4.88333	15352
4.88400	15337
4.88467	15321
4.88533	15306
4.88600	15290
4.88667	15275
4.88733	15260
4.88800	15245
4.88867	15230
4.88933	15215
4.89000	15199
4.89067	15184
4.89133	15169
4.89200	15154
4.89267	15139
4.89333	15124
4.89400	15108
4.89467	15093
4.89533	15078
4.89600	15063
4.89667	15048
4.89733	15033
4.89800	15018
4.89867	15003
4.89933	14988
4.90000	14973
4.90067	14958
4.90133	14943
4.90200	14928
4.90267	14914
4.90333	14899
4.90400	14884
4.90467	14870
4.90533	14855
4.90600	14841
4.90667	14826
4.90733	14812
4.90800	14797
4.90867	14783
4.90933	14768
4.91000	14754
4.91067	14740
4.91133	14725
4.91200	14711
4.91267	14696
4.91333	14682
4.91400	14668
4.91467	14653
4.91533	14639
4.91600	14624
4.91667	14610
4.91733	14596
4.91800	14581
4.91867	14567
4.91933	14552
4.92000	14538
4.92067	14523
4.92133	14509
4.92200	14495
4.92267	14480
4.92333	14466
4.92400	14452
4.92467	14438
4.92533	14423
4.92600	14409
4.92667	14395
4.92733	14381
4.92800	14367
4.92867	14353
4.92933	14338
4.93000	14324
4.93067	14310
4.93133	14296
4.93200	14282
4.93267	14269
4.93333	14255
4.93400	14241
4.93467	14227
4.93533	14213
4.93600	14200
4.93667	14186
4.93733	14172
4.93800	14159
4.93867	14145
4.93933	14131
4.94000	14118
4.94067	14104
4.94133	14091
4.94200	14077
4.94267	14063
4.94333	14050
4.94400	14036
4.94467	14023
4.94533	14009
4.94600	13996
4.94667	13982
4.94733	13969
4.94800	13955
4.94867	13942
4.94933	13928
4.95000	13915
4.95067	13901
4.95133	13888
4.95200	13874
4.95267	13861
4.95333	13847
4.95400	13834
4.95467	13820
4.95533	13807
4.95600	13793
4.95667	13780
4.95733	13767
4.95800	13753
4.95867	13740
4.95933	13727
4.96000	13715
4.96067	13702
4.96133	13689
4.96200	13676
4.96267	13664
4.96333	13651
4.96400	13638
4.96467	13626
4.96533	13613
4.96600	13601
4.96667	13589
4.96733	13576
4.96800	13564
4.96867	13551
4.96933	13539
4.97000	13527
4.97067	13514
4.97133	13502
4.97200	13490
4.97267	13478
4.97333	13465
4.97400	13453
4.97467	13441
4.97533	13429
4.97600	13417
4.97667	13405
4.97733	13393
4.97800	13381
4.97867	13369
4.97933	13357
4.98000	13345
4.98067	13333
4.98133	13322
4.98200	13310
4.98267	13298
4.98333	13286
4.98400	13275
4.98467	13263
4.98533	13251
4.98600	13239
4.98667	13227
4.98733	13215
4.98800	13204
4.98867	13192
4.98933	13180
4.99000	13168
4.99067	13156
4.99133	13144
4.99200	13132
4.99267	13121
4.99333	13109
4.99400	13097
4.99467	13085
4.99533	13073
4.99600	13061
4.99667	13049
4.99733	13037
4.99800	13025
4.99867	13014
4.99933	13002
5.00000	12990
5.00067	12978
5.00133	12966
5.00200	12954
5.00267	12943
5.00333	12931
5.00400	12920
5.00467	12908
5.00533	12897
5.00600	12886
5.00667	12875
5.00733	12864
5.00800	12853
5.00867	12842
5.00933	12832
5.01000	12821
5.01067	12810
5.01133	12800
5.01200	12790
5.01267	12779
5.01333	12769
5.01400	12759
5.01467	12749
5.01533	12739
5.01600	12730
5.01667	12720
5.01733	12711
5.01800	12701
5.01867	12692
5.01933	12683
5.02000	12674
5.02067	12665
5.02133	12656
5.02200	12648
5.02267	12639
5.02333	12630
5.02400	12621
5.02467	12613
5.02533	12604
5.02600	12595
5.02667	12586
5.02733	12578
5.02800	12569
5.02867	12560
5.02933	12551
5.03000	12543
5.03067	12534
5.03133	12525
5.03200	12516
5.03267	12507
5.03333	12498
5.03400	12490
5.03467	12481
5.03533	12472
5.03600	12463
5.03667	12454
5.03733	12445
5.03800	12436
5.03867	12427
5.03933	12418
5.04000	12409
5.04067	12400
5.04133	12391
5.04200	12382
5.04267	12372
5.04333	12363
5.04400	12354
5.04467	12344
5.04533	12335
5.04600	12325
5.04667	12316
5.04733	12307
5.04800	12297
5.04867	12288
5.04933	12279
5.05000	12270
5.05067	12261
5.05133	12251
5.05200	12242
5.05267	12233
5.05333	12224
5.05400	12215
5.05467	12206
5.05533	12197
5.05600	12188
5.05667	12179
5.05733	12170
5.05800	12161
5.05867	12152
5.05933	12144
5.06000	12135
5.06067	12126
5.06133	12118
5.06200	12109
5.06267	12101
5.06333	12092
5.06400	12084
5.06467	12076
5.06533	12068
5.06600	12060
5.06667	12051
5.06733	12043
5.06800	12035
5.06867	12027
5.06933	12019
5.07000	12011
5.07067	12003
5.07133	11995
5.07200	11987
5.07267	11979
5.07333	11971
5.07400	11963
5.07467	11954
5.07533	11946
5.07600	11938
5.07667	11930
5.07733	11921
5.07800	11913
5.07867	11905
5.07933	11896
5.08000	11888
5.08067	11879
5.08133	11871
5.08200	11863
5.08267	11854
5.08333	11846
5.08400	11837
5.08467	11829
5.08533	11821
5.08600	11813
5.08667	11804
5.08733	11796
5.08800	11789
5.08867	11781
5.08933	11773
5.09000	11766
5.09067	11758
5.09133	11751
5.09200	11744
5.09267	11737
5.09333	11730
5.09400	11723
5.09467	11716
5.09533	11710
5.09600	11703
5.09667	11696
5.09733	11689
5.09800	11682
5.09867	11675
5.09933	11668
5.10000	11661
5.10067	11654
5.10133	11647
5.10200	11640
5.10267	11633
5.10333	11626
5.10400	11619
5.10467	11612
5.10533	11605
5.10600	11598
5.10667	11591
5.10733	11584
5.10800	11577
5.10867	11570
5.10933	11563
5.11000	11556
5.11067	11549
5.11133	11542
5.11200	11535
5.11267	11528
5.11333	11521
5.11400	11514
5.11467	11508
5.11533	11501
5.11600	11494
5.11667	11488
5.11733	11481
5.11800	11475
5.11867	11468
5.11933	11462
5.12000	11455
5.12067	11449
5.12133	11442
5.12200	11436
5.12267	11430
5.12333	11423
5.12400	11417
5.12467	11411
5.12533	11405
5.12600	11399
5.12667	11393
5.12733	11387
5.12800	11381
5.12867	11375
5.12933	11370
5.13000	11364
5.13067	11359
5.13133	11353
5.13200	11348
5.13267	11342
5.13333	11337
5.13400	11332
5.13467	11327
5.13533	11322
5.13600	11317
5.13667	11312
5.13733	11307
5.13800	11303
5.13867	11299
5.13933	11294
5.14000	11290
5.14067	11286
5.14133	11283
5.14200	11279
5.14267	11276
5.14333	11273
5.14400	11269
5.14467	11266
5.14533	11264
5.14600	11261
5.14667	11258
5.14733	11256
5.14800	11253
5.14867	11251
5.14933	11249
5.15000	11247
5.15067	11245
5.15133	11243
5.15200	11241
5.15267	11240
5.15333	11239
5.15400	11237
5.15467	11236
5.15533	11235
5.15600	11234
5.15667	11234
5.15733	11233
5.15800	11232
5.15867	11232
5.15933	11232
5.16000	11231
5.16067	11231
5.16133	11231
5.16200	11231
5.16267	11232
5.16333	11232
5.16400	11232
5.16467	11233
5.16533	11233
5.16600	11233
5.16667	11234
5.16733	11234
5.16800	11235
5.16867	11235
5.16933	11236
5.17000	11237
5.17067	11237
5.17133	11238
5.17200	11239
5.17267	11240
5.17333	11241
5.17400	11241
5.17467	11242
5.17533	11243
5.17600	11245
5.17667	11246
5.17733	11247
5.17800	11248
5.17867	11250
5.17933	11251
5.18000	11253
5.18067	11254
5.18133	11256
5.18200	11258
5.18267	11260
5.18333	11261
5.18400	11263
5.18467	11266
5.18533	11268
5.18600	11270
5.18667	11272
5.18733	11275
5.18800	11277
5.18867	11280
5.18933	11282
5.19000	11285
5.19067	11287
5.19133	11290
5.19200	11293
5.19267	11295
5.19333	11298
5.19400	11301
5.19467	11304
5.19533	11306
5.19600	11309
5.19667	11312
5.19733	11315
5.19800	11318
5.19867	11321
5.19933	11323
5.20000	11326
5.20067	11329
5.20133	11332
5.20200	11334
5.20267	11337
5.20333	11339
5.20400	11342
5.20467	11344
5.20533	11346
5.20600	11349
5.20667	11351
5.20733	11353
5.20800	11355
5.20867	11356
5.20933	11358
5.21000	11359
5.21067	11361
5.21133	11362
5.21200	11364
5.21267	11365
5.21333	11366
5.21400	11367
5.21467	11367
5.21533	11368
5.21600	11369
5.21667	11369
5.21733	11369
5.21800	11369
5.21867	11370
5.21933	11370
5.22000	11369
5.22067	11369
5.22133	11369
5.22200	11369
5.22267	11368
5.22333	11367
5.22400	11367
5.22467	11366
5.22533	11364
5.22600	11363
5.22667	11362
5.22733	11360
5.22800	11358
5.22867	11356
5.22933	11354
5.23000	11352
5.23067	11349
5.23133	11347
5.23200	11344
5.23267	11341
5.23333	11338
5.23400	11335
5.23467	11331
5.23533	11327
5.23600	11323
5.23667	11319
5.23733	11315
5.23800	11310
5.23867	11305
5.23933	11300
5.24000	11295
5.24067	11290
5.24133	11284
5.24200	11278
5.24267	11272
5.24333	11265
5.24400	11258
5.24467	11252
5.24533	11244
5.24600	11237
5.24667	11230
5.24733	11222
5.24800	11214
5.24867	11206
5.24933	11198
5.25000	11190
5.25067	11182
5.25133	11173
5.25200	11165
5.25267	11156
5.25333	11147
5.25400	11138
5.25467	11129
5.25533	11120
5.25600	11110
5.25667	11101
5.25733	11091
5.25800	11081
5.25867	11071
5.25933	11060
5.26000	11050
5.26067	11039
5.26133	11029
5.26200	11018
5.26267	11007
5.26333	10996
5.26400	10984
5.26467	10973
5.26533	10961
5.26600	10950
5.26667	10938
5.26733	10926
5.26800	10914
5.26867	10902
5.26933	10890
5.27000	10878
5.27067	10866
5.27133	10853
5.27200	10841
5.27267	10828
5.27333	10815
5.27400	10803
5.27467	10790
5.27533	10777
5.27600	10764
5.27667	10752
5.27733	10739
5.27800	10726
5.27867	10713
5.27933	10700
5.28000	10687
5.28067	10674
5.28133	10661
5.28200	10649
5.28267	10636
5.28333	10623
5.28400	10610
5.28467	10598
5.28533	10585
5.28600	10572
5.28667	10560
5.28733	10547
5.28800	10535
5.28867	10522
5.28933	10510
5.29000	10498
5.29067	10485
5.29133	10473
5.29200	10461
5.29267	10449
5.29333	10436
5.29400	10424
5.29467	10412
5.29533	10400
5.29600	10388
5.29667	10376
5.29733	10364
5.29800	10352
5.29867	10340
5.29933	10328
5.30000	10316
5.30067	10305
5.30133	10293
5.30200	10281
5.30267	10270
5.30333	10258
5.30400	10246
5.30467	10235
5.30533	10224
5.30600	10212
5.30667	10201
5.30733	10190
5.30800	10178
5.30867	10167
5.30933	10156
5.31000	10145
5.31067	10134
5.31133	10123
5.31200	10112
5.31267	10101
5.31333	10091
5.31400	10080
5.31467	10070
5.31533	10059
5.31600	10049
5.31667	10038
5.31733	10028
5.31800	10018
5.31867	10007
5.31933	9997
5.32000	9987
5.32067	9977
5.32133	9967
5.32200	9957
5.32267	9947
5.32333	9937
5.32400	9928
5.32467	9918
5.32533	9908
5.32600	9898
5.32667	9889
5.32733	9879
5.32800	9869
5.32867	9860
5.32933	9850
5.33000	9841
5.33067	9831
5.33133	9822
5.33200	9812
5.33267	9803
5.33333	9794
5.33400	9785
5.33467	9775
5.33533	9766
5.33600	9757
5.33667	9748
5.33733	9739
5.33800	9730
5.33867	9721
5.33933	9712
5.34000	9704
5.34067	9695
5.34133	9686
5.34200	9677
5.34267	9668
5.34333	9659
5.34400	9650
5.34467	9642
5.34533	9633
5.34600	9624
5.34667	9615
5.34733	9606
5.34800	9597
5.34867	9588
5.34933	9580
5.35000	9571
5.35067	9562
5.35133	9554
5.35200	9545
5.35267	9537
5.35333	9528
5.35400	9520
5.35467	9511
5.35533	9503
5.35600	9495
5.35667	9486
5.35733	9478
5.35800	9469
5.35867	9461
5.35933	9453
5.36000	9445
5.36067	9437
5.36133	9428
5.36200	9420
5.36267	9412
5.36333	9404
5.36400	9396
5.36467	9388
5.36533	9380
5.36600	9373
5.36667	9365
5.36733	9357
5.36800	9349
5.36867	9341
5.36933	9334
5.37000	9326
5.37067	9319
5.37133	9311
5.37200	9303
5.37267	9296
5.37333	9289
5.37400	9281
5.37467	9274
5.37533	9266
5.37600	9259
5.37667	9252
5.37733	9245
5.37800	9238
5.37867	9230
5.37933	9223
5.38000	9216
5.38067	9209
5.38133	9202
5.38200	9195
5.38267	9189
5.38333	9182
5.38400	9175
5.38467	9168
5.38533	9162
5.38600	9155
5.38667	9149
5.38733	9142
5.38800	9135
5.38867	9129
5.38933	9122
5.39000	9116
5.39067	9110
5.39133	9103
5.39200	9097
5.39267	9091
5.39333	9084
5.39400	9078
5.39467	9072
5.39533	9066
5.39600	9060
5.39667	9054
5.39733	9048
5.39800	9042
5.39867	9036
5.39933	9030
5.40000	9024
5.40067	9019
5.40133	9013
5.40200	9007
5.40267	9002
5.40333	8996
5.40400	8990
5.40467	8984
5.40533	8979
5.40600	8973
5.40667	8967
5.40733	8961
5.40800	8955
5.40867	8949
5.40933	8944
5.41000	8938
5.41067	8932
5.41133	8926
5.41200	8920
5.41267	8914
5.41333	8908
5.41400	8902
5.41467	8896
5.41533	8890
5.41600	8884
5.41667	8878
5.41733	8873
5.41800	8867
5.41867	8861
5.41933	8855
5.42000	8849
5.42067	8843
5.42133	8837
5.42200	8831
5.42267	8825
5.42333	8819
5.42400	8813
5.42467	8807
5.42533	8801
5.42600	8795
5.42667	8789
5.42733	8784
5.42800	8778
5.42867	8772
5.42933	8766
5.43000	8760
5.43067	8754
5.43133	8748
5.43200	8742
5.43267	8736
5.43333	8731
5.43400	8725
5.43467	8719
5.43533	8713
5.43600	8708
5.43667	8702
5.43733	8697
5.43800	8691
5.43867	8686
5.43933	8680
5.44000	8675
5.44067	8669
5.44133	8664
5.44200	8658
5.44267	8653
5.44333	8647
5.44400	8642
5.44467	8636
5.44533	8631
5.44600	8626
5.44667	8620
5.44733	8615
5.44800	8609
5.44867	8604
5.44933	8598
5.45000	8593
5.45067	8588
5.45133	8582
5.45200	8577
5.45267	8572
5.45333	8566
5.45400	8561
5.45467	8556
5.45533	8550
5.45600	8545
5.45667	8540
5.45733	8535
5.45800	8529
5.45867	8524
5.45933	8519
5.46000	8513
5.46067	8508
5.46133	8503
5.46200	8498
5.46267	8493
5.46333	8488
5.46400	8483
5.46467	8477
5.46533	8472
5.46600	8467
5.46667	8462
5.46733	8457
5.46800	8452
5.46867	8447
5.46933	8442
5.47000	8437
5.47067	8432
5.47133	8427
5.47200	8422
5.47267	8418
5.47333	8413
5.47400	8408
5.47467	8403
5.47533	8398
5.47600	8393
5.47667	8388
5.47733	8383
5.47800	8378
5.47867	8373
5.47933	8368
5.48000	8363
5.48067	8359
5.48133	8354
5.48200	8349
5.48267	8344
5.48333	8339
5.48400	8334
5.48467	8330
5.48533	8325
5.48600	8320
5.48667	8315
5.48733	8311
5.48800	8306
5.48867	8301
5.48933	8297
5.49000	8292
5.49067	8287
5.49133	8283
5.49200	8278
5.49267	8274
5.49333	8269
5.49400	8265
5.49467	8260
5.49533	8256
5.49600	8252
5.49667	8247
5.49733	8243
5.49800	8238
5.49867	8234
5.49933	8229
5.50000	8225
5.50067	8220
5.50133	8216
5.50200	8212
5.50267	8207
5.50333	8203
5.50400	8198
5.50467	8194
5.50533	8189
5.50600	8184
5.50667	8180
5.50733	8175
5.50800	8171
5.50867	8166
5.50933	8161
5.51000	8157
5.51067	8152
5.51133	8147
5.51200	8143
5.51267	8138
5.51333	8133
5.51400	8129
5.51467	8124
5.51533	8119
5.51600	8115
5.51667	8110
5.51733	8106
5.51800	8101
5.51867	8096
5.51933	8092
5.52000	8087
5.52067	8083
5.52133	8078
5.52200	8074
5.52267	8070
5.52333	8065
5.52400	8061
5.52467	8057
5.52533	8052
5.52600	8048
5.52667	8044
5.52733	8040
5.52800	8035
5.52867	8031
5.52933	8027
5.53000	8023
5.53067	8019
5.53133	8015
5.53200	8012
5.53267	8008
5.53333	8004
5.53400	8000
5.53467	7997
5.53533	7993
5.53600	7989
5.53667	7985
5.53733	7982
5.53800	7978
5.53867	7974
5.53933	7970
5.54000	7966
5.54067	7962
5.54133	7958
5.54200	7954
5.54267	7951
5.54333	7947
5.54400	7943
5.54467	7939
5.54533	7935
5.54600	7931
5.54667	7927
5.54733	7923
5.54800	7920
5.54867	7916
5.54933	7912
5.55000	7908
5.55067	7905
5.55133	7901
5.55200	7897
5.55267	7893
5.55333	7890
5.55400	7886
5.55467	7883
5.55533	7879
5.55600	7876
5.55667	7872
5.55733	7869
5.55800	7865
5.55867	7862
5.55933	7858
5.56000	7855
5.56067	7851
5.56133	7848
5.56200	7844
5.56267	7841
5.56333	7837
5.56400	7834
5.56467	7830
5.56533	7826
5.56600	7823
5.56667	7819
5.56733	7815
5.56800	7812
5.56867	7808
5.56933	7804
5.57000	7800
5.57067	7797
5.57133	7793
5.57200	7789
5.57267	7785
5.57333	7781
5.57400	7778
5.57467	7774
5.57533	7770
5.57600	7766
5.57667	7762
5.57733	7758
5.57800	7754
5.57867	7751
5.57933	7747
5.58000	7743
5.58067	7739
5.58133	7735
5.58200	7732
5.58267	7728
5.58333	7724
5.58400	7721
5.58467	7717
5.58533	7713
5.58600	7710
5.58667	7706
5.58733	7703
5.58800	7699
5.58867	7696
5.58933	7692
5.59000	7688
5.59067	7685
5.59133	7681
5.59200	7677
5.59267	7674
5.59333	7670
5.59400	7667
5.59467	7663
5.59533	7659
5.59600	7656
5.59667	7652
5.59733	7648
5.59800	7645
5.59867	7641
5.59933	7638
5.60000	7634
5.60067	7630
5.60133	7627
5.60200	7623
5.60267	7619
5.60333	7616
5.60400	7612
5.60467	7609
5.60533	7605
5.60600	7601
5.60667	7598
5.60733	7594
5.60800	7591
5.60867	7587
5.60933	7583
5.61000	7580
5.61067	7576
5.61133	7573
5.61200	7569
5.61267	7566
5.61333	7562
5.61400	7559
5.61467	7555
5.61533	7552
5.61600	7549
5.61667	7545
5.61733	7542
5.61800	7539
5.61867	7536
5.61933	7532
5.62000	7529
5.62067	7526
5.62133	7523
5.62200	7520
5.62267	7516
5.62333	7513
5.62400	7510
5.62467	7507
5.62533	7504
5.62600	7501
5.62667	7498
5.62733	7495
5.62800	7492
5.62867	7488
5.62933	7485
5.63000	7482
5.63067	7479
5.63133	7476
5.63200	7473
5.63267	7470
5.63333	7467
5.63400	7464
5.63467	7461
5.63533	7458
5.63600	7455
5.63667	7452
5.63733	7449
5.63800	7446
5.63867	7442
5.63933	7439
5.64000	7436
5.64067	7433
5.64133	7430
5.64200	7427
5.64267	7424
5.64333	7421
5.64400	7418
5.64467	7415
5.64533	7412
5.64600	7408
5.64667	7405
5.64733	7402
5.64800	7399
5.64867	7396
5.64933	7393
5.65000	7390
5.65067	7387
5.65133	7383
5.65200	7380
5.65267	7377
5.65333	7374
5.65400	7371
5.65467	7369
5.65533	7366
5.65600	7363
5.65667	7360
5.65733	7357
5.65800	7354
5.65867	7351
5.65933	7348
5.66000	7345
5.66067	7342
5.66133	7340
5.66200	7337
5.66267	7334
5.66333	7331
5.66400	7328
5.66467	7325
5.66533	7323
5.66600	7320
5.66667	7317
5.66733	7315
5.66800	7312
5.66867	7309
5.66933	7307
5.67000	7304
5.67067	7302
5.67133	7299
5.67200	7296
5.67267	7294
5.67333	7291
5.67400	7288
5.67467	7286
5.67533	7283
5.67600	7281
5.67667	7278
5.67733	7276
5.67800	7273
5.67867	7271
5.67933	7268
5.68000	7266
5.68067	7263
5.68133	7261
5.68200	7258
5.68267	7256
5.68333	7254
5.68400	7251
5.68467	7249
5.68533	7246
5.68600	7244
5.68667	7241
5.68733	7239
5.68800	7236
5.68867	7234
5.68933	7231
5.69000	7229
5.69067	7227
5.69133	7224
5.69200	7222
5.69267	7219
5.69333	7217
5.69400	7215
5.69467	7212
5.69533	7210
5.69600	7207
5.69667	7205
5.69733	7202
5.69800	7200
5.69867	7197
5.69933	7195
5.70000	7192
5.70067	7190
5.70133	7187
5.70200	7185
5.70267	7182
5.70333	7179
5.70400	7177
5.70467	7174
5.70533	7172
5.70600	7169
5.70667	7166
5.70733	7163
5.70800	7161
5.70867	7158
5.70933	7155
5.71000	7153
5.71067	7150
5.71133	7148
5.71200	7145
5.71267	7142
5.71333	7140
5.71400	7137
5.71467	7135
5.71533	7132
5.71600	7130
5.71667	7128
5.71733	7125
5.71800	7123
5.71867	7120
5.71933	7118
5.72000	7116
5.72067	7113
5.72133	7111
5.72200	7109
5.72267	7107
5.72333	7105
5.72400	7103
5.72467	7100
5.72533	7098
5.72600	7096
5.72667	7094
5.72733	7092
5.72800	7090
5.72867	7088
5.72933	7086
5.73000	7084
5.73067	7082
5.73133	7080
5.73200	7078
5.73267	7076
5.73333	7074
5.73400	7073
5.73467	7071
5.73533	7069
5.73600	7067
5.73667	7065
5.73733	7063
5.73800	7061
5.73867	7059
5.73933	7058
5.74000	7056
5.74067	7054
5.74133	7052
5.74200	7051
5.74267	7049
5.74333	7047
5.74400	7046
5.74467	7044
5.74533	7042
5.74600	7041
5.74667	7039
5.74733	7037
5.74800	7036
5.74867	7034
5.74933	7032
5.75000	7031
5.75067	7029
5.75133	7027
5.75200	7026
5.75267	7024
5.75333	7023
5.75400	7022
5.75467	7020
5.75533	7019
5.75600	7017
5.75667	7015
5.75733	7014
5.75800	7012
5.75867	7011
5.75933	7009
5.76000	7008
5.76067	7006
5.76133	7005
5.76200	7003
5.76267	7002
5.76333	7000
5.76400	6999
5.76467	6997
5.76533	6996
5.76600	6994
5.76667	6993
5.76733	6991
5.76800	6990
5.76867	6988
5.76933	6987
5.77000	6985
5.77067	6984
5.77133	6983
5.77200	6981
5.77267	6980
5.77333	6979
5.77400	6977
5.77467	6976
5.77533	6975
5.77600	6974
5.77667	6973
5.77733	6971
5.77800	6970
5.77867	6969
5.77933	6968
5.78000	6966
5.78067	6965
5.78133	6964
5.78200	6963
5.78267	6962
5.78333	6961
5.78400	6960
5.78467	6959
5.78533	6958
5.78600	6958
5.78667	6957
5.78733	6956
5.78800	6955
5.78867	6954
5.78933	6954
5.79000	6953
5.79067	6952
5.79133	6951
5.79200	6951
5.79267	6950
5.79333	6949
5.79400	6949
5.79467	6948
5.79533	6948
5.79600	6947
5.79667	6946
5.79733	6946
5.79800	6945
5.79867	6945
5.79933	6944
5.80000	6943
5.80067	6943
5.80133	6942
5.80200	6942
5.80267	6941
5.80333	6940
5.80400	6940
5.80467	6939
5.80533	6939
5.80600	6938
5.80667	6937
5.80733	6937
5.80800	6936
5.80867	6936
5.80933	6935
5.81000	6935
5.81067	6934
5.81133	6933
5.81200	6933
5.81267	6932
5.81333	6932
5.81400	6931
5.81467	6930
5.81533	6930
5.81600	6929
5.81667	6928
5.81733	6928
5.81800	6927
5.81867	6926
5.81933	6925
5.82000	6925
5.82067	6924
5.82133	6923
5.82200	6922
5.82267	6921
5.82333	6920
5.82400	6919
5.82467	6918
5.82533	6917
5.82600	6916
5.82667	6915
5.82733	6914
5.82800	6913
5.82867	6912
5.82933	6911
5.83000	6910
5.83067	6909
5.83133	6908
5.83200	6907
5.83267	6906
5.83333	6905
5.83400	6904
5.83467	6903
5.83533	6902
5.83600	6901
5.83667	6900
5.83733	6898
5.83800	6897
5.83867	6896
5.83933	6894
5.84000	6893
5.84067	6892
5.84133	6890
5.84200	6889
5.84267	6888
5.84333	6886
5.84400	6885
5.84467	6883
5.84533	6882
5.84600	6881
5.84667	6879
5.84733	6878
5.84800	6876
5.84867	6875
5.84933	6873
5.85000	6872
5.85067	6870
5.85133	6869
5.85200	6867
5.85267	6866
5.85333	6864
5.85400	6863
5.85467	6861
5.85533	6860
5.85600	6858
5.85667	6857
5.85733	6855
5.85800	6854
5.85867	6852
5.85933	6851
5.86000	6849
5.86067	6848
5.86133	6846
5.86200	6845
5.86267	6843
5.86333	6842
5.86400	6840
5.86467	6839
5.86533	6837
5.86600	6836
5.86667	6834
5.86733	6833
5.86800	6831
5.86867	6829
5.86933	6828
5.87000	6826
5.87067	6824
5.87133	6823
5.87200	6821
5.87267	6819
5.87333	6817
5.87400	6815
5.87467	6814
5.87533	6812
5.87600	6810
5.87667	6808
5.87733	6806
5.87800	6804
5.87867	6802
5.87933	6800
5.88000	6797
5.88067	6795
5.88133	6793
5.88200	6791
5.88267	6789
5.88333	6787
5.88400	6785
5.88467	6782
5.88533	6780
5.88600	6778
5.88667	6776
5.88733	6774
5.88800	6772
5.88867	6770
5.88933	6768
5.89000	6766
5.89067	6764
5.89133	6761
5.89200	6759
5.89267	6757
5.89333	6755
5.89400	6753
5.89467	6750
5.89533	6748
5.89600	6746
5.89667	6743
5.89733	6741
5.89800	6739
5.89867	6736
5.89933	6734
5.90000	6731
5.90067	6729
5.90133	6726
5.90200	6724
5.90267	6721
5.90333	6719
5.90400	6716
5.90467	6714
5.90533	6711
5.90600	6708
5.90667	6706
5.90733	6703
5.90800	6701
5.90867	6698
5.90933	6696
5.91000	6693
5.91067	6691
5.91133	6688
5.91200	6686
5.91267	6683
5.91333	6681
5.91400	6679
5.91467	6676
5.91533	6674
5.91600	6672
5.91667	6670
5.91733	6667
5.91800	6665
5.91867	6663
5.91933	6661
5.92000	6659
5.92067	6656
5.92133	6654
5.92200	6652
5.92267	6650
5.92333	6648
5.92400	6646
5.92467	6644
5.92533	6642
5.92600	6640
5.92667	6637
5.92733	6635
5.92800	6633
5.92867	6631
5.92933	6629
5.93000	6627
5.93067	6625
5.93133	6623
5.93200	6621
5.93267	6619
5.93333	6617
5.93400	6615
5.93467	6614
5.93533	6612
5.93600	6610
5.93667	6608
5.93733	6607
5.93800	6605
5.93867	6603
5.93933	6602
5.94000	6600
5.94067	6599
5.94133	6597
5.94200	6596
5.94267	6594
5.94333	6592
5.94400	6591
5.94467	6589
5.94533	6588
5.94600	6586
5.94667	6585
5.94733	6583
5.94800	6582
5.94867	6580
5.94933	6578
5.95000	6577
5.95067	6575
5.95133	6573
5.95200	6572
5.95267	6570
5.95333	6568
5.95400	6567
5.95467	6565
5.95533	6563
5.95600	6561
5.95667	6560
5.95733	6558
5.95800	6556
5.95867	6554
5.95933	6553
5.96000	6551
5.96067	6549
5.96133	6547
5.96200	6546
5.96267	6544
5.96333	6543
5.96400	6541
5.96467	6539
5.96533	6538
5.96600	6536
5.96667	6534
5.96733	6533
5.96800	6531
5.96867	6529
5.96933	6528
5.97000	6526
5.97067	6524
5.97133	6523
5.97200	6521
5.97267	6520
5.97333	6518
5.97400	6517
5.97467	6515
5.97533	6514
5.97600	6513
5.97667	6511
5.97733	6510
5.97800	6508
5.97867	6507
5.97933	6505
5.98000	6504
5.98067	6503
5.98133	6501
5.98200	6500
5.98267	6498
5.98333	6497
5.98400	6496
5.98467	6494
5.98533	6493
5.98600	6492
5.98667	6491
5.98733	6489
5.98800	6488
5.98867	6487
5.98933	6486
5.99000	6485
5.99067	6484
5.99133	6482
5.99200	6481
5.99267	6480
5.99333	6479
5.99400	6478
5.99467	6477
5.99533	6476
5.99600	6475
5.99667	6474
5.99733	6473
5.99800	6472
5.99867	6471
5.99933	6470
6.00000	6469
6.00067	6468
6.00133	6467
6.00200	6466
6.00267	6465
6.00333	6464
6.00400	6463
6.00467	6462
6.00533	6461
6.00600	6460
6.00667	6459
6.00733	6458
6.00800	6457
6.00867	6456
6.00933	6455
6.01000	6454
6.01067	6453
6.01133	6452
6.01200	6451
6.01267	6450
6.01333	6449
6.01400	6448
6.01467	6447
6.01533	6447
6.01600	6446
6.01667	6445
6.01733	6444
6.01800	6443
6.01867	6442
6.01933	6441
6.02000	6439
6.02067	6438
6.02133	6437
6.02200	6436
6.02267	6435
6.02333	6434
6.02400	6433
6.02467	6432
6.02533	6431
6.02600	6431
6.02667	6430
6.02733	6429
6.02800	6428
6.02867	6427
6.02933	6426
6.03000	6425
6.03067	6424
6.03133	6423
6.03200	6422
6.03267	6421
6.03333	6420
6.03400	6420
6.03467	6419
6.03533	6418
6.03600	6417
6.03667	6417
6.03733	6416
6.03800	6415
6.03867	6415
6.03933	6414
6.04000	6414
6.04067	6413
6.04133	6412
6.04200	6412
6.04267	6411
6.04333	6411
6.04400	6410
6.04467	6410
6.04533	6409
6.04600	6408
6.04667	6408
6.04733	6407
6.04800	6407
6.04867	6406
6.04933	6405
6.05000	6405
6.05067	6404
6.05133	6404
6.05200	6403
6.05267	6402
6.05333	6402
6.05400	6401
6.05467	6400
6.05533	6400
6.05600	6399
6.05667	6398
6.05733	6398
6.05800	6397
6.05867	6396
6.05933	6395
6.06000	6395
6.06067	6394
6.06133	6393
6.06200	6392
6.06267	6391
6.06333	6390
6.06400	6390
6.06467	6389
6.06533	6388
6.06600	6387
6.06667	6386
6.06733	6385
6.06800	6384
6.06867	6383
6.06933	6383
6.07000	6382
6.07067	6381
6.07133	6380
6.07200	6379
6.07267	6378
6.07333	6377
6.07400	6376
6.07467	6375
6.07533	6374
6.07600	6373
6.07667	6372
6.07733	6371
6.07800	6370
6.07867	6369
6.07933	6368
6.08000	6367
6.08067	6366
6.08133	6365
6.08200	6363
6.08267	6362
6.08333	6361
6.08400	6360
6.08467	6359
6.08533	6358
6.08600	6357
6.08667	6356
6.08733	6355
6.08800	6354
6.08867	6353
6.08933	6352
6.09000	6351
6.09067	6350
6.09133	6349
6.09200	6348
6.09267	6347
6.09333	6346
6.09400	6345
6.09467	6344
6.09533	6343
6.09600	6342
6.09667	6341
6.09733	6341
6.09800	6340
6.09867	6339
6.09933	6338
6.10000	6337
6.10067	6336
6.10133	6335
6.10200	6334
6.10267	6334
6.10333	6333
6.10400	6332
6.10467	6331
6.10533	6330
6.10600	6329
6.10667	6328
6.10733	6328
6.10800	6327
6.10867	6326
6.10933	6325
6.11000	6324
6.11067	6323
6.11133	6322
6.11200	6321
6.11267	6320
6.11333	6320
6.11400	6319
6.11467	6318
6.11533	6317
6.11600	6316
6.11667	6315
6.11733	6314
6.11800	6313
6.11867	6312
6.11933	6311
6.12000	6310
6.12067	6309
6.12133	6308
6.12200	6308
6.12267	6307
6.12333	6306
6.12400	6305
6.12467	6304
6.12533	6303
6.12600	6302
6.12667	6301
6.12733	6300
6.12800	6299
6.12867	6298
6.12933	6297
6.13000	6296
6.13067	6295
6.13133	6294
6.13200	6293
6.13267	6292
6.13333	6291
6.13400	6290
6.13467	6289
6.13533	6288
6.13600	6287
6.13667	6286
6.13733	6284
6.13800	6283
6.13867	6282
6.13933	6281
6.14000	6280
6.14067	6279
6.14133	6278
6.14200	6277
6.14267	6276
6.14333	6275
6.14400	6274
6.14467	6273
6.14533	6273
6.14600	6272
6.14667	6271
6.14733	6270
6.14800	6269
6.14867	6268
6.14933	6268
6.15000	6267
6.15067	6266
6.15133	6265
6.15200	6265
6.15267	6264
6.15333	6263
6.15400	6263
6.15467	6262
6.15533	6262
6.15600	6261
6.15667	6260
6.15733	6260
6.15800	6259
6.15867	6259
6.15933	6258
6.16000	6258
6.16067	6257
6.16133	6256
6.16200	6256
6.16267	6255
6.16333	6255
6.16400	6254
6.16467	6253
6.16533	6252
6.16600	6252
6.16667	6251
6.16733	6250
6.16800	6249
6.16867	6248
6.16933	6248
6.17000	6247
6.17067	6246
6.17133	6245
6.17200	6244
6.17267	6243
6.17333	6242
6.17400	6241
6.17467	6240
6.17533	6239
6.17600	6239
6.17667	6238
6.17733	6237
6.17800	6236
6.17867	6235
6.17933	6234
6.18000	6233
6.18067	6233
6.18133	6232
6.18200	6231
6.18267	6230
6.18333	6229
6.18400	6228
6.18467	6227
6.18533	6226
6.18600	6226
6.18667	6225
6.18733	6224
6.18800	6223
6.18867	6222
6.18933	6221
6.19000	6220
6.19067	6219
6.19133	6219
6.19200	6218
6.19267	6217
6.19333	6216
6.19400	6215
6.19467	6215
6.19533	6214
6.19600	6213
6.19667	6212
6.19733	6212
6.19800	6211
6.19867	6210
6.19933	6209
6.20000	6209
6.20067	6208
6.20133	6207
6.20200	6207
6.20267	6206
6.20333	6206
6.20400	6205
6.20467	6204
6.20533	6204
6.20600	6203
6.20667	6203
6.20733	6202
6.20800	6202
6.20867	6202
6.20933	6201
6.21000	6201
6.21067	6201
6.21133	6200
6.21200	6200
6.21267	6200
6.21333	6199
6.21400	6199
6.21467	6199
6.21533	6199
6.21600	6198
6.21667	6198
6.21733	6198
6.21800	6197
6.21867	6197
6.21933	6197
6.22000	6197
6.22067	6197
6.22133	6196
6.22200	6196
6.22267	6196
6.22333	6196
6.22400	6196
6.22467	6196
6.22533	6196
6.22600	6196
6.22667	6196
6.22733	6196
6.22800	6196
6.22867	6196
6.22933	6196
6.23000	6196
6.23067	6196
6.23133	6196
6.23200	6196
6.23267	6196
6.23333	6196
6.23400	6196
6.23467	6196
6.23533	6196
6.23600	6196
6.23667	6196
6.23733	6197
6.23800	6197
6.23867	6197
6.23933	6197
6.24000	6197
6.24067	6197
6.24133	6197
6.24200	6197
6.24267	6197
6.24333	6198
6.24400	6198
6.24467	6198
6.24533	6198
6.24600	6198
6.24667	6199
6.24733	6199
6.24800	6200
6.24867	6200
6.24933	6200
6.25000	6201
6.25067	6201
6.25133	6202
6.25200	6202
6.25267	6203
6.25333	6203
6.25400	6204
6.25467	6205
6.25533	6205
6.25600	6206
6.25667	6206
6.25733	6207
6.25800	6207
6.25867	6208
6.25933	6208
6.26000	6209
6.26067	6209
6.26133	6210
6.26200	6210
6.26267	6211
6.26333	6211
6.26400	6212
6.26467	6212
6.26533	6212
6.26600	6213
6.26667	6213
6.26733	6214
6.26800	6214
6.26867	6215
6.26933	6215
6.27000	6215
6.27067	6216
6.27133	6216
6.27200	6216
6.27267	6217
6.27333	6217
6.27400	6217
6.27467	6217
6.27533	6218
6.27600	6218
6.27667	6218
6.27733	6219
6.27800	6219
6.27867	6219
6.27933	6220
6.28000	6220
6.28067	6220
6.28133	6220
6.28200	6221
6.28267	6221
6.28333	6221
6.28400	6221
6.28467	6222
6.28533	6222
6.28600	6222
6.28667	6222
6.28733	6222
6.28800	6222
6.28867	6222
6.28933	6222
6.29000	6222
6.29067	6222
6.29133	6222
6.29200	6221
6.29267	6221
6.29333	6221
6.29400	6221
6.29467	6221
6.29533	6221
6.29600	6221
6.29667	6221
6.29733	6221
6.29800	6221
6.29867	6221
6.29933	6221
6.30000	6220
6.30067	6220
6.30133	6220
6.30200	6220
6.30267	6220
6.30333	6220
6.30400	6220
6.30467	6219
6.30533	6219
6.30600	6219
6.30667	6219
6.30733	6219
6.30800	6219
6.30867	6219
6.30933	6218
6.31000	6218
6.31067	6218
6.31133	6218
6.31200	6218
6.31267	6218
6.31333	6217
6.31400	6217
6.31467	6217
6.31533	6217
6.31600	6217
6.31667	6216
6.31733	6216
6.31800	6216
6.31867	6216
6.31933	6215
6.32000	6215
6.32067	6215
6.32133	6214
6.32200	6214
6.32267	6214
6.32333	6213
6.32400	6213
6.32467	6212
6.32533	6212
6.32600	6212
6.32667	6211
6.32733	6211
6.32800	6210
6.32867	6210
6.32933	6209
6.33000	6208
6.33067	6208
6.33133	6207
6.33200	6207
6.33267	6206
6.33333	6205
6.33400	6205
6.33467	6204
6.33533	6203
6.33600	6202
6.33667	6202
6.33733	6201
6.33800	6200
6.33867	6199
6.33933	6199
6.34000	6198
6.34067	6197
6.34133	6196
6.34200	6195
6.34267	6195
6.34333	6194
6.34400	6193
6.34467	6192
6.34533	6191
6.34600	6190
6.34667	6189
6.34733	6188
6.34800	6188
6.34867	6187
6.34933	6186
6.35000	6185
6.35067	6184
6.35133	6183
6.35200	6182
6.35267	6181
6.35333	6180
6.35400	6179
6.35467	6178
6.35533	6177
6.35600	6176
6.35667	6176
6.35733	6175
6.35800	6174
6.35867	6173
6.35933	6172
6.36000	6171
6.36067	6170
6.36133	6169
6.36200	6169
6.36267	6168
6.36333	6167
6.36400	6166
6.36467	6165
6.36533	6164
6.36600	6164
6.36667	6163
6.36733	6162
6.36800	6161
6.36867	6161
6.36933	6160
6.37000	6159
6.37067	6158
6.37133	6158
6.37200	6157
6.37267	6156
6.37333	6156
6.37400	6155
6.37467	6154
6.37533	6153
6.37600	6153
6.37667	6152
6.37733	6151
6.37800	6150
6.37867	6150
6.37933	6149
6.38000	6148
6.38067	6147
6.38133	6147
6.38200	6146
6.38267	6145
6.38333	6144
6.38400	6144
6.38467	6143
6.38533	6142
6.38600	6141
6.38667	6140
6.38733	6140
6.38800	6139
6.38867	6138
6.38933	6137
6.39000	6137
6.39067	6136
6.39133	6135
6.39200	6134
6.39267	6134
6.39333	6133
6.39400	6133
6.39467	6132
6.39533	6131
6.39600	6131
6.39667	6130
6.39733	6130
6.39800	6129
6.39867	6128
6.39933	6128

