[Header]
Application Name	LabSolutions
Version	5.73
Data File Name	C:\LabSolutions\Data\Project1\stephen\2016-01-06\15.gcd
Output Date	1/11/2016
Output Time	1:19:41 PM

[Configuration]
Instrument Name	WEISSTA-PC-Instrument1
Instrument #	1
Line #	1
# of Detectors	1
Detector ID	DET#2
Detector Name	DFID1
# of Channels	1

[Chromatogram (Ch1)]
Interval(msec)	40
# of Points	9599
Start Time(min)	0.001
End Time(min)	6.399
R.Time (min)	Intensity
0.00067	12
0.00133	12
0.00200	12
0.00267	12
0.00333	12
0.00400	12
0.00467	12
0.00533	12
0.00600	12
0.00667	12
0.00733	12
0.00800	12
0.00867	11
0.00933	10
0.01000	9
0.01067	7
0.01133	5
0.01200	3
0.01267	0
0.01333	-3
0.01400	-7
0.01467	-11
0.01533	-16
0.01600	-21
0.01667	-26
0.01733	-32
0.01800	-38
0.01867	-44
0.01933	-50
0.02000	-56
0.02067	-62
0.02133	-68
0.02200	-74
0.02267	-80
0.02333	-86
0.02400	-92
0.02467	-97
0.02533	-103
0.02600	-108
0.02667	-113
0.02733	-118
0.02800	-122
0.02867	-126
0.02933	-131
0.03000	-135
0.03067	-138
0.03133	-142
0.03200	-145
0.03267	-148
0.03333	-151
0.03400	-153
0.03467	-156
0.03533	-158
0.03600	-160
0.03667	-162
0.03733	-164
0.03800	-165
0.03867	-167
0.03933	-168
0.04000	-169
0.04067	-170
0.04133	-171
0.04200	-172
0.04267	-173
0.04333	-173
0.04400	-174
0.04467	-174
0.04533	-175
0.04600	-175
0.04667	-175
0.04733	-175
0.04800	-176
0.04867	-176
0.04933	-176
0.05000	-175
0.05067	-175
0.05133	-175
0.05200	-175
0.05267	-175
0.05333	-175
0.05400	-174
0.05467	-174
0.05533	-174
0.05600	-173
0.05667	-173
0.05733	-172
0.05800	-172
0.05867	-171
0.05933	-171
0.06000	-170
0.06067	-170
0.06133	-169
0.06200	-169
0.06267	-169
0.06333	-168
0.06400	-168
0.06467	-167
0.06533	-167
0.06600	-167
0.06667	-166
0.06733	-166
0.06800	-165
0.06867	-165
0.06933	-164
0.07000	-163
0.07067	-163
0.07133	-162
0.07200	-162
0.07267	-161
0.07333	-161
0.07400	-160
0.07467	-160
0.07533	-159
0.07600	-159
0.07667	-158
0.07733	-158
0.07800	-158
0.07867	-157
0.07933	-157
0.08000	-157
0.08067	-157
0.08133	-156
0.08200	-156
0.08267	-156
0.08333	-156
0.08400	-156
0.08467	-155
0.08533	-155
0.08600	-155
0.08667	-153
0.08733	-149
0.08800	-141
0.08867	-128
0.08933	-103
0.09000	-65
0.09067	-7
0.09133	95
0.09200	235
0.09267	412
0.09333	671
0.09400	1054
0.09467	1586
0.09533	2269
0.09600	3115
0.09667	4107
0.09733	5173
0.09800	6325
0.09867	7545
0.09933	8848
0.10000	10296
0.10067	11804
0.10133	13397
0.10200	15058
0.10267	16873
0.10333	18710
0.10400	20530
0.10467	22416
0.10533	24320
0.10600	26230
0.10667	28176
0.10733	30158
0.10800	32262
0.10867	34477
0.10933	36644
0.11000	38816
0.11067	40962
0.11133	43054
0.11200	45080
0.11267	47037
0.11333	48923
0.11400	50795
0.11467	52628
0.11533	54417
0.11600	56183
0.11667	57915
0.11733	59571
0.11800	61118
0.11867	62576
0.11933	63945
0.12000	65222
0.12067	66425
0.12133	67559
0.12200	68581
0.12267	69506
0.12333	70405
0.12400	71224
0.12467	71911
0.12533	72504
0.12600	73029
0.12667	73467
0.12733	73860
0.12800	74245
0.12867	74585
0.12933	74856
0.13000	75021
0.13067	75084
0.13133	75103
0.13200	75055
0.13267	74926
0.13333	74742
0.13400	74523
0.13467	74298
0.13533	74336
0.13600	75442
0.13667	79829
0.13733	92344
0.13800	122550
0.13867	186517
0.13933	309232
0.14000	521691
0.14067	857344
0.14133	1347018
0.14200	2018022
0.14267	2892019
0.14333	3985967
0.14400	5310318
0.14467	6871056
0.14533	8669246
0.14600	10699822
0.14667	12944952
0.14733	15398264
0.14800	18093415
0.14867	21065325
0.14933	24320171
0.15000	27845326
0.15067	31618140
0.15133	35611247
0.15200	39794570
0.15267	44139095
0.15333	48618149
0.15400	53207163
0.15467	57882813
0.15533	62623430
0.15600	67408663
0.15667	72219208
0.15733	77036507
0.15800	81843370
0.15867	86623273
0.15933	91360889
0.16000	96041442
0.16067	100651471
0.16133	105177691
0.16200	109607296
0.16267	113928863
0.16333	118131841
0.16400	122206100
0.16467	126142890
0.16533	129934529
0.16600	133574164
0.16667	137055928
0.16733	140374959
0.16800	143527253
0.16867	146509540
0.16933	149319391
0.17000	151954889
0.17067	154414722
0.17133	156698113
0.17200	158805757
0.17267	160739529
0.17333	162501738
0.17400	164093937
0.17467	165517428
0.17533	166773461
0.17600	167863823
0.17667	168790736
0.17733	169557134
0.17800	170166457
0.17867	170622707
0.17933	170930016
0.18000	171092828
0.18067	171115699
0.18133	171003420
0.18200	170760825
0.18267	170392773
0.18333	169904244
0.18400	169300225
0.18467	168585829
0.18533	167766116
0.18600	166846095
0.18667	165830718
0.18733	164724982
0.18800	163533840
0.18867	162262284
0.18933	160915135
0.19000	159497152
0.19067	158012884
0.19133	156466803
0.19200	154863211
0.19267	153206360
0.19333	151500321
0.19400	149749064
0.19467	147956454
0.19533	146126308
0.19600	144262299
0.19667	142367970
0.19733	140446713
0.19800	138501802
0.19867	136536386
0.19933	134553525
0.20000	132556178
0.20067	130547148
0.20133	128529131
0.20200	126504773
0.20267	124476727
0.20333	122447707
0.20400	120420399
0.20467	118397177
0.20533	116379965
0.20600	114370258
0.20667	112369273
0.20733	110378021
0.20800	108397452
0.20867	106428445
0.20933	104471907
0.21000	102528720
0.21067	100599771
0.21133	98685931
0.21200	96788072
0.21267	94907030
0.21333	93043599
0.21400	91198537
0.21467	89372555
0.21533	87566307
0.21600	85780399
0.21667	84015396
0.21733	82271812
0.21800	80550110
0.21867	78850697
0.21933	77173935
0.22000	75520138
0.22067	73889587
0.22133	72282514
0.22200	70699121
0.22267	69139567
0.22333	67603986
0.22400	66092477
0.22467	64605115
0.22533	63141946
0.22600	61702994
0.22667	60288254
0.22733	58897708
0.22800	57531304
0.22867	56188976
0.22933	54870642
0.23000	53576200
0.23067	52305532
0.23133	51058503
0.23200	49834963
0.23267	48634747
0.23333	47457679
0.23400	46303574
0.23467	45172239
0.23533	44063468
0.23600	42977050
0.23667	41912760
0.23733	40870371
0.23800	39849641
0.23867	38850321
0.23933	37872156
0.24000	36914890
0.24067	35978259
0.24133	35061991
0.24200	34165811
0.24267	33289439
0.24333	32432592
0.24400	31594985
0.24467	30776330
0.24533	29976337
0.24600	29194710
0.24667	28431156
0.24733	27685378
0.24800	26957084
0.24867	26245979
0.24933	25551767
0.25000	24874155
0.25067	24212850
0.25133	23567563
0.25200	22938006
0.25267	22323894
0.25333	21724948
0.25400	21140897
0.25467	20571464
0.25533	20016376
0.25600	19475363
0.25667	18948156
0.25733	18434486
0.25800	17934087
0.25867	17446691
0.25933	16972029
0.26000	16509833
0.26067	16059835
0.26133	15621770
0.26200	15195372
0.26267	14780377
0.26333	14376522
0.26400	13983548
0.26467	13601196
0.26533	13229210
0.26600	12867336
0.26667	12515327
0.26733	12172938
0.26800	11839932
0.26867	11516071
0.26933	11201127
0.27000	10894871
0.27067	10597082
0.27133	10307541
0.27200	10026034
0.27267	9752351
0.27333	9486286
0.27400	9227637
0.27467	8976207
0.27533	8731803
0.27600	8494237
0.27667	8263324
0.27733	8038886
0.27800	7820745
0.27867	7608730
0.27933	7402677
0.28000	7202421
0.28067	7007803
0.28133	6818669
0.28200	6634866
0.28267	6456250
0.28333	6282676
0.28400	6114006
0.28467	5950104
0.28533	5790838
0.28600	5636079
0.28667	5485703
0.28733	5339586
0.28800	5197611
0.28867	5059663
0.28933	4925630
0.29000	4795404
0.29067	4668880
0.29133	4545955
0.29200	4426529
0.29267	4310506
0.29333	4197791
0.29400	4088292
0.29467	3981920
0.29533	3878586
0.29600	3778205
0.29667	3680694
0.29733	3585972
0.29800	3493960
0.29867	3404582
0.29933	3317762
0.30000	3233428
0.30067	3151509
0.30133	3071934
0.30200	2994637
0.30267	2919551
0.30333	2846613
0.30400	2775760
0.30467	2706933
0.30533	2640071
0.30600	2575119
0.30667	2512021
0.30733	2450723
0.30800	2391173
0.30867	2333320
0.30933	2277116
0.31000	2222513
0.31067	2169463
0.31133	2117922
0.31200	2067846
0.31267	2019193
0.31333	1971921
0.31400	1925992
0.31467	1881367
0.31533	1838009
0.31600	1795883
0.31667	1754954
0.31733	1715191
0.31800	1676560
0.31867	1639033
0.31933	1602579
0.32000	1567171
0.32067	1532781
0.32133	1499384
0.32200	1466955
0.32267	1435471
0.32333	1404907
0.32400	1375241
0.32467	1346451
0.32533	1318516
0.32600	1291416
0.32667	1265131
0.32733	1239642
0.32800	1214932
0.32867	1190986
0.32933	1167788
0.33000	1145324
0.33067	1123581
0.33133	1102546
0.33200	1082211
0.33267	1062563
0.33333	1043595
0.33400	1025296
0.33467	1007657
0.33533	990670
0.33600	974329
0.33667	958626
0.33733	943556
0.33800	929111
0.33867	915286
0.33933	902077
0.34000	889479
0.34067	877489
0.34133	866105
0.34200	855322
0.34267	845139
0.34333	835551
0.34400	826558
0.34467	818162
0.34533	810368
0.34600	803184
0.34667	796625
0.34733	790707
0.34800	785452
0.34867	780876
0.34933	776995
0.35000	773817
0.35067	771342
0.35133	769564
0.35200	768468
0.35267	768032
0.35333	768229
0.35400	769030
0.35467	770404
0.35533	772318
0.35600	774738
0.35667	777631
0.35733	780965
0.35800	784705
0.35867	788820
0.35933	793278
0.36000	798048
0.36067	803102
0.36133	808410
0.36200	813943
0.36267	819673
0.36333	825575
0.36400	831622
0.36467	837789
0.36533	844055
0.36600	850398
0.36667	856804
0.36733	863255
0.36800	869739
0.36867	876243
0.36933	882754
0.37000	889262
0.37067	895757
0.37133	902229
0.37200	908669
0.37267	915069
0.37333	921422
0.37400	927722
0.37467	933961
0.37533	940134
0.37600	946234
0.37667	952253
0.37733	958186
0.37800	964028
0.37867	969775
0.37933	975428
0.38000	980987
0.38067	986453
0.38133	991831
0.38200	997124
0.38267	1002339
0.38333	1007479
0.38400	1012546
0.38467	1017541
0.38533	1022462
0.38600	1027304
0.38667	1032063
0.38733	1036730
0.38800	1041297
0.38867	1045760
0.38933	1050111
0.39000	1054346
0.39067	1058460
0.39133	1062447
0.39200	1066306
0.39267	1070034
0.39333	1073631
0.39400	1077097
0.39467	1080429
0.39533	1083627
0.39600	1086692
0.39667	1089621
0.39733	1092414
0.39800	1095070
0.39867	1097584
0.39933	1099949
0.40000	1102158
0.40067	1104200
0.40133	1106063
0.40200	1107730
0.40267	1109186
0.40333	1110413
0.40400	1111393
0.40467	1112110
0.40533	1112545
0.40600	1112679
0.40667	1112494
0.40733	1111969
0.40800	1111083
0.40867	1109818
0.40933	1108150
0.41000	1106058
0.41067	1103519
0.41133	1100510
0.41200	1097010
0.41267	1092998
0.41333	1088454
0.41400	1083359
0.41467	1077701
0.41533	1071468
0.41600	1064657
0.41667	1057269
0.41733	1049313
0.41800	1040801
0.41867	1031754
0.41933	1022195
0.42000	1012151
0.42067	1001651
0.42133	990727
0.42200	979412
0.42267	967737
0.42333	955737
0.42400	943443
0.42467	930888
0.42533	918101
0.42600	905113
0.42667	891953
0.42733	878647
0.42800	865221
0.42867	851701
0.42933	838110
0.43000	824469
0.43067	810801
0.43133	797123
0.43200	783455
0.43267	769813
0.43333	756213
0.43400	742670
0.43467	729196
0.43533	715806
0.43600	702509
0.43667	689319
0.43733	676243
0.43800	663293
0.43867	650474
0.43933	637797
0.44000	625265
0.44067	612887
0.44133	600667
0.44200	588610
0.44267	576719
0.44333	565000
0.44400	553454
0.44467	542084
0.44533	530892
0.44600	519881
0.44667	509052
0.44733	498407
0.44800	487947
0.44867	477675
0.44933	467589
0.45000	457692
0.45067	447983
0.45133	438462
0.45200	429129
0.45267	419984
0.45333	411025
0.45400	402252
0.45467	393664
0.45533	385258
0.45600	377035
0.45667	368991
0.45733	361127
0.45800	353439
0.45867	345926
0.45933	338587
0.46000	331419
0.46067	324422
0.46133	317593
0.46200	310930
0.46267	304433
0.46333	298100
0.46400	291929
0.46467	285918
0.46533	280067
0.46600	274374
0.46667	268838
0.46733	263456
0.46800	258227
0.46867	253146
0.46933	248211
0.47000	243417
0.47067	238760
0.47133	234238
0.47200	229847
0.47267	225582
0.47333	221442
0.47400	217422
0.47467	213518
0.47533	209728
0.47600	206048
0.47667	202474
0.47733	199004
0.47800	195633
0.47867	192360
0.47933	189181
0.48000	186093
0.48067	183093
0.48133	180179
0.48200	177348
0.48267	174597
0.48333	171924
0.48400	169326
0.48467	166801
0.48533	164347
0.48600	161961
0.48667	159641
0.48733	157385
0.48800	155191
0.48867	153057
0.48933	150981
0.49000	148961
0.49067	146995
0.49133	145080
0.49200	143216
0.49267	141401
0.49333	139632
0.49400	137909
0.49467	136229
0.49533	134592
0.49600	132995
0.49667	131438
0.49733	129919
0.49800	128436
0.49867	126988
0.49933	125575
0.50000	124194
0.50067	122846
0.50133	121528
0.50200	120240
0.50267	118980
0.50333	117749
0.50400	116544
0.50467	115365
0.50533	114211
0.50600	113081
0.50667	111974
0.50733	110890
0.50800	109828
0.50867	108787
0.50933	107767
0.51000	106766
0.51067	105785
0.51133	104822
0.51200	103877
0.51267	102950
0.51333	102039
0.51400	101145
0.51467	100266
0.51533	99403
0.51600	98555
0.51667	97720
0.51733	96900
0.51800	96093
0.51867	95299
0.51933	94519
0.52000	93750
0.52067	92993
0.52133	92247
0.52200	91513
0.52267	90790
0.52333	90078
0.52400	89376
0.52467	88683
0.52533	88001
0.52600	87328
0.52667	86665
0.52733	86010
0.52800	85365
0.52867	84728
0.52933	84099
0.53000	83478
0.53067	82866
0.53133	82261
0.53200	81663
0.53267	81073
0.53333	80490
0.53400	79914
0.53467	79345
0.53533	78783
0.53600	78227
0.53667	77677
0.53733	77134
0.53800	76597
0.53867	76066
0.53933	75541
0.54000	75022
0.54067	74508
0.54133	74001
0.54200	73498
0.54267	73001
0.54333	72509
0.54400	72023
0.54467	71541
0.54533	71065
0.54600	70594
0.54667	70128
0.54733	69667
0.54800	69211
0.54867	68760
0.54933	68313
0.55000	67872
0.55067	67436
0.55133	67005
0.55200	66578
0.55267	66157
0.55333	65740
0.55400	65328
0.55467	64921
0.55533	64519
0.55600	64122
0.55667	63729
0.55733	63341
0.55800	62958
0.55867	62579
0.55933	62204
0.56000	61833
0.56067	61467
0.56133	61104
0.56200	60745
0.56267	60390
0.56333	60039
0.56400	59690
0.56467	59346
0.56533	59004
0.56600	58665
0.56667	58329
0.56733	57996
0.56800	57666
0.56867	57338
0.56933	57013
0.57000	56690
0.57067	56370
0.57133	56052
0.57200	55737
0.57267	55424
0.57333	55113
0.57400	54805
0.57467	54498
0.57533	54195
0.57600	53893
0.57667	53593
0.57733	53296
0.57800	53000
0.57867	52707
0.57933	52416
0.58000	52127
0.58067	51840
0.58133	51554
0.58200	51271
0.58267	50989
0.58333	50710
0.58400	50432
0.58467	50156
0.58533	49882
0.58600	49610
0.58667	49340
0.58733	49072
0.58800	48806
0.58867	48541
0.58933	48278
0.59000	48017
0.59067	47758
0.59133	47501
0.59200	47246
0.59267	46992
0.59333	46741
0.59400	46491
0.59467	46243
0.59533	45998
0.59600	45754
0.59667	45511
0.59733	45271
0.59800	45033
0.59867	44797
0.59933	44562
0.60000	44329
0.60067	44099
0.60133	43870
0.60200	43643
0.60267	43417
0.60333	43194
0.60400	42973
0.60467	42753
0.60533	42535
0.60600	42319
0.60667	42105
0.60733	41893
0.60800	41683
0.60867	41474
0.60933	41268
0.61000	41063
0.61067	40860
0.61133	40659
0.61200	40461
0.61267	40264
0.61333	40069
0.61400	39876
0.61467	39685
0.61533	39496
0.61600	39309
0.61667	39124
0.61733	38940
0.61800	38759
0.61867	38580
0.61933	38402
0.62000	38226
0.62067	38052
0.62133	37880
0.62200	37710
0.62267	37541
0.62333	37374
0.62400	37208
0.62467	37043
0.62533	36881
0.62600	36719
0.62667	36559
0.62733	36400
0.62800	36242
0.62867	36086
0.62933	35931
0.63000	35777
0.63067	35625
0.63133	35473
0.63200	35323
0.63267	35174
0.63333	35026
0.63400	34879
0.63467	34733
0.63533	34589
0.63600	34445
0.63667	34303
0.63733	34162
0.63800	34023
0.63867	33884
0.63933	33747
0.64000	33611
0.64067	33476
0.64133	33343
0.64200	33211
0.64267	33080
0.64333	32950
0.64400	32821
0.64467	32694
0.64533	32568
0.64600	32443
0.64667	32319
0.64733	32197
0.64800	32076
0.64867	31955
0.64933	31836
0.65000	31717
0.65067	31600
0.65133	31483
0.65200	31367
0.65267	31252
0.65333	31137
0.65400	31023
0.65467	30910
0.65533	30797
0.65600	30684
0.65667	30572
0.65733	30460
0.65800	30349
0.65867	30238
0.65933	30128
0.66000	30017
0.66067	29908
0.66133	29798
0.66200	29689
0.66267	29579
0.66333	29471
0.66400	29362
0.66467	29254
0.66533	29146
0.66600	29038
0.66667	28931
0.66733	28823
0.66800	28717
0.66867	28610
0.66933	28504
0.67000	28398
0.67067	28292
0.67133	28187
0.67200	28082
0.67267	27977
0.67333	27873
0.67400	27769
0.67467	27666
0.67533	27563
0.67600	27460
0.67667	27358
0.67733	27257
0.67800	27156
0.67867	27056
0.67933	26956
0.68000	26858
0.68067	26760
0.68133	26663
0.68200	26568
0.68267	26473
0.68333	26380
0.68400	26288
0.68467	26197
0.68533	26108
0.68600	26021
0.68667	25936
0.68733	25853
0.68800	25772
0.68867	25694
0.68933	25619
0.69000	25546
0.69067	25477
0.69133	25410
0.69200	25348
0.69267	25289
0.69333	25234
0.69400	25182
0.69467	25135
0.69533	25093
0.69600	25054
0.69667	25020
0.69733	24990
0.69800	24964
0.69867	24943
0.69933	24925
0.70000	24910
0.70067	24900
0.70133	24892
0.70200	24887
0.70267	24884
0.70333	24882
0.70400	24883
0.70467	24884
0.70533	24885
0.70600	24887
0.70667	24888
0.70733	24888
0.70800	24886
0.70867	24883
0.70933	24877
0.71000	24870
0.71067	24859
0.71133	24845
0.71200	24828
0.71267	24808
0.71333	24784
0.71400	24757
0.71467	24726
0.71533	24692
0.71600	24654
0.71667	24613
0.71733	24569
0.71800	24521
0.71867	24470
0.71933	24416
0.72000	24360
0.72067	24300
0.72133	24239
0.72200	24175
0.72267	24108
0.72333	24040
0.72400	23969
0.72467	23897
0.72533	23823
0.72600	23747
0.72667	23670
0.72733	23592
0.72800	23513
0.72867	23433
0.72933	23352
0.73000	23269
0.73067	23187
0.73133	23103
0.73200	23020
0.73267	22935
0.73333	22851
0.73400	22766
0.73467	22681
0.73533	22595
0.73600	22510
0.73667	22424
0.73733	22339
0.73800	22253
0.73867	22168
0.73933	22083
0.74000	21998
0.74067	21914
0.74133	21829
0.74200	21746
0.74267	21662
0.74333	21579
0.74400	21496
0.74467	21414
0.74533	21332
0.74600	21251
0.74667	21170
0.74733	21089
0.74800	21009
0.74867	20930
0.74933	20851
0.75000	20773
0.75067	20695
0.75133	20618
0.75200	20542
0.75267	20466
0.75333	20391
0.75400	20316
0.75467	20242
0.75533	20169
0.75600	20096
0.75667	20024
0.75733	19952
0.75800	19881
0.75867	19811
0.75933	19741
0.76000	19672
0.76067	19604
0.76133	19536
0.76200	19469
0.76267	19403
0.76333	19337
0.76400	19271
0.76467	19207
0.76533	19143
0.76600	19079
0.76667	19017
0.76733	18955
0.76800	18893
0.76867	18832
0.76933	18772
0.77000	18713
0.77067	18654
0.77133	18595
0.77200	18538
0.77267	18480
0.77333	18424
0.77400	18368
0.77467	18312
0.77533	18257
0.77600	18203
0.77667	18149
0.77733	18096
0.77800	18043
0.77867	17991
0.77933	17939
0.78000	17888
0.78067	17837
0.78133	17787
0.78200	17737
0.78267	17688
0.78333	17639
0.78400	17590
0.78467	17543
0.78533	17495
0.78600	17448
0.78667	17402
0.78733	17356
0.78800	17310
0.78867	17265
0.78933	17220
0.79000	17176
0.79067	17132
0.79133	17088
0.79200	17045
0.79267	17002
0.79333	16960
0.79400	16918
0.79467	16876
0.79533	16835
0.79600	16794
0.79667	16754
0.79733	16713
0.79800	16674
0.79867	16634
0.79933	16595
0.80000	16556
0.80067	16518
0.80133	16479
0.80200	16442
0.80267	16404
0.80333	16367
0.80400	16330
0.80467	16293
0.80533	16257
0.80600	16221
0.80667	16185
0.80733	16149
0.80800	16114
0.80867	16079
0.80933	16044
0.81000	16010
0.81067	15976
0.81133	15942
0.81200	15909
0.81267	15876
0.81333	15843
0.81400	15810
0.81467	15778
0.81533	15746
0.81600	15715
0.81667	15683
0.81733	15652
0.81800	15622
0.81867	15591
0.81933	15561
0.82000	15532
0.82067	15502
0.82133	15473
0.82200	15444
0.82267	15416
0.82333	15387
0.82400	15359
0.82467	15332
0.82533	15304
0.82600	15277
0.82667	15250
0.82733	15223
0.82800	15196
0.82867	15170
0.82933	15144
0.83000	15118
0.83067	15092
0.83133	15066
0.83200	15041
0.83267	15015
0.83333	14990
0.83400	14965
0.83467	14940
0.83533	14915
0.83600	14890
0.83667	14866
0.83733	14841
0.83800	14817
0.83867	14792
0.83933	14768
0.84000	14744
0.84067	14720
0.84133	14696
0.84200	14673
0.84267	14649
0.84333	14626
0.84400	14602
0.84467	14579
0.84533	14556
0.84600	14532
0.84667	14509
0.84733	14486
0.84800	14463
0.84867	14440
0.84933	14417
0.85000	14395
0.85067	14372
0.85133	14349
0.85200	14326
0.85267	14304
0.85333	14281
0.85400	14259
0.85467	14236
0.85533	14213
0.85600	14191
0.85667	14168
0.85733	14146
0.85800	14124
0.85867	14101
0.85933	14079
0.86000	14057
0.86067	14035
0.86133	14012
0.86200	13990
0.86267	13968
0.86333	13946
0.86400	13923
0.86467	13901
0.86533	13879
0.86600	13857
0.86667	13835
0.86733	13813
0.86800	13791
0.86867	13770
0.86933	13748
0.87000	13727
0.87067	13705
0.87133	13684
0.87200	13663
0.87267	13641
0.87333	13620
0.87400	13599
0.87467	13578
0.87533	13558
0.87600	13537
0.87667	13516
0.87733	13496
0.87800	13475
0.87867	13455
0.87933	13435
0.88000	13415
0.88067	13394
0.88133	13374
0.88200	13354
0.88267	13335
0.88333	13315
0.88400	13295
0.88467	13276
0.88533	13256
0.88600	13237
0.88667	13218
0.88733	13199
0.88800	13179
0.88867	13161
0.88933	13142
0.89000	13123
0.89067	13104
0.89133	13086
0.89200	13067
0.89267	13049
0.89333	13031
0.89400	13013
0.89467	12995
0.89533	12977
0.89600	12959
0.89667	12941
0.89733	12924
0.89800	12906
0.89867	12889
0.89933	12872
0.90000	12855
0.90067	12837
0.90133	12820
0.90200	12804
0.90267	12787
0.90333	12770
0.90400	12753
0.90467	12736
0.90533	12720
0.90600	12703
0.90667	12687
0.90733	12670
0.90800	12654
0.90867	12638
0.90933	12621
0.91000	12605
0.91067	12589
0.91133	12573
0.91200	12557
0.91267	12541
0.91333	12525
0.91400	12509
0.91467	12494
0.91533	12478
0.91600	12463
0.91667	12447
0.91733	12432
0.91800	12417
0.91867	12401
0.91933	12386
0.92000	12371
0.92067	12356
0.92133	12341
0.92200	12326
0.92267	12311
0.92333	12296
0.92400	12281
0.92467	12266
0.92533	12252
0.92600	12237
0.92667	12222
0.92733	12208
0.92800	12194
0.92867	12179
0.92933	12165
0.93000	12150
0.93067	12136
0.93133	12122
0.93200	12108
0.93267	12094
0.93333	12080
0.93400	12066
0.93467	12052
0.93533	12038
0.93600	12024
0.93667	12010
0.93733	11996
0.93800	11982
0.93867	11969
0.93933	11955
0.94000	11941
0.94067	11927
0.94133	11914
0.94200	11900
0.94267	11886
0.94333	11873
0.94400	11859
0.94467	11845
0.94533	11832
0.94600	11818
0.94667	11805
0.94733	11791
0.94800	11777
0.94867	11764
0.94933	11750
0.95000	11737
0.95067	11723
0.95133	11710
0.95200	11697
0.95267	11683
0.95333	11670
0.95400	11657
0.95467	11644
0.95533	11631
0.95600	11618
0.95667	11605
0.95733	11592
0.95800	11580
0.95867	11567
0.95933	11555
0.96000	11543
0.96067	11530
0.96133	11518
0.96200	11506
0.96267	11495
0.96333	11483
0.96400	11471
0.96467	11460
0.96533	11449
0.96600	11437
0.96667	11426
0.96733	11415
0.96800	11404
0.96867	11393
0.96933	11382
0.97000	11371
0.97067	11360
0.97133	11349
0.97200	11338
0.97267	11327
0.97333	11316
0.97400	11305
0.97467	11294
0.97533	11283
0.97600	11272
0.97667	11261
0.97733	11250
0.97800	11239
0.97867	11227
0.97933	11216
0.98000	11204
0.98067	11193
0.98133	11181
0.98200	11170
0.98267	11158
0.98333	11146
0.98400	11134
0.98467	11122
0.98533	11110
0.98600	11098
0.98667	11086
0.98733	11073
0.98800	11061
0.98867	11049
0.98933	11036
0.99000	11024
0.99067	11011
0.99133	10999
0.99200	10986
0.99267	10974
0.99333	10961
0.99400	10948
0.99467	10936
0.99533	10924
0.99600	10911
0.99667	10899
0.99733	10886
0.99800	10874
0.99867	10861
0.99933	10849
1.00000	10837
1.00067	10825
1.00133	10812
1.00200	10800
1.00267	10788
1.00333	10776
1.00400	10764
1.00467	10752
1.00533	10740
1.00600	10728
1.00667	10717
1.00733	10705
1.00800	10693
1.00867	10682
1.00933	10670
1.01000	10659
1.01067	10647
1.01133	10636
1.01200	10625
1.01267	10614
1.01333	10603
1.01400	10592
1.01467	10581
1.01533	10570
1.01600	10560
1.01667	10549
1.01733	10539
1.01800	10529
1.01867	10519
1.01933	10509
1.02000	10499
1.02067	10490
1.02133	10480
1.02200	10471
1.02267	10462
1.02333	10453
1.02400	10444
1.02467	10436
1.02533	10427
1.02600	10419
1.02667	10411
1.02733	10403
1.02800	10395
1.02867	10387
1.02933	10379
1.03000	10372
1.03067	10364
1.03133	10357
1.03200	10350
1.03267	10342
1.03333	10335
1.03400	10328
1.03467	10321
1.03533	10313
1.03600	10306
1.03667	10299
1.03733	10292
1.03800	10284
1.03867	10277
1.03933	10269
1.04000	10262
1.04067	10254
1.04133	10247
1.04200	10239
1.04267	10232
1.04333	10224
1.04400	10216
1.04467	10208
1.04533	10200
1.04600	10192
1.04667	10184
1.04733	10176
1.04800	10168
1.04867	10159
1.04933	10151
1.05000	10143
1.05067	10134
1.05133	10126
1.05200	10118
1.05267	10109
1.05333	10101
1.05400	10092
1.05467	10084
1.05533	10075
1.05600	10066
1.05667	10058
1.05733	10049
1.05800	10040
1.05867	10031
1.05933	10022
1.06000	10014
1.06067	10005
1.06133	9996
1.06200	9987
1.06267	9978
1.06333	9969
1.06400	9960
1.06467	9951
1.06533	9942
1.06600	9933
1.06667	9924
1.06733	9915
1.06800	9906
1.06867	9897
1.06933	9888
1.07000	9879
1.07067	9870
1.07133	9861
1.07200	9852
1.07267	9843
1.07333	9835
1.07400	9826
1.07467	9817
1.07533	9808
1.07600	9800
1.07667	9791
1.07733	9782
1.07800	9774
1.07867	9765
1.07933	9757
1.08000	9748
1.08067	9739
1.08133	9731
1.08200	9722
1.08267	9714
1.08333	9705
1.08400	9697
1.08467	9688
1.08533	9680
1.08600	9671
1.08667	9663
1.08733	9654
1.08800	9646
1.08867	9637
1.08933	9629
1.09000	9621
1.09067	9612
1.09133	9604
1.09200	9596
1.09267	9587
1.09333	9579
1.09400	9571
1.09467	9563
1.09533	9554
1.09600	9546
1.09667	9538
1.09733	9530
1.09800	9522
1.09867	9514
1.09933	9506
1.10000	9498
1.10067	9490
1.10133	9482
1.10200	9474
1.10267	9466
1.10333	9458
1.10400	9450
1.10467	9442
1.10533	9434
1.10600	9426
1.10667	9418
1.10733	9411
1.10800	9403
1.10867	9395
1.10933	9387
1.11000	9379
1.11067	9371
1.11133	9364
1.11200	9356
1.11267	9348
1.11333	9341
1.11400	9333
1.11467	9325
1.11533	9318
1.11600	9310
1.11667	9303
1.11733	9296
1.11800	9288
1.11867	9281
1.11933	9274
1.12000	9267
1.12067	9259
1.12133	9252
1.12200	9245
1.12267	9238
1.12333	9231
1.12400	9224
1.12467	9218
1.12533	9211
1.12600	9204
1.12667	9198
1.12733	9191
1.12800	9185
1.12867	9178
1.12933	9172
1.13000	9166
1.13067	9160
1.13133	9154
1.13200	9148
1.13267	9142
1.13333	9137
1.13400	9131
1.13467	9126
1.13533	9121
1.13600	9115
1.13667	9111
1.13733	9106
1.13800	9101
1.13867	9097
1.13933	9093
1.14000	9089
1.14067	9085
1.14133	9081
1.14200	9077
1.14267	9073
1.14333	9070
1.14400	9067
1.14467	9063
1.14533	9060
1.14600	9057
1.14667	9054
1.14733	9051
1.14800	9048
1.14867	9045
1.14933	9042
1.15000	9039
1.15067	9036
1.15133	9033
1.15200	9030
1.15267	9027
1.15333	9024
1.15400	9021
1.15467	9018
1.15533	9014
1.15600	9011
1.15667	9008
1.15733	9004
1.15800	9000
1.15867	8997
1.15933	8993
1.16000	8989
1.16067	8985
1.16133	8981
1.16200	8977
1.16267	8973
1.16333	8968
1.16400	8964
1.16467	8960
1.16533	8955
1.16600	8950
1.16667	8946
1.16733	8941
1.16800	8936
1.16867	8931
1.16933	8926
1.17000	8921
1.17067	8916
1.17133	8911
1.17200	8906
1.17267	8901
1.17333	8895
1.17400	8890
1.17467	8885
1.17533	8879
1.17600	8874
1.17667	8869
1.17733	8863
1.17800	8858
1.17867	8852
1.17933	8847
1.18000	8841
1.18067	8836
1.18133	8830
1.18200	8825
1.18267	8819
1.18333	8814
1.18400	8808
1.18467	8803
1.18533	8797
1.18600	8792
1.18667	8786
1.18733	8781
1.18800	8776
1.18867	8770
1.18933	8765
1.19000	8760
1.19067	8755
1.19133	8750
1.19200	8745
1.19267	8740
1.19333	8735
1.19400	8730
1.19467	8725
1.19533	8720
1.19600	8715
1.19667	8711
1.19733	8706
1.19800	8702
1.19867	8697
1.19933	8693
1.20000	8688
1.20067	8684
1.20133	8680
1.20200	8676
1.20267	8672
1.20333	8668
1.20400	8664
1.20467	8660
1.20533	8656
1.20600	8652
1.20667	8649
1.20733	8645
1.20800	8641
1.20867	8638
1.20933	8634
1.21000	8631
1.21067	8628
1.21133	8625
1.21200	8621
1.21267	8618
1.21333	8615
1.21400	8612
1.21467	8609
1.21533	8606
1.21600	8603
1.21667	8600
1.21733	8597
1.21800	8595
1.21867	8592
1.21933	8589
1.22000	8587
1.22067	8584
1.22133	8582
1.22200	8579
1.22267	8577
1.22333	8575
1.22400	8572
1.22467	8570
1.22533	8568
1.22600	8566
1.22667	8564
1.22733	8562
1.22800	8560
1.22867	8558
1.22933	8556
1.23000	8554
1.23067	8552
1.23133	8550
1.23200	8548
1.23267	8547
1.23333	8545
1.23400	8543
1.23467	8541
1.23533	8540
1.23600	8538
1.23667	8537
1.23733	8535
1.23800	8533
1.23867	8532
1.23933	8530
1.24000	8528
1.24067	8527
1.24133	8525
1.24200	8524
1.24267	8522
1.24333	8521
1.24400	8519
1.24467	8518
1.24533	8516
1.24600	8515
1.24667	8514
1.24733	8512
1.24800	8511
1.24867	8510
1.24933	8509
1.25000	8507
1.25067	8506
1.25133	8505
1.25200	8504
1.25267	8503
1.25333	8502
1.25400	8502
1.25467	8501
1.25533	8500
1.25600	8500
1.25667	8499
1.25733	8499
1.25800	8498
1.25867	8498
1.25933	8498
1.26000	8498
1.26067	8498
1.26133	8498
1.26200	8498
1.26267	8499
1.26333	8500
1.26400	8500
1.26467	8501
1.26533	8502
1.26600	8504
1.26667	8505
1.26733	8507
1.26800	8508
1.26867	8510
1.26933	8513
1.27000	8515
1.27067	8518
1.27133	8521
1.27200	8524
1.27267	8528
1.27333	8532
1.27400	8536
1.27467	8540
1.27533	8545
1.27600	8550
1.27667	8555
1.27733	8561
1.27800	8566
1.27867	8572
1.27933	8579
1.28000	8585
1.28067	8592
1.28133	8600
1.28200	8607
1.28267	8614
1.28333	8622
1.28400	8630
1.28467	8638
1.28533	8646
1.28600	8654
1.28667	8662
1.28733	8670
1.28800	8678
1.28867	8686
1.28933	8694
1.29000	8702
1.29067	8710
1.29133	8717
1.29200	8724
1.29267	8731
1.29333	8738
1.29400	8745
1.29467	8751
1.29533	8757
1.29600	8763
1.29667	8768
1.29733	8773
1.29800	8778
1.29867	8782
1.29933	8786
1.30000	8790
1.30067	8793
1.30133	8795
1.30200	8798
1.30267	8799
1.30333	8801
1.30400	8802
1.30467	8803
1.30533	8803
1.30600	8803
1.30667	8803
1.30733	8803
1.30800	8802
1.30867	8800
1.30933	8799
1.31000	8797
1.31067	8795
1.31133	8793
1.31200	8790
1.31267	8787
1.31333	8784
1.31400	8780
1.31467	8776
1.31533	8773
1.31600	8768
1.31667	8764
1.31733	8759
1.31800	8754
1.31867	8749
1.31933	8744
1.32000	8739
1.32067	8733
1.32133	8727
1.32200	8721
1.32267	8715
1.32333	8709
1.32400	8702
1.32467	8696
1.32533	8689
1.32600	8683
1.32667	8676
1.32733	8669
1.32800	8662
1.32867	8655
1.32933	8648
1.33000	8641
1.33067	8634
1.33133	8626
1.33200	8619
1.33267	8611
1.33333	8604
1.33400	8597
1.33467	8589
1.33533	8581
1.33600	8574
1.33667	8566
1.33733	8558
1.33800	8550
1.33867	8543
1.33933	8535
1.34000	8527
1.34067	8519
1.34133	8511
1.34200	8503
1.34267	8495
1.34333	8487
1.34400	8479
1.34467	8470
1.34533	8462
1.34600	8454
1.34667	8446
1.34733	8438
1.34800	8430
1.34867	8422
1.34933	8414
1.35000	8406
1.35067	8398
1.35133	8390
1.35200	8382
1.35267	8374
1.35333	8366
1.35400	8358
1.35467	8350
1.35533	8342
1.35600	8335
1.35667	8327
1.35733	8319
1.35800	8311
1.35867	8304
1.35933	8296
1.36000	8289
1.36067	8281
1.36133	8274
1.36200	8266
1.36267	8259
1.36333	8252
1.36400	8244
1.36467	8237
1.36533	8230
1.36600	8223
1.36667	8216
1.36733	8209
1.36800	8202
1.36867	8195
1.36933	8188
1.37000	8182
1.37067	8175
1.37133	8169
1.37200	8162
1.37267	8156
1.37333	8150
1.37400	8144
1.37467	8138
1.37533	8133
1.37600	8127
1.37667	8121
1.37733	8116
1.37800	8110
1.37867	8105
1.37933	8099
1.38000	8094
1.38067	8089
1.38133	8084
1.38200	8079
1.38267	8074
1.38333	8069
1.38400	8063
1.38467	8058
1.38533	8053
1.38600	8048
1.38667	8043
1.38733	8038
1.38800	8033
1.38867	8028
1.38933	8024
1.39000	8019
1.39067	8014
1.39133	8009
1.39200	8005
1.39267	8000
1.39333	7995
1.39400	7991
1.39467	7986
1.39533	7982
1.39600	7978
1.39667	7973
1.39733	7969
1.39800	7965
1.39867	7961
1.39933	7956
1.40000	7952
1.40067	7948
1.40133	7944
1.40200	7940
1.40267	7935
1.40333	7931
1.40400	7927
1.40467	7923
1.40533	7919
1.40600	7915
1.40667	7910
1.40733	7906
1.40800	7902
1.40867	7898
1.40933	7893
1.41000	7889
1.41067	7885
1.41133	7881
1.41200	7876
1.41267	7872
1.41333	7868
1.41400	7864
1.41467	7859
1.41533	7855
1.41600	7851
1.41667	7846
1.41733	7842
1.41800	7838
1.41867	7834
1.41933	7830
1.42000	7826
1.42067	7822
1.42133	7818
1.42200	7814
1.42267	7810
1.42333	7806
1.42400	7802
1.42467	7798
1.42533	7795
1.42600	7791
1.42667	7787
1.42733	7784
1.42800	7780
1.42867	7776
1.42933	7773
1.43000	7769
1.43067	7766
1.43133	7762
1.43200	7759
1.43267	7756
1.43333	7752
1.43400	7749
1.43467	7746
1.43533	7742
1.43600	7739
1.43667	7736
1.43733	7733
1.43800	7729
1.43867	7726
1.43933	7723
1.44000	7720
1.44067	7717
1.44133	7714
1.44200	7711
1.44267	7708
1.44333	7705
1.44400	7702
1.44467	7699
1.44533	7696
1.44600	7693
1.44667	7690
1.44733	7687
1.44800	7684
1.44867	7682
1.44933	7679
1.45000	7676
1.45067	7673
1.45133	7671
1.45200	7668
1.45267	7665
1.45333	7662
1.45400	7660
1.45467	7657
1.45533	7654
1.45600	7652
1.45667	7649
1.45733	7647
1.45800	7644
1.45867	7641
1.45933	7639
1.46000	7636
1.46067	7634
1.46133	7631
1.46200	7629
1.46267	7626
1.46333	7624
1.46400	7621
1.46467	7619
1.46533	7616
1.46600	7614
1.46667	7611
1.46733	7609
1.46800	7606
1.46867	7603
1.46933	7601
1.47000	7598
1.47067	7596
1.47133	7593
1.47200	7590
1.47267	7588
1.47333	7585
1.47400	7582
1.47467	7580
1.47533	7577
1.47600	7574
1.47667	7572
1.47733	7569
1.47800	7567
1.47867	7564
1.47933	7561
1.48000	7559
1.48067	7556
1.48133	7554
1.48200	7551
1.48267	7549
1.48333	7546
1.48400	7544
1.48467	7541
1.48533	7539
1.48600	7536
1.48667	7534
1.48733	7531
1.48800	7529
1.48867	7526
1.48933	7524
1.49000	7521
1.49067	7519
1.49133	7516
1.49200	7514
1.49267	7511
1.49333	7508
1.49400	7506
1.49467	7503
1.49533	7501
1.49600	7498
1.49667	7495
1.49733	7493
1.49800	7490
1.49867	7488
1.49933	7485
1.50000	7482
1.50067	7480
1.50133	7477
1.50200	7474
1.50267	7472
1.50333	7469
1.50400	7467
1.50467	7464
1.50533	7461
1.50600	7459
1.50667	7456
1.50733	7454
1.50800	7451
1.50867	7448
1.50933	7446
1.51000	7443
1.51067	7440
1.51133	7438
1.51200	7435
1.51267	7432
1.51333	7429
1.51400	7427
1.51467	7424
1.51533	7421
1.51600	7419
1.51667	7416
1.51733	7413
1.51800	7411
1.51867	7408
1.51933	7405
1.52000	7403
1.52067	7400
1.52133	7398
1.52200	7395
1.52267	7392
1.52333	7390
1.52400	7387
1.52467	7385
1.52533	7382
1.52600	7379
1.52667	7377
1.52733	7374
1.52800	7372
1.52867	7369
1.52933	7367
1.53000	7364
1.53067	7362
1.53133	7359
1.53200	7357
1.53267	7354
1.53333	7352
1.53400	7350
1.53467	7348
1.53533	7345
1.53600	7343
1.53667	7341
1.53733	7339
1.53800	7337
1.53867	7335
1.53933	7333
1.54000	7331
1.54067	7329
1.54133	7326
1.54200	7324
1.54267	7322
1.54333	7320
1.54400	7318
1.54467	7316
1.54533	7314
1.54600	7312
1.54667	7310
1.54733	7308
1.54800	7306
1.54867	7304
1.54933	7302
1.55000	7300
1.55067	7298
1.55133	7296
1.55200	7294
1.55267	7292
1.55333	7290
1.55400	7288
1.55467	7286
1.55533	7283
1.55600	7281
1.55667	7279
1.55733	7277
1.55800	7274
1.55867	7272
1.55933	7270
1.56000	7268
1.56067	7265
1.56133	7263
1.56200	7261
1.56267	7258
1.56333	7256
1.56400	7254
1.56467	7251
1.56533	7249
1.56600	7247
1.56667	7244
1.56733	7242
1.56800	7240
1.56867	7238
1.56933	7235
1.57000	7233
1.57067	7231
1.57133	7228
1.57200	7226
1.57267	7224
1.57333	7222
1.57400	7220
1.57467	7217
1.57533	7215
1.57600	7213
1.57667	7211
1.57733	7209
1.57800	7207
1.57867	7206
1.57933	7204
1.58000	7202
1.58067	7200
1.58133	7199
1.58200	7197
1.58267	7195
1.58333	7194
1.58400	7192
1.58467	7191
1.58533	7189
1.58600	7188
1.58667	7186
1.58733	7185
1.58800	7183
1.58867	7182
1.58933	7181
1.59000	7179
1.59067	7178
1.59133	7177
1.59200	7175
1.59267	7174
1.59333	7172
1.59400	7171
1.59467	7170
1.59533	7168
1.59600	7167
1.59667	7165
1.59733	7164
1.59800	7162
1.59867	7161
1.59933	7159
1.60000	7158
1.60067	7156
1.60133	7155
1.60200	7153
1.60267	7151
1.60333	7150
1.60400	7148
1.60467	7147
1.60533	7145
1.60600	7143
1.60667	7141
1.60733	7140
1.60800	7138
1.60867	7136
1.60933	7135
1.61000	7133
1.61067	7131
1.61133	7130
1.61200	7128
1.61267	7126
1.61333	7125
1.61400	7123
1.61467	7122
1.61533	7120
1.61600	7119
1.61667	7117
1.61733	7116
1.61800	7114
1.61867	7113
1.61933	7112
1.62000	7111
1.62067	7109
1.62133	7108
1.62200	7107
1.62267	7106
1.62333	7105
1.62400	7104
1.62467	7103
1.62533	7102
1.62600	7101
1.62667	7100
1.62733	7099
1.62800	7098
1.62867	7097
1.62933	7096
1.63000	7095
1.63067	7094
1.63133	7094
1.63200	7093
1.63267	7092
1.63333	7091
1.63400	7090
1.63467	7090
1.63533	7089
1.63600	7088
1.63667	7088
1.63733	7087
1.63800	7087
1.63867	7086
1.63933	7086
1.64000	7085
1.64067	7085
1.64133	7084
1.64200	7083
1.64267	7083
1.64333	7082
1.64400	7081
1.64467	7081
1.64533	7080
1.64600	7079
1.64667	7079
1.64733	7078
1.64800	7077
1.64867	7076
1.64933	7075
1.65000	7074
1.65067	7074
1.65133	7073
1.65200	7072
1.65267	7071
1.65333	7070
1.65400	7069
1.65467	7068
1.65533	7067
1.65600	7066
1.65667	7065
1.65733	7064
1.65800	7063
1.65867	7062
1.65933	7061
1.66000	7061
1.66067	7060
1.66133	7059
1.66200	7058
1.66267	7057
1.66333	7056
1.66400	7055
1.66467	7054
1.66533	7053
1.66600	7052
1.66667	7051
1.66733	7050
1.66800	7048
1.66867	7047
1.66933	7046
1.67000	7045
1.67067	7044
1.67133	7043
1.67200	7042
1.67267	7041
1.67333	7040
1.67400	7039
1.67467	7038
1.67533	7037
1.67600	7036
1.67667	7035
1.67733	7034
1.67800	7033
1.67867	7032
1.67933	7031
1.68000	7030
1.68067	7029
1.68133	7028
1.68200	7027
1.68267	7026
1.68333	7024
1.68400	7023
1.68467	7022
1.68533	7020
1.68600	7019
1.68667	7018
1.68733	7016
1.68800	7015
1.68867	7013
1.68933	7012
1.69000	7011
1.69067	7009
1.69133	7008
1.69200	7006
1.69267	7005
1.69333	7003
1.69400	7002
1.69467	7000
1.69533	6999
1.69600	6997
1.69667	6995
1.69733	6994
1.69800	6992
1.69867	6990
1.69933	6989
1.70000	6987
1.70067	6985
1.70133	6984
1.70200	6982
1.70267	6980
1.70333	6979
1.70400	6977
1.70467	6975
1.70533	6974
1.70600	6972
1.70667	6971
1.70733	6969
1.70800	6968
1.70867	6966
1.70933	6965
1.71000	6964
1.71067	6963
1.71133	6961
1.71200	6960
1.71267	6959
1.71333	6958
1.71400	6957
1.71467	6956
1.71533	6956
1.71600	6955
1.71667	6954
1.71733	6954
1.71800	6955
1.71867	6955
1.71933	6957
1.72000	6959
1.72067	6962
1.72133	6966
1.72200	6971
1.72267	6979
1.72333	6988
1.72400	7000
1.72467	7016
1.72533	7035
1.72600	7058
1.72667	7087
1.72733	7123
1.72800	7166
1.72867	7219
1.72933	7282
1.73000	7357
1.73067	7448
1.73133	7555
1.73200	7682
1.73267	7832
1.73333	8007
1.73400	8212
1.73467	8451
1.73533	8728
1.73600	9048
1.73667	9416
1.73733	9838
1.73800	10320
1.73867	10869
1.73933	11491
1.74000	12195
1.74067	12987
1.74133	13876
1.74200	14869
1.74267	15974
1.74333	17198
1.74400	18550
1.74467	20038
1.74533	21670
1.74600	23455
1.74667	25400
1.74733	27513
1.74800	29802
1.74867	32271
1.74933	34927
1.75000	37772
1.75067	40811
1.75133	44047
1.75200	47485
1.75267	51126
1.75333	54972
1.75400	59021
1.75467	63272
1.75533	67720
1.75600	72358
1.75667	77180
1.75733	82176
1.75800	87337
1.75867	92651
1.75933	98103
1.76000	103678
1.76067	109356
1.76133	115116
1.76200	120937
1.76267	126798
1.76333	132675
1.76400	138547
1.76467	144387
1.76533	150173
1.76600	155879
1.76667	161481
1.76733	166958
1.76800	172285
1.76867	177440
1.76933	182405
1.77000	187161
1.77067	191693
1.77133	195985
1.77200	200027
1.77267	203807
1.77333	207316
1.77400	210545
1.77467	213489
1.77533	216142
1.77600	218501
1.77667	220568
1.77733	222343
1.77800	223828
1.77867	225028
1.77933	225949
1.78000	226598
1.78067	226983
1.78133	227112
1.78200	226997
1.78267	226646
1.78333	226071
1.78400	225283
1.78467	224293
1.78533	223112
1.78600	221752
1.78667	220225
1.78733	218540
1.78800	216709
1.78867	214744
1.78933	212654
1.79000	210450
1.79067	208140
1.79133	205736
1.79200	203245
1.79267	200677
1.79333	198039
1.79400	195340
1.79467	192586
1.79533	189786
1.79600	186945
1.79667	184069
1.79733	181166
1.79800	178240
1.79867	175297
1.79933	172342
1.80000	169379
1.80067	166412
1.80133	163447
1.80200	160485
1.80267	157532
1.80333	154590
1.80400	151662
1.80467	148751
1.80533	145860
1.80600	142991
1.80667	140145
1.80733	137326
1.80800	134535
1.80867	131773
1.80933	129042
1.81000	126344
1.81067	123679
1.81133	121049
1.81200	118455
1.81267	115897
1.81333	113376
1.81400	110894
1.81467	108450
1.81533	106044
1.81600	103679
1.81667	101352
1.81733	99066
1.81800	96820
1.81867	94614
1.81933	92448
1.82000	90322
1.82067	88237
1.82133	86192
1.82200	84186
1.82267	82221
1.82333	80295
1.82400	78408
1.82467	76561
1.82533	74752
1.82600	72981
1.82667	71248
1.82733	69553
1.82800	67895
1.82867	66274
1.82933	64688
1.83000	63139
1.83067	61625
1.83133	60145
1.83200	58700
1.83267	57289
1.83333	55910
1.83400	54565
1.83467	53252
1.83533	51970
1.83600	50720
1.83667	49500
1.83733	48310
1.83800	47149
1.83867	46018
1.83933	44915
1.84000	43839
1.84067	42791
1.84133	41770
1.84200	40774
1.84267	39805
1.84333	38861
1.84400	37941
1.84467	37045
1.84533	36173
1.84600	35324
1.84667	34497
1.84733	33692
1.84800	32909
1.84867	32147
1.84933	31405
1.85000	30684
1.85067	29981
1.85133	29299
1.85200	28634
1.85267	27988
1.85333	27360
1.85400	26749
1.85467	26154
1.85533	25577
1.85600	25015
1.85667	24469
1.85733	23938
1.85800	23422
1.85867	22921
1.85933	22434
1.86000	21960
1.86067	21500
1.86133	21053
1.86200	20618
1.86267	20196
1.86333	19786
1.86400	19387
1.86467	19000
1.86533	18624
1.86600	18259
1.86667	17904
1.86733	17560
1.86800	17225
1.86867	16900
1.86933	16584
1.87000	16278
1.87067	15980
1.87133	15691
1.87200	15410
1.87267	15138
1.87333	14873
1.87400	14616
1.87467	14367
1.87533	14124
1.87600	13889
1.87667	13661
1.87733	13439
1.87800	13224
1.87867	13015
1.87933	12812
1.88000	12615
1.88067	12424
1.88133	12238
1.88200	12058
1.88267	11883
1.88333	11713
1.88400	11549
1.88467	11389
1.88533	11234
1.88600	11083
1.88667	10937
1.88733	10795
1.88800	10657
1.88867	10523
1.88933	10394
1.89000	10268
1.89067	10146
1.89133	10027
1.89200	9912
1.89267	9801
1.89333	9693
1.89400	9588
1.89467	9486
1.89533	9387
1.89600	9291
1.89667	9198
1.89733	9107
1.89800	9020
1.89867	8935
1.89933	8852
1.90000	8772
1.90067	8695
1.90133	8619
1.90200	8546
1.90267	8475
1.90333	8406
1.90400	8339
1.90467	8274
1.90533	8211
1.90600	8150
1.90667	8090
1.90733	8032
1.90800	7976
1.90867	7921
1.90933	7868
1.91000	7816
1.91067	7766
1.91133	7717
1.91200	7670
1.91267	7623
1.91333	7578
1.91400	7535
1.91467	7492
1.91533	7451
1.91600	7411
1.91667	7372
1.91733	7333
1.91800	7296
1.91867	7260
1.91933	7225
1.92000	7191
1.92067	7157
1.92133	7125
1.92200	7093
1.92267	7062
1.92333	7032
1.92400	7002
1.92467	6974
1.92533	6946
1.92600	6919
1.92667	6892
1.92733	6866
1.92800	6841
1.92867	6817
1.92933	6792
1.93000	6769
1.93067	6746
1.93133	6724
1.93200	6702
1.93267	6681
1.93333	6660
1.93400	6639
1.93467	6620
1.93533	6600
1.93600	6581
1.93667	6563
1.93733	6545
1.93800	6527
1.93867	6510
1.93933	6493
1.94000	6477
1.94067	6461
1.94133	6446
1.94200	6430
1.94267	6415
1.94333	6401
1.94400	6387
1.94467	6373
1.94533	6359
1.94600	6346
1.94667	6333
1.94733	6321
1.94800	6309
1.94867	6297
1.94933	6285
1.95000	6274
1.95067	6263
1.95133	6252
1.95200	6241
1.95267	6231
1.95333	6221
1.95400	6212
1.95467	6203
1.95533	6193
1.95600	6185
1.95667	6176
1.95733	6168
1.95800	6159
1.95867	6152
1.95933	6144
1.96000	6136
1.96067	6129
1.96133	6121
1.96200	6114
1.96267	6107
1.96333	6100
1.96400	6093
1.96467	6087
1.96533	6080
1.96600	6074
1.96667	6068
1.96733	6062
1.96800	6056
1.96867	6050
1.96933	6044
1.97000	6039
1.97067	6033
1.97133	6028
1.97200	6023
1.97267	6017
1.97333	6012
1.97400	6007
1.97467	6002
1.97533	5997
1.97600	5992
1.97667	5988
1.97733	5983
1.97800	5978
1.97867	5974
1.97933	5969
1.98000	5965
1.98067	5961
1.98133	5956
1.98200	5952
1.98267	5948
1.98333	5944
1.98400	5940
1.98467	5937
1.98533	5933
1.98600	5929
1.98667	5926
1.98733	5922
1.98800	5919
1.98867	5915
1.98933	5912
1.99000	5909
1.99067	5905
1.99133	5902
1.99200	5899
1.99267	5896
1.99333	5893
1.99400	5890
1.99467	5887
1.99533	5884
1.99600	5881
1.99667	5878
1.99733	5875
1.99800	5872
1.99867	5870
1.99933	5867
2.00000	5864
2.00067	5861
2.00133	5859
2.00200	5856
2.00267	5853
2.00333	5850
2.00400	5848
2.00467	5845
2.00533	5842
2.00600	5840
2.00667	5837
2.00733	5834
2.00800	5831
2.00867	5829
2.00933	5826
2.01000	5823
2.01067	5820
2.01133	5818
2.01200	5815
2.01267	5812
2.01333	5809
2.01400	5806
2.01467	5803
2.01533	5800
2.01600	5797
2.01667	5794
2.01733	5791
2.01800	5788
2.01867	5785
2.01933	5782
2.02000	5779
2.02067	5776
2.02133	5772
2.02200	5769
2.02267	5766
2.02333	5763
2.02400	5760
2.02467	5757
2.02533	5754
2.02600	5751
2.02667	5748
2.02733	5745
2.02800	5742
2.02867	5739
2.02933	5736
2.03000	5733
2.03067	5730
2.03133	5728
2.03200	5725
2.03267	5722
2.03333	5719
2.03400	5716
2.03467	5713
2.03533	5711
2.03600	5708
2.03667	5705
2.03733	5702
2.03800	5700
2.03867	5697
2.03933	5695
2.04000	5692
2.04067	5689
2.04133	5687
2.04200	5684
2.04267	5682
2.04333	5679
2.04400	5676
2.04467	5674
2.04533	5671
2.04600	5669
2.04667	5666
2.04733	5664
2.04800	5661
2.04867	5659
2.04933	5656
2.05000	5654
2.05067	5652
2.05133	5649
2.05200	5647
2.05267	5645
2.05333	5642
2.05400	5640
2.05467	5638
2.05533	5635
2.05600	5633
2.05667	5631
2.05733	5628
2.05800	5626
2.05867	5623
2.05933	5621
2.06000	5619
2.06067	5616
2.06133	5614
2.06200	5612
2.06267	5610
2.06333	5607
2.06400	5605
2.06467	5603
2.06533	5601
2.06600	5598
2.06667	5596
2.06733	5594
2.06800	5592
2.06867	5589
2.06933	5587
2.07000	5585
2.07067	5583
2.07133	5580
2.07200	5578
2.07267	5576
2.07333	5573
2.07400	5571
2.07467	5569
2.07533	5567
2.07600	5565
2.07667	5563
2.07733	5561
2.07800	5559
2.07867	5557
2.07933	5555
2.08000	5553
2.08067	5550
2.08133	5548
2.08200	5546
2.08267	5544
2.08333	5542
2.08400	5540
2.08467	5539
2.08533	5537
2.08600	5535
2.08667	5533
2.08733	5531
2.08800	5529
2.08867	5528
2.08933	5526
2.09000	5524
2.09067	5522
2.09133	5521
2.09200	5519
2.09267	5517
2.09333	5515
2.09400	5513
2.09467	5511
2.09533	5510
2.09600	5508
2.09667	5506
2.09733	5504
2.09800	5503
2.09867	5501
2.09933	5499
2.10000	5497
2.10067	5495
2.10133	5494
2.10200	5492
2.10267	5490
2.10333	5488
2.10400	5487
2.10467	5485
2.10533	5483
2.10600	5481
2.10667	5480
2.10733	5478
2.10800	5476
2.10867	5474
2.10933	5473
2.11000	5471
2.11067	5469
2.11133	5467
2.11200	5466
2.11267	5464
2.11333	5462
2.11400	5460
2.11467	5459
2.11533	5457
2.11600	5455
2.11667	5453
2.11733	5452
2.11800	5450
2.11867	5448
2.11933	5446
2.12000	5444
2.12067	5443
2.12133	5441
2.12200	5439
2.12267	5437
2.12333	5435
2.12400	5434
2.12467	5432
2.12533	5430
2.12600	5428
2.12667	5427
2.12733	5425
2.12800	5423
2.12867	5421
2.12933	5420
2.13000	5418
2.13067	5416
2.13133	5414
2.13200	5412
2.13267	5411
2.13333	5409
2.13400	5407
2.13467	5405
2.13533	5403
2.13600	5401
2.13667	5399
2.13733	5397
2.13800	5395
2.13867	5394
2.13933	5392
2.14000	5390
2.14067	5388
2.14133	5386
2.14200	5384
2.14267	5382
2.14333	5381
2.14400	5379
2.14467	5377
2.14533	5375
2.14600	5373
2.14667	5371
2.14733	5370
2.14800	5368
2.14867	5366
2.14933	5364
2.15000	5362
2.15067	5361
2.15133	5359
2.15200	5357
2.15267	5355
2.15333	5353
2.15400	5352
2.15467	5350
2.15533	5348
2.15600	5346
2.15667	5345
2.15733	5343
2.15800	5341
2.15867	5340
2.15933	5338
2.16000	5336
2.16067	5335
2.16133	5333
2.16200	5332
2.16267	5330
2.16333	5328
2.16400	5327
2.16467	5325
2.16533	5323
2.16600	5322
2.16667	5320
2.16733	5318
2.16800	5317
2.16867	5315
2.16933	5313
2.17000	5311
2.17067	5310
2.17133	5308
2.17200	5306
2.17267	5305
2.17333	5303
2.17400	5301
2.17467	5299
2.17533	5298
2.17600	5296
2.17667	5294
2.17733	5293
2.17800	5291
2.17867	5289
2.17933	5288
2.18000	5286
2.18067	5284
2.18133	5283
2.18200	5281
2.18267	5280
2.18333	5278
2.18400	5277
2.18467	5275
2.18533	5274
2.18600	5273
2.18667	5271
2.18733	5270
2.18800	5268
2.18867	5267
2.18933	5266
2.19000	5264
2.19067	5263
2.19133	5262
2.19200	5260
2.19267	5259
2.19333	5258
2.19400	5257
2.19467	5255
2.19533	5254
2.19600	5253
2.19667	5252
2.19733	5250
2.19800	5249
2.19867	5248
2.19933	5247
2.20000	5246
2.20067	5245
2.20133	5244
2.20200	5243
2.20267	5242
2.20333	5241
2.20400	5240
2.20467	5240
2.20533	5239
2.20600	5238
2.20667	5238
2.20733	5237
2.20800	5237
2.20867	5236
2.20933	5236
2.21000	5235
2.21067	5235
2.21133	5235
2.21200	5235
2.21267	5235
2.21333	5235
2.21400	5235
2.21467	5235
2.21533	5236
2.21600	5236
2.21667	5236
2.21733	5237
2.21800	5237
2.21867	5238
2.21933	5238
2.22000	5238
2.22067	5239
2.22133	5239
2.22200	5240
2.22267	5240
2.22333	5241
2.22400	5241
2.22467	5242
2.22533	5242
2.22600	5243
2.22667	5243
2.22733	5244
2.22800	5244
2.22867	5245
2.22933	5245
2.23000	5245
2.23067	5245
2.23133	5246
2.23200	5246
2.23267	5246
2.23333	5246
2.23400	5246
2.23467	5246
2.23533	5246
2.23600	5246
2.23667	5246
2.23733	5245
2.23800	5245
2.23867	5245
2.23933	5245
2.24000	5244
2.24067	5244
2.24133	5244
2.24200	5243
2.24267	5243
2.24333	5242
2.24400	5242
2.24467	5241
2.24533	5240
2.24600	5240
2.24667	5239
2.24733	5238
2.24800	5238
2.24867	5237
2.24933	5236
2.25000	5235
2.25067	5234
2.25133	5234
2.25200	5233
2.25267	5232
2.25333	5231
2.25400	5230
2.25467	5229
2.25533	5228
2.25600	5228
2.25667	5227
2.25733	5226
2.25800	5225
2.25867	5224
2.25933	5223
2.26000	5222
2.26067	5221
2.26133	5220
2.26200	5219
2.26267	5218
2.26333	5217
2.26400	5216
2.26467	5215
2.26533	5213
2.26600	5212
2.26667	5211
2.26733	5210
2.26800	5209
2.26867	5208
2.26933	5206
2.27000	5205
2.27067	5204
2.27133	5203
2.27200	5201
2.27267	5200
2.27333	5199
2.27400	5198
2.27467	5197
2.27533	5195
2.27600	5194
2.27667	5193
2.27733	5192
2.27800	5190
2.27867	5189
2.27933	5188
2.28000	5187
2.28067	5185
2.28133	5184
2.28200	5183
2.28267	5182
2.28333	5180
2.28400	5179
2.28467	5178
2.28533	5176
2.28600	5175
2.28667	5174
2.28733	5173
2.28800	5171
2.28867	5170
2.28933	5169
2.29000	5168
2.29067	5167
2.29133	5166
2.29200	5165
2.29267	5164
2.29333	5164
2.29400	5163
2.29467	5162
2.29533	5161
2.29600	5161
2.29667	5160
2.29733	5159
2.29800	5159
2.29867	5158
2.29933	5158
2.30000	5157
2.30067	5156
2.30133	5156
2.30200	5155
2.30267	5155
2.30333	5154
2.30400	5154
2.30467	5153
2.30533	5153
2.30600	5152
2.30667	5152
2.30733	5151
2.30800	5151
2.30867	5150
2.30933	5150
2.31000	5149
2.31067	5149
2.31133	5148
2.31200	5148
2.31267	5147
2.31333	5147
2.31400	5146
2.31467	5146
2.31533	5145
2.31600	5145
2.31667	5145
2.31733	5144
2.31800	5144
2.31867	5144
2.31933	5144
2.32000	5143
2.32067	5143
2.32133	5143
2.32200	5143
2.32267	5143
2.32333	5143
2.32400	5143
2.32467	5143
2.32533	5143
2.32600	5143
2.32667	5143
2.32733	5143
2.32800	5143
2.32867	5143
2.32933	5143
2.33000	5143
2.33067	5144
2.33133	5144
2.33200	5144
2.33267	5144
2.33333	5144
2.33400	5144
2.33467	5144
2.33533	5144
2.33600	5144
2.33667	5145
2.33733	5145
2.33800	5145
2.33867	5145
2.33933	5145
2.34000	5146
2.34067	5146
2.34133	5146
2.34200	5146
2.34267	5147
2.34333	5147
2.34400	5147
2.34467	5147
2.34533	5148
2.34600	5148
2.34667	5148
2.34733	5148
2.34800	5148
2.34867	5149
2.34933	5149
2.35000	5149
2.35067	5149
2.35133	5149
2.35200	5149
2.35267	5149
2.35333	5149
2.35400	5150
2.35467	5150
2.35533	5150
2.35600	5150
2.35667	5150
2.35733	5150
2.35800	5150
2.35867	5150
2.35933	5150
2.36000	5150
2.36067	5150
2.36133	5150
2.36200	5150
2.36267	5150
2.36333	5150
2.36400	5150
2.36467	5150
2.36533	5150
2.36600	5150
2.36667	5150
2.36733	5150
2.36800	5150
2.36867	5150
2.36933	5150
2.37000	5150
2.37067	5150
2.37133	5150
2.37200	5150
2.37267	5150
2.37333	5150
2.37400	5150
2.37467	5150
2.37533	5149
2.37600	5149
2.37667	5149
2.37733	5149
2.37800	5148
2.37867	5148
2.37933	5147
2.38000	5147
2.38067	5147
2.38133	5146
2.38200	5146
2.38267	5145
2.38333	5145
2.38400	5144
2.38467	5144
2.38533	5143
2.38600	5143
2.38667	5142
2.38733	5142
2.38800	5141
2.38867	5140
2.38933	5140
2.39000	5139
2.39067	5139
2.39133	5138
2.39200	5137
2.39267	5137
2.39333	5136
2.39400	5136
2.39467	5135
2.39533	5134
2.39600	5134
2.39667	5133
2.39733	5133
2.39800	5132
2.39867	5132
2.39933	5131
2.40000	5130
2.40067	5130
2.40133	5129
2.40200	5129
2.40267	5128
2.40333	5127
2.40400	5127
2.40467	5126
2.40533	5126
2.40600	5125
2.40667	5125
2.40733	5125
2.40800	5124
2.40867	5124
2.40933	5123
2.41000	5123
2.41067	5122
2.41133	5122
2.41200	5121
2.41267	5121
2.41333	5121
2.41400	5120
2.41467	5120
2.41533	5119
2.41600	5119
2.41667	5118
2.41733	5118
2.41800	5117
2.41867	5117
2.41933	5116
2.42000	5116
2.42067	5115
2.42133	5115
2.42200	5114
2.42267	5114
2.42333	5113
2.42400	5113
2.42467	5112
2.42533	5112
2.42600	5111
2.42667	5110
2.42733	5110
2.42800	5109
2.42867	5108
2.42933	5108
2.43000	5107
2.43067	5106
2.43133	5105
2.43200	5105
2.43267	5104
2.43333	5103
2.43400	5102
2.43467	5101
2.43533	5100
2.43600	5099
2.43667	5098
2.43733	5097
2.43800	5096
2.43867	5095
2.43933	5094
2.44000	5093
2.44067	5092
2.44133	5090
2.44200	5089
2.44267	5088
2.44333	5087
2.44400	5085
2.44467	5084
2.44533	5083
2.44600	5082
2.44667	5080
2.44733	5079
2.44800	5078
2.44867	5076
2.44933	5075
2.45000	5074
2.45067	5072
2.45133	5071
2.45200	5070
2.45267	5069
2.45333	5067
2.45400	5066
2.45467	5065
2.45533	5064
2.45600	5062
2.45667	5061
2.45733	5060
2.45800	5058
2.45867	5057
2.45933	5056
2.46000	5054
2.46067	5053
2.46133	5052
2.46200	5050
2.46267	5049
2.46333	5047
2.46400	5046
2.46467	5044
2.46533	5043
2.46600	5041
2.46667	5039
2.46733	5038
2.46800	5036
2.46867	5034
2.46933	5033
2.47000	5031
2.47067	5029
2.47133	5028
2.47200	5026
2.47267	5024
2.47333	5023
2.47400	5021
2.47467	5019
2.47533	5018
2.47600	5016
2.47667	5014
2.47733	5013
2.47800	5011
2.47867	5009
2.47933	5008
2.48000	5006
2.48067	5004
2.48133	5003
2.48200	5001
2.48267	5000
2.48333	4998
2.48400	4996
2.48467	4995
2.48533	4993
2.48600	4992
2.48667	4990
2.48733	4988
2.48800	4987
2.48867	4985
2.48933	4984
2.49000	4982
2.49067	4980
2.49133	4979
2.49200	4977
2.49267	4975
2.49333	4973
2.49400	4971
2.49467	4970
2.49533	4968
2.49600	4966
2.49667	4964
2.49733	4962
2.49800	4960
2.49867	4959
2.49933	4957
2.50000	4955
2.50067	4953
2.50133	4951
2.50200	4949
2.50267	4947
2.50333	4945
2.50400	4943
2.50467	4941
2.50533	4939
2.50600	4937
2.50667	4935
2.50733	4933
2.50800	4932
2.50867	4930
2.50933	4928
2.51000	4926
2.51067	4924
2.51133	4922
2.51200	4920
2.51267	4918
2.51333	4916
2.51400	4914
2.51467	4912
2.51533	4910
2.51600	4909
2.51667	4907
2.51733	4905
2.51800	4903
2.51867	4901
2.51933	4899
2.52000	4897
2.52067	4896
2.52133	4894
2.52200	4892
2.52267	4890
2.52333	4888
2.52400	4886
2.52467	4884
2.52533	4883
2.52600	4881
2.52667	4879
2.52733	4877
2.52800	4875
2.52867	4873
2.52933	4871
2.53000	4869
2.53067	4867
2.53133	4865
2.53200	4863
2.53267	4861
2.53333	4859
2.53400	4857
2.53467	4855
2.53533	4853
2.53600	4851
2.53667	4849
2.53733	4847
2.53800	4846
2.53867	4844
2.53933	4842
2.54000	4840
2.54067	4838
2.54133	4836
2.54200	4834
2.54267	4833
2.54333	4831
2.54400	4829
2.54467	4827
2.54533	4825
2.54600	4824
2.54667	4822
2.54733	4820
2.54800	4818
2.54867	4817
2.54933	4815
2.55000	4814
2.55067	4812
2.55133	4810
2.55200	4809
2.55267	4807
2.55333	4805
2.55400	4804
2.55467	4802
2.55533	4801
2.55600	4799
2.55667	4797
2.55733	4796
2.55800	4794
2.55867	4793
2.55933	4791
2.56000	4790
2.56067	4788
2.56133	4787
2.56200	4785
2.56267	4784
2.56333	4783
2.56400	4781
2.56467	4780
2.56533	4779
2.56600	4778
2.56667	4776
2.56733	4775
2.56800	4774
2.56867	4773
2.56933	4772
2.57000	4771
2.57067	4770
2.57133	4769
2.57200	4768
2.57267	4767
2.57333	4766
2.57400	4765
2.57467	4764
2.57533	4763
2.57600	4762
2.57667	4761
2.57733	4760
2.57800	4759
2.57867	4758
2.57933	4757
2.58000	4756
2.58067	4756
2.58133	4755
2.58200	4754
2.58267	4753
2.58333	4752
2.58400	4752
2.58467	4751
2.58533	4750
2.58600	4749
2.58667	4749
2.58733	4748
2.58800	4747
2.58867	4746
2.58933	4746
2.59000	4745
2.59067	4744
2.59133	4743
2.59200	4743
2.59267	4742
2.59333	4741
2.59400	4740
2.59467	4740
2.59533	4739
2.59600	4738
2.59667	4737
2.59733	4737
2.59800	4736
2.59867	4735
2.59933	4735
2.60000	4734
2.60067	4734
2.60133	4733
2.60200	4732
2.60267	4732
2.60333	4731
2.60400	4731
2.60467	4730
2.60533	4730
2.60600	4729
2.60667	4729
2.60733	4728
2.60800	4728
2.60867	4727
2.60933	4727
2.61000	4726
2.61067	4726
2.61133	4725
2.61200	4725
2.61267	4724
2.61333	4724
2.61400	4723
2.61467	4723
2.61533	4722
2.61600	4722
2.61667	4721
2.61733	4720
2.61800	4720
2.61867	4719
2.61933	4719
2.62000	4718
2.62067	4717
2.62133	4717
2.62200	4716
2.62267	4716
2.62333	4715
2.62400	4714
2.62467	4714
2.62533	4713
2.62600	4713
2.62667	4712
2.62733	4711
2.62800	4711
2.62867	4710
2.62933	4710
2.63000	4709
2.63067	4708
2.63133	4708
2.63200	4707
2.63267	4706
2.63333	4706
2.63400	4705
2.63467	4704
2.63533	4703
2.63600	4702
2.63667	4702
2.63733	4701
2.63800	4700
2.63867	4699
2.63933	4698
2.64000	4697
2.64067	4696
2.64133	4695
2.64200	4694
2.64267	4693
2.64333	4692
2.64400	4691
2.64467	4690
2.64533	4689
2.64600	4688
2.64667	4687
2.64733	4686
2.64800	4685
2.64867	4684
2.64933	4683
2.65000	4682
2.65067	4681
2.65133	4680
2.65200	4679
2.65267	4678
2.65333	4677
2.65400	4676
2.65467	4675
2.65533	4674
2.65600	4673
2.65667	4672
2.65733	4670
2.65800	4669
2.65867	4668
2.65933	4667
2.66000	4666
2.66067	4665
2.66133	4664
2.66200	4663
2.66267	4661
2.66333	4660
2.66400	4659
2.66467	4658
2.66533	4657
2.66600	4655
2.66667	4654
2.66733	4653
2.66800	4652
2.66867	4651
2.66933	4649
2.67000	4648
2.67067	4647
2.67133	4646
2.67200	4645
2.67267	4643
2.67333	4642
2.67400	4641
2.67467	4639
2.67533	4638
2.67600	4637
2.67667	4635
2.67733	4634
2.67800	4632
2.67867	4631
2.67933	4629
2.68000	4628
2.68067	4627
2.68133	4625
2.68200	4624
2.68267	4622
2.68333	4621
2.68400	4619
2.68467	4618
2.68533	4616
2.68600	4615
2.68667	4613
2.68733	4612
2.68800	4611
2.68867	4609
2.68933	4608
2.69000	4607
2.69067	4605
2.69133	4604
2.69200	4602
2.69267	4601
2.69333	4599
2.69400	4598
2.69467	4597
2.69533	4595
2.69600	4594
2.69667	4592
2.69733	4591
2.69800	4589
2.69867	4588
2.69933	4587
2.70000	4585
2.70067	4584
2.70133	4582
2.70200	4581
2.70267	4580
2.70333	4578
2.70400	4577
2.70467	4576
2.70533	4574
2.70600	4573
2.70667	4572
2.70733	4571
2.70800	4569
2.70867	4568
2.70933	4567
2.71000	4566
2.71067	4565
2.71133	4563
2.71200	4562
2.71267	4561
2.71333	4560
2.71400	4559
2.71467	4558
2.71533	4557
2.71600	4556
2.71667	4556
2.71733	4555
2.71800	4554
2.71867	4553
2.71933	4553
2.72000	4552
2.72067	4551
2.72133	4551
2.72200	4550
2.72267	4549
2.72333	4549
2.72400	4548
2.72467	4547
2.72533	4547
2.72600	4546
2.72667	4545
2.72733	4545
2.72800	4544
2.72867	4543
2.72933	4543
2.73000	4542
2.73067	4542
2.73133	4541
2.73200	4541
2.73267	4540
2.73333	4540
2.73400	4539
2.73467	4539
2.73533	4539
2.73600	4538
2.73667	4538
2.73733	4538
2.73800	4537
2.73867	4537
2.73933	4537
2.74000	4537
2.74067	4537
2.74133	4536
2.74200	4536
2.74267	4536
2.74333	4536
2.74400	4536
2.74467	4536
2.74533	4536
2.74600	4536
2.74667	4536
2.74733	4536
2.74800	4536
2.74867	4536
2.74933	4536
2.75000	4536
2.75067	4536
2.75133	4536
2.75200	4536
2.75267	4536
2.75333	4536
2.75400	4536
2.75467	4537
2.75533	4537
2.75600	4537
2.75667	4537
2.75733	4538
2.75800	4538
2.75867	4538
2.75933	4539
2.76000	4539
2.76067	4540
2.76133	4540
2.76200	4541
2.76267	4541
2.76333	4542
2.76400	4542
2.76467	4543
2.76533	4544
2.76600	4544
2.76667	4545
2.76733	4546
2.76800	4547
2.76867	4547
2.76933	4548
2.77000	4549
2.77067	4550
2.77133	4551
2.77200	4552
2.77267	4552
2.77333	4554
2.77400	4555
2.77467	4556
2.77533	4557
2.77600	4558
2.77667	4559
2.77733	4560
2.77800	4562
2.77867	4563
2.77933	4564
2.78000	4566
2.78067	4567
2.78133	4568
2.78200	4570
2.78267	4571
2.78333	4573
2.78400	4575
2.78467	4576
2.78533	4578
2.78600	4580
2.78667	4582
2.78733	4584
2.78800	4586
2.78867	4588
2.78933	4590
2.79000	4593
2.79067	4595
2.79133	4597
2.79200	4600
2.79267	4603
2.79333	4605
2.79400	4608
2.79467	4611
2.79533	4614
2.79600	4616
2.79667	4619
2.79733	4622
2.79800	4626
2.79867	4629
2.79933	4632
2.80000	4635
2.80067	4639
2.80133	4642
2.80200	4646
2.80267	4649
2.80333	4653
2.80400	4657
2.80467	4661
2.80533	4665
2.80600	4669
2.80667	4673
2.80733	4677
2.80800	4681
2.80867	4685
2.80933	4689
2.81000	4693
2.81067	4697
2.81133	4702
2.81200	4706
2.81267	4710
2.81333	4714
2.81400	4718
2.81467	4722
2.81533	4727
2.81600	4731
2.81667	4735
2.81733	4738
2.81800	4742
2.81867	4746
2.81933	4749
2.82000	4753
2.82067	4756
2.82133	4760
2.82200	4763
2.82267	4766
2.82333	4769
2.82400	4772
2.82467	4774
2.82533	4777
2.82600	4779
2.82667	4782
2.82733	4784
2.82800	4786
2.82867	4787
2.82933	4789
2.83000	4791
2.83067	4792
2.83133	4793
2.83200	4794
2.83267	4795
2.83333	4795
2.83400	4796
2.83467	4796
2.83533	4796
2.83600	4796
2.83667	4796
2.83733	4796
2.83800	4795
2.83867	4795
2.83933	4794
2.84000	4793
2.84067	4792
2.84133	4791
2.84200	4790
2.84267	4789
2.84333	4787
2.84400	4786
2.84467	4784
2.84533	4783
2.84600	4781
2.84667	4779
2.84733	4777
2.84800	4775
2.84867	4773
2.84933	4771
2.85000	4769
2.85067	4766
2.85133	4764
2.85200	4762
2.85267	4759
2.85333	4757
2.85400	4755
2.85467	4752
2.85533	4749
2.85600	4747
2.85667	4744
2.85733	4742
2.85800	4739
2.85867	4736
2.85933	4734
2.86000	4731
2.86067	4729
2.86133	4726
2.86200	4724
2.86267	4721
2.86333	4719
2.86400	4716
2.86467	4714
2.86533	4711
2.86600	4709
2.86667	4707
2.86733	4704
2.86800	4702
2.86867	4700
2.86933	4698
2.87000	4697
2.87067	4695
2.87133	4693
2.87200	4692
2.87267	4690
2.87333	4689
2.87400	4688
2.87467	4687
2.87533	4686
2.87600	4686
2.87667	4685
2.87733	4685
2.87800	4685
2.87867	4685
2.87933	4685
2.88000	4685
2.88067	4686
2.88133	4687
2.88200	4688
2.88267	4689
2.88333	4690
2.88400	4692
2.88467	4694
2.88533	4696
2.88600	4698
2.88667	4700
2.88733	4703
2.88800	4706
2.88867	4709
2.88933	4713
2.89000	4716
2.89067	4720
2.89133	4724
2.89200	4728
2.89267	4732
2.89333	4736
2.89400	4741
2.89467	4746
2.89533	4750
2.89600	4755
2.89667	4761
2.89733	4766
2.89800	4771
2.89867	4777
2.89933	4782
2.90000	4788
2.90067	4793
2.90133	4799
2.90200	4804
2.90267	4810
2.90333	4816
2.90400	4821
2.90467	4827
2.90533	4832
2.90600	4837
2.90667	4842
2.90733	4847
2.90800	4852
2.90867	4857
2.90933	4862
2.91000	4866
2.91067	4871
2.91133	4875
2.91200	4879
2.91267	4882
2.91333	4886
2.91400	4889
2.91467	4892
2.91533	4894
2.91600	4896
2.91667	4899
2.91733	4900
2.91800	4902
2.91867	4903
2.91933	4904
2.92000	4904
2.92067	4904
2.92133	4904
2.92200	4904
2.92267	4903
2.92333	4902
2.92400	4901
2.92467	4899
2.92533	4897
2.92600	4895
2.92667	4892
2.92733	4889
2.92800	4886
2.92867	4883
2.92933	4880
2.93000	4876
2.93067	4872
2.93133	4867
2.93200	4863
2.93267	4858
2.93333	4853
2.93400	4848
2.93467	4842
2.93533	4836
2.93600	4831
2.93667	4824
2.93733	4818
2.93800	4812
2.93867	4805
2.93933	4799
2.94000	4792
2.94067	4785
2.94133	4778
2.94200	4771
2.94267	4764
2.94333	4757
2.94400	4750
2.94467	4742
2.94533	4735
2.94600	4728
2.94667	4720
2.94733	4713
2.94800	4705
2.94867	4698
2.94933	4690
2.95000	4683
2.95067	4676
2.95133	4668
2.95200	4661
2.95267	4654
2.95333	4646
2.95400	4639
2.95467	4632
2.95533	4625
2.95600	4618
2.95667	4610
2.95733	4603
2.95800	4597
2.95867	4590
2.95933	4583
2.96000	4576
2.96067	4569
2.96133	4563
2.96200	4556
2.96267	4550
2.96333	4543
2.96400	4537
2.96467	4531
2.96533	4524
2.96600	4518
2.96667	4512
2.96733	4506
2.96800	4501
2.96867	4495
2.96933	4489
2.97000	4484
2.97067	4478
2.97133	4473
2.97200	4467
2.97267	4462
2.97333	4457
2.97400	4452
2.97467	4447
2.97533	4442
2.97600	4437
2.97667	4432
2.97733	4427
2.97800	4423
2.97867	4418
2.97933	4414
2.98000	4409
2.98067	4405
2.98133	4401
2.98200	4397
2.98267	4392
2.98333	4388
2.98400	4384
2.98467	4381
2.98533	4377
2.98600	4373
2.98667	4369
2.98733	4366
2.98800	4362
2.98867	4359
2.98933	4355
2.99000	4352
2.99067	4349
2.99133	4346
2.99200	4342
2.99267	4339
2.99333	4336
2.99400	4333
2.99467	4330
2.99533	4327
2.99600	4324
2.99667	4321
2.99733	4319
2.99800	4316
2.99867	4313
2.99933	4310
3.00000	4307
3.00067	4305
3.00133	4302
3.00200	4299
3.00267	4297
3.00333	4294
3.00400	4291
3.00467	4289
3.00533	4286
3.00600	4284
3.00667	4281
3.00733	4279
3.00800	4277
3.00867	4274
3.00933	4272
3.01000	4269
3.01067	4267
3.01133	4265
3.01200	4263
3.01267	4260
3.01333	4258
3.01400	4256
3.01467	4254
3.01533	4252
3.01600	4250
3.01667	4247
3.01733	4245
3.01800	4243
3.01867	4241
3.01933	4239
3.02000	4237
3.02067	4235
3.02133	4233
3.02200	4232
3.02267	4230
3.02333	4228
3.02400	4226
3.02467	4224
3.02533	4222
3.02600	4220
3.02667	4218
3.02733	4217
3.02800	4215
3.02867	4213
3.02933	4211
3.03000	4209
3.03067	4208
3.03133	4206
3.03200	4204
3.03267	4202
3.03333	4201
3.03400	4199
3.03467	4197
3.03533	4196
3.03600	4194
3.03667	4192
3.03733	4191
3.03800	4189
3.03867	4188
3.03933	4186
3.04000	4185
3.04067	4184
3.04133	4182
3.04200	4181
3.04267	4180
3.04333	4178
3.04400	4177
3.04467	4176
3.04533	4174
3.04600	4173
3.04667	4172
3.04733	4170
3.04800	4169
3.04867	4168
3.04933	4167
3.05000	4166
3.05067	4165
3.05133	4164
3.05200	4163
3.05267	4161
3.05333	4160
3.05400	4159
3.05467	4158
3.05533	4157
3.05600	4156
3.05667	4155
3.05733	4154
3.05800	4153
3.05867	4152
3.05933	4151
3.06000	4151
3.06067	4150
3.06133	4149
3.06200	4148
3.06267	4147
3.06333	4147
3.06400	4146
3.06467	4145
3.06533	4145
3.06600	4144
3.06667	4144
3.06733	4143
3.06800	4142
3.06867	4142
3.06933	4141
3.07000	4141
3.07067	4140
3.07133	4140
3.07200	4139
3.07267	4139
3.07333	4138
3.07400	4138
3.07467	4137
3.07533	4137
3.07600	4136
3.07667	4136
3.07733	4135
3.07800	4135
3.07867	4134
3.07933	4134
3.08000	4134
3.08067	4133
3.08133	4133
3.08200	4132
3.08267	4132
3.08333	4131
3.08400	4131
3.08467	4130
3.08533	4130
3.08600	4130
3.08667	4129
3.08733	4129
3.08800	4128
3.08867	4128
3.08933	4127
3.09000	4127
3.09067	4126
3.09133	4126
3.09200	4125
3.09267	4125
3.09333	4124
3.09400	4123
3.09467	4123
3.09533	4122
3.09600	4122
3.09667	4121
3.09733	4121
3.09800	4120
3.09867	4120
3.09933	4119
3.10000	4118
3.10067	4118
3.10133	4117
3.10200	4116
3.10267	4116
3.10333	4115
3.10400	4114
3.10467	4113
3.10533	4113
3.10600	4112
3.10667	4111
3.10733	4110
3.10800	4110
3.10867	4109
3.10933	4108
3.11000	4107
3.11067	4107
3.11133	4106
3.11200	4105
3.11267	4104
3.11333	4103
3.11400	4102
3.11467	4102
3.11533	4101
3.11600	4100
3.11667	4099
3.11733	4098
3.11800	4097
3.11867	4096
3.11933	4096
3.12000	4095
3.12067	4094
3.12133	4093
3.12200	4093
3.12267	4092
3.12333	4091
3.12400	4090
3.12467	4089
3.12533	4089
3.12600	4088
3.12667	4087
3.12733	4087
3.12800	4086
3.12867	4085
3.12933	4085
3.13000	4084
3.13067	4083
3.13133	4082
3.13200	4082
3.13267	4081
3.13333	4080
3.13400	4080
3.13467	4079
3.13533	4078
3.13600	4078
3.13667	4077
3.13733	4076
3.13800	4075
3.13867	4075
3.13933	4074
3.14000	4073
3.14067	4073
3.14133	4072
3.14200	4072
3.14267	4071
3.14333	4070
3.14400	4070
3.14467	4069
3.14533	4068
3.14600	4068
3.14667	4067
3.14733	4067
3.14800	4066
3.14867	4065
3.14933	4065
3.15000	4064
3.15067	4064
3.15133	4063
3.15200	4063
3.15267	4062
3.15333	4062
3.15400	4061
3.15467	4061
3.15533	4060
3.15600	4060
3.15667	4059
3.15733	4059
3.15800	4059
3.15867	4058
3.15933	4058
3.16000	4057
3.16067	4057
3.16133	4056
3.16200	4056
3.16267	4056
3.16333	4055
3.16400	4055
3.16467	4054
3.16533	4054
3.16600	4053
3.16667	4053
3.16733	4052
3.16800	4052
3.16867	4051
3.16933	4051
3.17000	4050
3.17067	4050
3.17133	4049
3.17200	4049
3.17267	4048
3.17333	4048
3.17400	4048
3.17467	4047
3.17533	4047
3.17600	4046
3.17667	4046
3.17733	4045
3.17800	4045
3.17867	4045
3.17933	4044
3.18000	4044
3.18067	4044
3.18133	4043
3.18200	4043
3.18267	4043
3.18333	4042
3.18400	4042
3.18467	4042
3.18533	4042
3.18600	4041
3.18667	4041
3.18733	4041
3.18800	4040
3.18867	4040
3.18933	4040
3.19000	4039
3.19067	4039
3.19133	4039
3.19200	4038
3.19267	4038
3.19333	4038
3.19400	4037
3.19467	4037
3.19533	4037
3.19600	4036
3.19667	4036
3.19733	4035
3.19800	4035
3.19867	4035
3.19933	4034
3.20000	4034
3.20067	4034
3.20133	4033
3.20200	4033
3.20267	4033
3.20333	4033
3.20400	4032
3.20467	4032
3.20533	4032
3.20600	4032
3.20667	4032
3.20733	4032
3.20800	4031
3.20867	4031
3.20933	4031
3.21000	4031
3.21067	4031
3.21133	4031
3.21200	4031
3.21267	4031
3.21333	4031
3.21400	4031
3.21467	4031
3.21533	4031
3.21600	4031
3.21667	4031
3.21733	4031
3.21800	4031
3.21867	4031
3.21933	4031
3.22000	4031
3.22067	4031
3.22133	4031
3.22200	4031
3.22267	4031
3.22333	4031
3.22400	4031
3.22467	4031
3.22533	4031
3.22600	4031
3.22667	4031
3.22733	4031
3.22800	4031
3.22867	4031
3.22933	4031
3.23000	4031
3.23067	4031
3.23133	4031
3.23200	4031
3.23267	4031
3.23333	4031
3.23400	4031
3.23467	4031
3.23533	4031
3.23600	4032
3.23667	4032
3.23733	4032
3.23800	4032
3.23867	4032
3.23933	4032
3.24000	4032
3.24067	4033
3.24133	4033
3.24200	4033
3.24267	4033
3.24333	4033
3.24400	4033
3.24467	4034
3.24533	4034
3.24600	4034
3.24667	4034
3.24733	4035
3.24800	4035
3.24867	4035
3.24933	4035
3.25000	4036
3.25067	4036
3.25133	4036
3.25200	4036
3.25267	4036
3.25333	4037
3.25400	4037
3.25467	4037
3.25533	4038
3.25600	4038
3.25667	4038
3.25733	4038
3.25800	4039
3.25867	4039
3.25933	4039
3.26000	4040
3.26067	4040
3.26133	4040
3.26200	4040
3.26267	4041
3.26333	4041
3.26400	4041
3.26467	4041
3.26533	4041
3.26600	4042
3.26667	4042
3.26733	4042
3.26800	4042
3.26867	4042
3.26933	4042
3.27000	4043
3.27067	4043
3.27133	4043
3.27200	4043
3.27267	4043
3.27333	4043
3.27400	4043
3.27467	4043
3.27533	4043
3.27600	4043
3.27667	4044
3.27733	4044
3.27800	4044
3.27867	4044
3.27933	4044
3.28000	4044
3.28067	4044
3.28133	4044
3.28200	4044
3.28267	4045
3.28333	4045
3.28400	4045
3.28467	4045
3.28533	4045
3.28600	4045
3.28667	4045
3.28733	4045
3.28800	4045
3.28867	4045
3.28933	4045
3.29000	4046
3.29067	4046
3.29133	4046
3.29200	4046
3.29267	4046
3.29333	4046
3.29400	4046
3.29467	4047
3.29533	4047
3.29600	4047
3.29667	4047
3.29733	4047
3.29800	4047
3.29867	4047
3.29933	4048
3.30000	4048
3.30067	4048
3.30133	4048
3.30200	4048
3.30267	4048
3.30333	4049
3.30400	4049
3.30467	4049
3.30533	4049
3.30600	4049
3.30667	4049
3.30733	4049
3.30800	4049
3.30867	4050
3.30933	4050
3.31000	4050
3.31067	4050
3.31133	4050
3.31200	4050
3.31267	4050
3.31333	4050
3.31400	4050
3.31467	4050
3.31533	4050
3.31600	4050
3.31667	4050
3.31733	4050
3.31800	4050
3.31867	4050
3.31933	4050
3.32000	4050
3.32067	4050
3.32133	4050
3.32200	4050
3.32267	4050
3.32333	4050
3.32400	4050
3.32467	4049
3.32533	4049
3.32600	4049
3.32667	4049
3.32733	4049
3.32800	4049
3.32867	4048
3.32933	4048
3.33000	4048
3.33067	4048
3.33133	4048
3.33200	4047
3.33267	4047
3.33333	4047
3.33400	4046
3.33467	4046
3.33533	4046
3.33600	4045
3.33667	4045
3.33733	4044
3.33800	4044
3.33867	4044
3.33933	4043
3.34000	4043
3.34067	4043
3.34133	4042
3.34200	4042
3.34267	4042
3.34333	4041
3.34400	4041
3.34467	4041
3.34533	4040
3.34600	4040
3.34667	4040
3.34733	4039
3.34800	4039
3.34867	4039
3.34933	4039
3.35000	4038
3.35067	4038
3.35133	4038
3.35200	4038
3.35267	4037
3.35333	4037
3.35400	4037
3.35467	4037
3.35533	4036
3.35600	4036
3.35667	4036
3.35733	4036
3.35800	4035
3.35867	4035
3.35933	4035
3.36000	4035
3.36067	4035
3.36133	4035
3.36200	4034
3.36267	4034
3.36333	4034
3.36400	4034
3.36467	4034
3.36533	4034
3.36600	4034
3.36667	4034
3.36733	4034
3.36800	4034
3.36867	4034
3.36933	4034
3.37000	4034
3.37067	4034
3.37133	4035
3.37200	4035
3.37267	4035
3.37333	4035
3.37400	4035
3.37467	4035
3.37533	4036
3.37600	4036
3.37667	4036
3.37733	4036
3.37800	4037
3.37867	4037
3.37933	4037
3.38000	4037
3.38067	4038
3.38133	4038
3.38200	4038
3.38267	4038
3.38333	4039
3.38400	4039
3.38467	4040
3.38533	4040
3.38600	4040
3.38667	4041
3.38733	4042
3.38800	4042
3.38867	4043
3.38933	4043
3.39000	4044
3.39067	4045
3.39133	4045
3.39200	4046
3.39267	4047
3.39333	4047
3.39400	4048
3.39467	4049
3.39533	4050
3.39600	4050
3.39667	4051
3.39733	4052
3.39800	4053
3.39867	4053
3.39933	4054
3.40000	4055
3.40067	4056
3.40133	4057
3.40200	4058
3.40267	4059
3.40333	4059
3.40400	4060
3.40467	4061
3.40533	4062
3.40600	4062
3.40667	4063
3.40733	4064
3.40800	4065
3.40867	4065
3.40933	4066
3.41000	4067
3.41067	4068
3.41133	4068
3.41200	4069
3.41267	4069
3.41333	4070
3.41400	4071
3.41467	4071
3.41533	4072
3.41600	4072
3.41667	4073
3.41733	4073
3.41800	4074
3.41867	4074
3.41933	4075
3.42000	4075
3.42067	4076
3.42133	4076
3.42200	4076
3.42267	4077
3.42333	4077
3.42400	4077
3.42467	4077
3.42533	4078
3.42600	4078
3.42667	4078
3.42733	4078
3.42800	4078
3.42867	4078
3.42933	4079
3.43000	4079
3.43067	4079
3.43133	4079
3.43200	4079
3.43267	4079
3.43333	4079
3.43400	4079
3.43467	4078
3.43533	4078
3.43600	4078
3.43667	4078
3.43733	4078
3.43800	4078
3.43867	4078
3.43933	4078
3.44000	4078
3.44067	4078
3.44133	4078
3.44200	4078
3.44267	4078
3.44333	4078
3.44400	4078
3.44467	4078
3.44533	4077
3.44600	4077
3.44667	4077
3.44733	4077
3.44800	4077
3.44867	4077
3.44933	4077
3.45000	4077
3.45067	4077
3.45133	4077
3.45200	4077
3.45267	4077
3.45333	4077
3.45400	4077
3.45467	4077
3.45533	4077
3.45600	4077
3.45667	4077
3.45733	4077
3.45800	4077
3.45867	4077
3.45933	4077
3.46000	4077
3.46067	4077
3.46133	4078
3.46200	4078
3.46267	4078
3.46333	4079
3.46400	4079
3.46467	4079
3.46533	4080
3.46600	4080
3.46667	4081
3.46733	4082
3.46800	4082
3.46867	4083
3.46933	4083
3.47000	4084
3.47067	4085
3.47133	4086
3.47200	4086
3.47267	4087
3.47333	4088
3.47400	4089
3.47467	4089
3.47533	4090
3.47600	4091
3.47667	4092
3.47733	4093
3.47800	4094
3.47867	4095
3.47933	4097
3.48000	4098
3.48067	4099
3.48133	4101
3.48200	4102
3.48267	4103
3.48333	4105
3.48400	4107
3.48467	4108
3.48533	4110
3.48600	4112
3.48667	4114
3.48733	4116
3.48800	4118
3.48867	4120
3.48933	4122
3.49000	4124
3.49067	4127
3.49133	4129
3.49200	4132
3.49267	4135
3.49333	4137
3.49400	4140
3.49467	4143
3.49533	4147
3.49600	4150
3.49667	4153
3.49733	4157
3.49800	4161
3.49867	4165
3.49933	4169
3.50000	4173
3.50067	4177
3.50133	4182
3.50200	4187
3.50267	4192
3.50333	4197
3.50400	4203
3.50467	4209
3.50533	4215
3.50600	4221
3.50667	4228
3.50733	4234
3.50800	4242
3.50867	4249
3.50933	4257
3.51000	4265
3.51067	4274
3.51133	4282
3.51200	4292
3.51267	4301
3.51333	4311
3.51400	4322
3.51467	4333
3.51533	4344
3.51600	4356
3.51667	4369
3.51733	4382
3.51800	4395
3.51867	4409
3.51933	4424
3.52000	4439
3.52067	4454
3.52133	4470
3.52200	4486
3.52267	4504
3.52333	4521
3.52400	4539
3.52467	4558
3.52533	4577
3.52600	4597
3.52667	4617
3.52733	4638
3.52800	4659
3.52867	4681
3.52933	4704
3.53000	4727
3.53067	4751
3.53133	4775
3.53200	4799
3.53267	4824
3.53333	4850
3.53400	4876
3.53467	4903
3.53533	4930
3.53600	4958
3.53667	4986
3.53733	5014
3.53800	5043
3.53867	5072
3.53933	5101
3.54000	5131
3.54067	5161
3.54133	5192
3.54200	5223
3.54267	5253
3.54333	5285
3.54400	5316
3.54467	5347
3.54533	5379
3.54600	5410
3.54667	5442
3.54733	5474
3.54800	5506
3.54867	5537
3.54933	5569
3.55000	5601
3.55067	5633
3.55133	5664
3.55200	5695
3.55267	5726
3.55333	5757
3.55400	5788
3.55467	5818
3.55533	5848
3.55600	5878
3.55667	5907
3.55733	5936
3.55800	5964
3.55867	5992
3.55933	6019
3.56000	6046
3.56067	6072
3.56133	6098
3.56200	6123
3.56267	6147
3.56333	6171
3.56400	6195
3.56467	6217
3.56533	6240
3.56600	6261
3.56667	6282
3.56733	6302
3.56800	6322
3.56867	6341
3.56933	6359
3.57000	6376
3.57067	6393
3.57133	6410
3.57200	6425
3.57267	6440
3.57333	6455
3.57400	6468
3.57467	6481
3.57533	6494
3.57600	6505
3.57667	6517
3.57733	6527
3.57800	6537
3.57867	6547
3.57933	6555
3.58000	6563
3.58067	6571
3.58133	6578
3.58200	6585
3.58267	6591
3.58333	6596
3.58400	6601
3.58467	6606
3.58533	6610
3.58600	6614
3.58667	6617
3.58733	6620
3.58800	6623
3.58867	6625
3.58933	6627
3.59000	6628
3.59067	6629
3.59133	6630
3.59200	6630
3.59267	6630
3.59333	6630
3.59400	6629
3.59467	6629
3.59533	6628
3.59600	6626
3.59667	6625
3.59733	6623
3.59800	6621
3.59867	6619
3.59933	6617
3.60000	6614
3.60067	6611
3.60133	6608
3.60200	6605
3.60267	6602
3.60333	6598
3.60400	6594
3.60467	6590
3.60533	6586
3.60600	6582
3.60667	6577
3.60733	6573
3.60800	6568
3.60867	6563
3.60933	6558
3.61000	6552
3.61067	6547
3.61133	6541
3.61200	6535
3.61267	6529
3.61333	6522
3.61400	6516
3.61467	6509
3.61533	6502
3.61600	6494
3.61667	6487
3.61733	6479
3.61800	6471
3.61867	6463
3.61933	6454
3.62000	6445
3.62067	6436
3.62133	6427
3.62200	6417
3.62267	6407
3.62333	6396
3.62400	6385
3.62467	6374
3.62533	6363
3.62600	6351
3.62667	6339
3.62733	6327
3.62800	6314
3.62867	6301
3.62933	6288
3.63000	6274
3.63067	6260
3.63133	6246
3.63200	6231
3.63267	6216
3.63333	6201
3.63400	6185
3.63467	6169
3.63533	6153
3.63600	6136
3.63667	6119
3.63733	6102
3.63800	6084
3.63867	6066
3.63933	6048
3.64000	6029
3.64067	6011
3.64133	5991
3.64200	5972
3.64267	5953
3.64333	5933
3.64400	5913
3.64467	5892
3.64533	5872
3.64600	5851
3.64667	5830
3.64733	5809
3.64800	5788
3.64867	5767
3.64933	5745
3.65000	5724
3.65067	5702
3.65133	5680
3.65200	5658
3.65267	5636
3.65333	5614
3.65400	5592
3.65467	5570
3.65533	5547
3.65600	5525
3.65667	5503
3.65733	5481
3.65800	5459
3.65867	5437
3.65933	5415
3.66000	5393
3.66067	5371
3.66133	5349
3.66200	5328
3.66267	5306
3.66333	5285
3.66400	5263
3.66467	5242
3.66533	5221
3.66600	5200
3.66667	5179
3.66733	5158
3.66800	5138
3.66867	5118
3.66933	5097
3.67000	5077
3.67067	5057
3.67133	5038
3.67200	5018
3.67267	4999
3.67333	4980
3.67400	4961
3.67467	4942
3.67533	4924
3.67600	4906
3.67667	4888
3.67733	4870
3.67800	4852
3.67867	4835
3.67933	4817
3.68000	4800
3.68067	4784
3.68133	4767
3.68200	4751
3.68267	4735
3.68333	4719
3.68400	4703
3.68467	4688
3.68533	4673
3.68600	4658
3.68667	4643
3.68733	4628
3.68800	4614
3.68867	4600
3.68933	4586
3.69000	4573
3.69067	4559
3.69133	4546
3.69200	4533
3.69267	4520
3.69333	4508
3.69400	4496
3.69467	4484
3.69533	4472
3.69600	4460
3.69667	4449
3.69733	4438
3.69800	4427
3.69867	4416
3.69933	4405
3.70000	4395
3.70067	4384
3.70133	4374
3.70200	4364
3.70267	4354
3.70333	4345
3.70400	4335
3.70467	4326
3.70533	4317
3.70600	4308
3.70667	4299
3.70733	4290
3.70800	4282
3.70867	4273
3.70933	4265
3.71000	4257
3.71067	4249
3.71133	4241
3.71200	4233
3.71267	4225
3.71333	4218
3.71400	4211
3.71467	4203
3.71533	4196
3.71600	4189
3.71667	4182
3.71733	4176
3.71800	4169
3.71867	4162
3.71933	4156
3.72000	4150
3.72067	4143
3.72133	4137
3.72200	4131
3.72267	4125
3.72333	4119
3.72400	4114
3.72467	4108
3.72533	4102
3.72600	4097
3.72667	4091
3.72733	4086
3.72800	4081
3.72867	4076
3.72933	4071
3.73000	4066
3.73067	4061
3.73133	4056
3.73200	4051
3.73267	4046
3.73333	4042
3.73400	4037
3.73467	4033
3.73533	4028
3.73600	4024
3.73667	4020
3.73733	4015
3.73800	4011
3.73867	4007
3.73933	4003
3.74000	3999
3.74067	3995
3.74133	3991
3.74200	3988
3.74267	3984
3.74333	3980
3.74400	3977
3.74467	3973
3.74533	3969
3.74600	3966
3.74667	3963
3.74733	3959
3.74800	3956
3.74867	3953
3.74933	3949
3.75000	3946
3.75067	3943
3.75133	3940
3.75200	3937
3.75267	3934
3.75333	3931
3.75400	3928
3.75467	3925
3.75533	3923
3.75600	3920
3.75667	3917
3.75733	3915
3.75800	3912
3.75867	3909
3.75933	3907
3.76000	3904
3.76067	3902
3.76133	3899
3.76200	3897
3.76267	3894
3.76333	3892
3.76400	3890
3.76467	3887
3.76533	3885
3.76600	3883
3.76667	3881
3.76733	3878
3.76800	3876
3.76867	3874
3.76933	3872
3.77000	3870
3.77067	3867
3.77133	3865
3.77200	3863
3.77267	3861
3.77333	3859
3.77400	3857
3.77467	3855
3.77533	3853
3.77600	3850
3.77667	3848
3.77733	3846
3.77800	3844
3.77867	3842
3.77933	3840
3.78000	3838
3.78067	3836
3.78133	3834
3.78200	3832
3.78267	3830
3.78333	3828
3.78400	3826
3.78467	3824
3.78533	3822
3.78600	3820
3.78667	3818
3.78733	3816
3.78800	3814
3.78867	3812
3.78933	3811
3.79000	3809
3.79067	3807
3.79133	3805
3.79200	3803
3.79267	3801
3.79333	3800
3.79400	3798
3.79467	3796
3.79533	3794
3.79600	3792
3.79667	3790
3.79733	3789
3.79800	3787
3.79867	3785
3.79933	3783
3.80000	3781
3.80067	3779
3.80133	3778
3.80200	3776
3.80267	3774
3.80333	3772
3.80400	3771
3.80467	3769
3.80533	3767
3.80600	3765
3.80667	3764
3.80733	3762
3.80800	3760
3.80867	3759
3.80933	3757
3.81000	3755
3.81067	3754
3.81133	3752
3.81200	3750
3.81267	3749
3.81333	3747
3.81400	3745
3.81467	3744
3.81533	3742
3.81600	3740
3.81667	3739
3.81733	3737
3.81800	3736
3.81867	3734
3.81933	3733
3.82000	3731
3.82067	3730
3.82133	3728
3.82200	3726
3.82267	3725
3.82333	3723
3.82400	3722
3.82467	3720
3.82533	3719
3.82600	3717
3.82667	3716
3.82733	3715
3.82800	3713
3.82867	3712
3.82933	3711
3.83000	3709
3.83067	3708
3.83133	3707
3.83200	3705
3.83267	3704
3.83333	3703
3.83400	3702
3.83467	3700
3.83533	3699
3.83600	3698
3.83667	3697
3.83733	3695
3.83800	3694
3.83867	3693
3.83933	3692
3.84000	3690
3.84067	3689
3.84133	3688
3.84200	3687
3.84267	3686
3.84333	3685
3.84400	3683
3.84467	3682
3.84533	3681
3.84600	3680
3.84667	3679
3.84733	3678
3.84800	3677
3.84867	3676
3.84933	3675
3.85000	3674
3.85067	3673
3.85133	3673
3.85200	3672
3.85267	3671
3.85333	3670
3.85400	3669
3.85467	3668
3.85533	3667
3.85600	3667
3.85667	3666
3.85733	3665
3.85800	3664
3.85867	3663
3.85933	3662
3.86000	3661
3.86067	3661
3.86133	3660
3.86200	3659
3.86267	3658
3.86333	3657
3.86400	3656
3.86467	3656
3.86533	3655
3.86600	3654
3.86667	3653
3.86733	3653
3.86800	3652
3.86867	3651
3.86933	3650
3.87000	3650
3.87067	3649
3.87133	3648
3.87200	3647
3.87267	3647
3.87333	3646
3.87400	3645
3.87467	3645
3.87533	3644
3.87600	3643
3.87667	3643
3.87733	3642
3.87800	3641
3.87867	3641
3.87933	3640
3.88000	3640
3.88067	3639
3.88133	3638
3.88200	3638
3.88267	3637
3.88333	3637
3.88400	3636
3.88467	3636
3.88533	3635
3.88600	3635
3.88667	3634
3.88733	3633
3.88800	3633
3.88867	3632
3.88933	3632
3.89000	3631
3.89067	3631
3.89133	3631
3.89200	3630
3.89267	3630
3.89333	3629
3.89400	3629
3.89467	3628
3.89533	3628
3.89600	3627
3.89667	3627
3.89733	3626
3.89800	3626
3.89867	3625
3.89933	3625
3.90000	3625
3.90067	3624
3.90133	3624
3.90200	3623
3.90267	3623
3.90333	3623
3.90400	3622
3.90467	3622
3.90533	3621
3.90600	3621
3.90667	3620
3.90733	3620
3.90800	3619
3.90867	3619
3.90933	3619
3.91000	3618
3.91067	3618
3.91133	3617
3.91200	3617
3.91267	3617
3.91333	3616
3.91400	3616
3.91467	3615
3.91533	3615
3.91600	3615
3.91667	3615
3.91733	3614
3.91800	3614
3.91867	3614
3.91933	3613
3.92000	3613
3.92067	3613
3.92133	3612
3.92200	3612
3.92267	3612
3.92333	3611
3.92400	3611
3.92467	3611
3.92533	3610
3.92600	3610
3.92667	3609
3.92733	3609
3.92800	3609
3.92867	3608
3.92933	3608
3.93000	3607
3.93067	3607
3.93133	3606
3.93200	3606
3.93267	3605
3.93333	3605
3.93400	3604
3.93467	3604
3.93533	3603
3.93600	3603
3.93667	3602
3.93733	3601
3.93800	3601
3.93867	3600
3.93933	3600
3.94000	3599
3.94067	3598
3.94133	3598
3.94200	3597
3.94267	3597
3.94333	3596
3.94400	3595
3.94467	3595
3.94533	3594
3.94600	3594
3.94667	3593
3.94733	3593
3.94800	3592
3.94867	3592
3.94933	3591
3.95000	3591
3.95067	3590
3.95133	3590
3.95200	3590
3.95267	3589
3.95333	3589
3.95400	3588
3.95467	3588
3.95533	3587
3.95600	3587
3.95667	3587
3.95733	3586
3.95800	3586
3.95867	3586
3.95933	3585
3.96000	3585
3.96067	3585
3.96133	3585
3.96200	3584
3.96267	3584
3.96333	3584
3.96400	3584
3.96467	3583
3.96533	3583
3.96600	3583
3.96667	3583
3.96733	3583
3.96800	3583
3.96867	3582
3.96933	3582
3.97000	3582
3.97067	3582
3.97133	3582
3.97200	3582
3.97267	3581
3.97333	3581
3.97400	3581
3.97467	3581
3.97533	3581
3.97600	3581
3.97667	3581
3.97733	3581
3.97800	3581
3.97867	3581
3.97933	3580
3.98000	3580
3.98067	3580
3.98133	3580
3.98200	3581
3.98267	3581
3.98333	3581
3.98400	3581
3.98467	3581
3.98533	3581
3.98600	3581
3.98667	3581
3.98733	3581
3.98800	3582
3.98867	3582
3.98933	3582
3.99000	3582
3.99067	3583
3.99133	3583
3.99200	3583
3.99267	3584
3.99333	3584
3.99400	3585
3.99467	3585
3.99533	3586
3.99600	3587
3.99667	3587
3.99733	3588
3.99800	3589
3.99867	3590
3.99933	3591
4.00000	3592
4.00067	3593
4.00133	3594
4.00200	3595
4.00267	3596
4.00333	3597
4.00400	3598
4.00467	3599
4.00533	3601
4.00600	3602
4.00667	3604
4.00733	3605
4.00800	3607
4.00867	3608
4.00933	3610
4.01000	3612
4.01067	3613
4.01133	3615
4.01200	3617
4.01267	3619
4.01333	3621
4.01400	3623
4.01467	3626
4.01533	3628
4.01600	3630
4.01667	3633
4.01733	3635
4.01800	3638
4.01867	3641
4.01933	3643
4.02000	3646
4.02067	3649
4.02133	3652
4.02200	3655
4.02267	3658
4.02333	3661
4.02400	3665
4.02467	3668
4.02533	3672
4.02600	3675
4.02667	3679
4.02733	3683
4.02800	3687
4.02867	3691
4.02933	3695
4.03000	3699
4.03067	3703
4.03133	3708
4.03200	3712
4.03267	3717
4.03333	3721
4.03400	3726
4.03467	3731
4.03533	3736
4.03600	3741
4.03667	3746
4.03733	3751
4.03800	3756
4.03867	3762
4.03933	3767
4.04000	3772
4.04067	3778
4.04133	3784
4.04200	3789
4.04267	3795
4.04333	3801
4.04400	3807
4.04467	3813
4.04533	3819
4.04600	3825
4.04667	3831
4.04733	3837
4.04800	3843
4.04867	3849
4.04933	3855
4.05000	3862
4.05067	3868
4.05133	3874
4.05200	3880
4.05267	3887
4.05333	3893
4.05400	3899
4.05467	3905
4.05533	3912
4.05600	3918
4.05667	3924
4.05733	3931
4.05800	3937
4.05867	3943
4.05933	3950
4.06000	3956
4.06067	3962
4.06133	3968
4.06200	3975
4.06267	3981
4.06333	3987
4.06400	3993
4.06467	4000
4.06533	4006
4.06600	4012
4.06667	4018
4.06733	4024
4.06800	4030
4.06867	4037
4.06933	4043
4.07000	4049
4.07067	4054
4.07133	4060
4.07200	4066
4.07267	4072
4.07333	4078
4.07400	4083
4.07467	4089
4.07533	4094
4.07600	4100
4.07667	4105
4.07733	4110
4.07800	4115
4.07867	4120
4.07933	4125
4.08000	4129
4.08067	4134
4.08133	4138
4.08200	4143
4.08267	4147
4.08333	4151
4.08400	4155
4.08467	4159
4.08533	4163
4.08600	4167
4.08667	4171
4.08733	4174
4.08800	4178
4.08867	4181
4.08933	4184
4.09000	4188
4.09067	4191
4.09133	4194
4.09200	4197
4.09267	4199
4.09333	4202
4.09400	4205
4.09467	4207
4.09533	4210
4.09600	4212
4.09667	4214
4.09733	4216
4.09800	4219
4.09867	4221
4.09933	4223
4.10000	4224
4.10067	4226
4.10133	4228
4.10200	4230
4.10267	4231
4.10333	4233
4.10400	4234
4.10467	4236
4.10533	4237
4.10600	4238
4.10667	4240
4.10733	4241
4.10800	4242
4.10867	4243
4.10933	4244
4.11000	4245
4.11067	4246
4.11133	4247
4.11200	4247
4.11267	4248
4.11333	4249
4.11400	4250
4.11467	4250
4.11533	4251
4.11600	4252
4.11667	4252
4.11733	4253
4.11800	4253
4.11867	4254
4.11933	4254
4.12000	4255
4.12067	4255
4.12133	4255
4.12200	4256
4.12267	4256
4.12333	4256
4.12400	4257
4.12467	4257
4.12533	4257
4.12600	4258
4.12667	4258
4.12733	4259
4.12800	4259
4.12867	4259
4.12933	4260
4.13000	4260
4.13067	4261
4.13133	4261
4.13200	4261
4.13267	4262
4.13333	4262
4.13400	4262
4.13467	4263
4.13533	4263
4.13600	4263
4.13667	4264
4.13733	4264
4.13800	4265
4.13867	4265
4.13933	4266
4.14000	4266
4.14067	4267
4.14133	4267
4.14200	4268
4.14267	4268
4.14333	4269
4.14400	4270
4.14467	4270
4.14533	4271
4.14600	4272
4.14667	4272
4.14733	4273
4.14800	4274
4.14867	4274
4.14933	4275
4.15000	4276
4.15067	4276
4.15133	4277
4.15200	4277
4.15267	4278
4.15333	4279
4.15400	4280
4.15467	4280
4.15533	4281
4.15600	4282
4.15667	4283
4.15733	4283
4.15800	4284
4.15867	4285
4.15933	4286
4.16000	4286
4.16067	4287
4.16133	4288
4.16200	4289
4.16267	4290
4.16333	4291
4.16400	4292
4.16467	4292
4.16533	4293
4.16600	4294
4.16667	4295
4.16733	4296
4.16800	4297
4.16867	4298
4.16933	4300
4.17000	4301
4.17067	4302
4.17133	4303
4.17200	4304
4.17267	4305
4.17333	4307
4.17400	4308
4.17467	4309
4.17533	4311
4.17600	4312
4.17667	4314
4.17733	4315
4.17800	4317
4.17867	4318
4.17933	4320
4.18000	4321
4.18067	4323
4.18133	4325
4.18200	4327
4.18267	4329
4.18333	4331
4.18400	4333
4.18467	4335
4.18533	4337
4.18600	4340
4.18667	4342
4.18733	4345
4.18800	4347
4.18867	4350
4.18933	4352
4.19000	4355
4.19067	4358
4.19133	4361
4.19200	4364
4.19267	4368
4.19333	4371
4.19400	4374
4.19467	4378
4.19533	4382
4.19600	4386
4.19667	4390
4.19733	4394
4.19800	4398
4.19867	4403
4.19933	4407
4.20000	4412
4.20067	4417
4.20133	4422
4.20200	4427
4.20267	4432
4.20333	4438
4.20400	4443
4.20467	4449
4.20533	4455
4.20600	4462
4.20667	4468
4.20733	4475
4.20800	4482
4.20867	4489
4.20933	4497
4.21000	4504
4.21067	4512
4.21133	4521
4.21200	4529
4.21267	4538
4.21333	4547
4.21400	4557
4.21467	4567
4.21533	4577
4.21600	4587
4.21667	4598
4.21733	4609
4.21800	4620
4.21867	4632
4.21933	4644
4.22000	4657
4.22067	4670
4.22133	4683
4.22200	4697
4.22267	4712
4.22333	4726
4.22400	4742
4.22467	4757
4.22533	4774
4.22600	4790
4.22667	4807
4.22733	4825
4.22800	4843
4.22867	4862
4.22933	4881
4.23000	4901
4.23067	4921
4.23133	4942
4.23200	4963
4.23267	4985
4.23333	5007
4.23400	5030
4.23467	5054
4.23533	5078
4.23600	5103
4.23667	5128
4.23733	5154
4.23800	5181
4.23867	5208
4.23933	5236
4.24000	5265
4.24067	5294
4.24133	5324
4.24200	5354
4.24267	5386
4.24333	5418
4.24400	5451
4.24467	5484
4.24533	5519
4.24600	5554
4.24667	5589
4.24733	5626
4.24800	5663
4.24867	5701
4.24933	5740
4.25000	5780
4.25067	5821
4.25133	5862
4.25200	5904
4.25267	5947
4.25333	5991
4.25400	6035
4.25467	6080
4.25533	6126
4.25600	6173
4.25667	6221
4.25733	6270
4.25800	6319
4.25867	6369
4.25933	6421
4.26000	6473
4.26067	6526
4.26133	6579
4.26200	6634
4.26267	6690
4.26333	6747
4.26400	6804
4.26467	6863
4.26533	6922
4.26600	6983
4.26667	7044
4.26733	7106
4.26800	7170
4.26867	7234
4.26933	7299
4.27000	7366
4.27067	7433
4.27133	7501
4.27200	7570
4.27267	7640
4.27333	7710
4.27400	7782
4.27467	7855
4.27533	7928
4.27600	8003
4.27667	8078
4.27733	8154
4.27800	8231
4.27867	8309
4.27933	8388
4.28000	8467
4.28067	8547
4.28133	8629
4.28200	8711
4.28267	8794
4.28333	8878
4.28400	8963
4.28467	9049
4.28533	9136
4.28600	9224
4.28667	9313
4.28733	9403
4.28800	9494
4.28867	9585
4.28933	9678
4.29000	9771
4.29067	9865
4.29133	9959
4.29200	10055
4.29267	10151
4.29333	10247
4.29400	10345
4.29467	10443
4.29533	10542
4.29600	10641
4.29667	10741
4.29733	10842
4.29800	10943
4.29867	11045
4.29933	11147
4.30000	11251
4.30067	11354
4.30133	11458
4.30200	11563
4.30267	11669
4.30333	11774
4.30400	11881
4.30467	11987
4.30533	12094
4.30600	12201
4.30667	12309
4.30733	12416
4.30800	12524
4.30867	12632
4.30933	12739
4.31000	12847
4.31067	12954
4.31133	13061
4.31200	13168
4.31267	13274
4.31333	13380
4.31400	13485
4.31467	13590
4.31533	13695
4.31600	13798
4.31667	13901
4.31733	14003
4.31800	14104
4.31867	14204
4.31933	14302
4.32000	14400
4.32067	14497
4.32133	14592
4.32200	14686
4.32267	14779
4.32333	14870
4.32400	14960
4.32467	15048
4.32533	15135
4.32600	15220
4.32667	15304
4.32733	15385
4.32800	15465
4.32867	15543
4.32933	15619
4.33000	15693
4.33067	15764
4.33133	15834
4.33200	15902
4.33267	15967
4.33333	16031
4.33400	16092
4.33467	16151
4.33533	16208
4.33600	16263
4.33667	16315
4.33733	16365
4.33800	16413
4.33867	16458
4.33933	16501
4.34000	16541
4.34067	16578
4.34133	16613
4.34200	16646
4.34267	16675
4.34333	16703
4.34400	16728
4.34467	16750
4.34533	16771
4.34600	16788
4.34667	16803
4.34733	16816
4.34800	16826
4.34867	16834
4.34933	16840
4.35000	16843
4.35067	16843
4.35133	16842
4.35200	16838
4.35267	16832
4.35333	16824
4.35400	16813
4.35467	16801
4.35533	16786
4.35600	16770
4.35667	16751
4.35733	16731
4.35800	16708
4.35867	16684
4.35933	16659
4.36000	16631
4.36067	16602
4.36133	16572
4.36200	16540
4.36267	16506
4.36333	16472
4.36400	16436
4.36467	16399
4.36533	16361
4.36600	16323
4.36667	16283
4.36733	16242
4.36800	16201
4.36867	16159
4.36933	16116
4.37000	16072
4.37067	16028
4.37133	15984
4.37200	15939
4.37267	15894
4.37333	15849
4.37400	15804
4.37467	15759
4.37533	15713
4.37600	15669
4.37667	15624
4.37733	15580
4.37800	15536
4.37867	15493
4.37933	15450
4.38000	15409
4.38067	15368
4.38133	15328
4.38200	15289
4.38267	15251
4.38333	15214
4.38400	15179
4.38467	15145
4.38533	15112
4.38600	15080
4.38667	15050
4.38733	15021
4.38800	14994
4.38867	14969
4.38933	14945
4.39000	14923
4.39067	14902
4.39133	14884
4.39200	14867
4.39267	14852
4.39333	14839
4.39400	14829
4.39467	14820
4.39533	14813
4.39600	14809
4.39667	14807
4.39733	14807
4.39800	14809
4.39867	14813
4.39933	14820
4.40000	14829
4.40067	14840
4.40133	14854
4.40200	14870
4.40267	14888
4.40333	14908
4.40400	14931
4.40467	14956
4.40533	14984
4.40600	15014
4.40667	15046
4.40733	15080
4.40800	15117
4.40867	15156
4.40933	15197
4.41000	15241
4.41067	15287
4.41133	15334
4.41200	15384
4.41267	15436
4.41333	15489
4.41400	15545
4.41467	15602
4.41533	15661
4.41600	15721
4.41667	15783
4.41733	15846
4.41800	15910
4.41867	15976
4.41933	16043
4.42000	16110
4.42067	16179
4.42133	16249
4.42200	16320
4.42267	16391
4.42333	16463
4.42400	16536
4.42467	16609
4.42533	16683
4.42600	16757
4.42667	16832
4.42733	16908
4.42800	16983
4.42867	17059
4.42933	17135
4.43000	17212
4.43067	17288
4.43133	17365
4.43200	17441
4.43267	17517
4.43333	17593
4.43400	17669
4.43467	17744
4.43533	17818
4.43600	17892
4.43667	17965
4.43733	18037
4.43800	18108
4.43867	18178
4.43933	18247
4.44000	18315
4.44067	18382
4.44133	18447
4.44200	18510
4.44267	18572
4.44333	18633
4.44400	18692
4.44467	18749
4.44533	18804
4.44600	18858
4.44667	18909
4.44733	18959
4.44800	19007
4.44867	19052
4.44933	19095
4.45000	19136
4.45067	19175
4.45133	19211
4.45200	19245
4.45267	19277
4.45333	19305
4.45400	19331
4.45467	19355
4.45533	19376
4.45600	19394
4.45667	19410
4.45733	19423
4.45800	19433
4.45867	19441
4.45933	19445
4.46000	19447
4.46067	19447
4.46133	19443
4.46200	19437
4.46267	19428
4.46333	19417
4.46400	19402
4.46467	19385
4.46533	19365
4.46600	19342
4.46667	19317
4.46733	19289
4.46800	19258
4.46867	19225
4.46933	19189
4.47000	19151
4.47067	19110
4.47133	19066
4.47200	19020
4.47267	18972
4.47333	18921
4.47400	18868
4.47467	18813
4.47533	18755
4.47600	18696
4.47667	18634
4.47733	18571
4.47800	18505
4.47867	18438
4.47933	18369
4.48000	18298
4.48067	18225
4.48133	18151
4.48200	18075
4.48267	17997
4.48333	17918
4.48400	17837
4.48467	17756
4.48533	17672
4.48600	17588
4.48667	17502
4.48733	17416
4.48800	17328
4.48867	17239
4.48933	17150
4.49000	17060
4.49067	16968
4.49133	16877
4.49200	16784
4.49267	16691
4.49333	16598
4.49400	16505
4.49467	16411
4.49533	16316
4.49600	16222
4.49667	16128
4.49733	16034
4.49800	15940
4.49867	15846
4.49933	15752
4.50000	15659
4.50067	15566
4.50133	15474
4.50200	15382
4.50267	15291
4.50333	15201
4.50400	15112
4.50467	15024
4.50533	14936
4.50600	14850
4.50667	14765
4.50733	14681
4.50800	14599
4.50867	14518
4.50933	14438
4.51000	14360
4.51067	14284
4.51133	14210
4.51200	14138
4.51267	14067
4.51333	13999
4.51400	13932
4.51467	13868
4.51533	13806
4.51600	13747
4.51667	13690
4.51733	13635
4.51800	13583
4.51867	13533
4.51933	13486
4.52000	13442
4.52067	13400
4.52133	13362
4.52200	13326
4.52267	13293
4.52333	13264
4.52400	13237
4.52467	13214
4.52533	13194
4.52600	13178
4.52667	13164
4.52733	13155
4.52800	13149
4.52867	13146
4.52933	13148
4.53000	13152
4.53067	13161
4.53133	13174
4.53200	13190
4.53267	13211
4.53333	13235
4.53400	13264
4.53467	13296
4.53533	13333
4.53600	13374
4.53667	13419
4.53733	13469
4.53800	13523
4.53867	13581
4.53933	13644
4.54000	13712
4.54067	13784
4.54133	13861
4.54200	13943
4.54267	14030
4.54333	14121
4.54400	14218
4.54467	14319
4.54533	14425
4.54600	14535
4.54667	14651
4.54733	14771
4.54800	14897
4.54867	15026
4.54933	15161
4.55000	15300
4.55067	15444
4.55133	15592
4.55200	15745
4.55267	15903
4.55333	16065
4.55400	16232
4.55467	16403
4.55533	16579
4.55600	16760
4.55667	16944
4.55733	17134
4.55800	17327
4.55867	17525
4.55933	17727
4.56000	17933
4.56067	18142
4.56133	18356
4.56200	18574
4.56267	18795
4.56333	19020
4.56400	19248
4.56467	19479
4.56533	19714
4.56600	19951
4.56667	20191
4.56733	20434
4.56800	20680
4.56867	20928
4.56933	21178
4.57000	21430
4.57067	21684
4.57133	21940
4.57200	22197
4.57267	22457
4.57333	22718
4.57400	22980
4.57467	23244
4.57533	23509
4.57600	23776
4.57667	24043
4.57733	24312
4.57800	24581
4.57867	24851
4.57933	25121
4.58000	25392
4.58067	25663
4.58133	25933
4.58200	26203
4.58267	26473
4.58333	26743
4.58400	27012
4.58467	27280
4.58533	27546
4.58600	27812
4.58667	28077
4.58733	28340
4.58800	28601
4.58867	28861
4.58933	29119
4.59000	29375
4.59067	29629
4.59133	29880
4.59200	30129
4.59267	30375
4.59333	30618
4.59400	30858
4.59467	31094
4.59533	31328
4.59600	31557
4.59667	31784
4.59733	32006
4.59800	32225
4.59867	32439
4.59933	32650
4.60000	32857
4.60067	33059
4.60133	33257
4.60200	33451
4.60267	33640
4.60333	33825
4.60400	34005
4.60467	34180
4.60533	34350
4.60600	34515
4.60667	34674
4.60733	34829
4.60800	34979
4.60867	35122
4.60933	35261
4.61000	35394
4.61067	35521
4.61133	35643
4.61200	35758
4.61267	35868
4.61333	35972
4.61400	36070
4.61467	36163
4.61533	36249
4.61600	36330
4.61667	36405
4.61733	36474
4.61800	36538
4.61867	36596
4.61933	36648
4.62000	36695
4.62067	36737
4.62133	36773
4.62200	36803
4.62267	36829
4.62333	36849
4.62400	36863
4.62467	36873
4.62533	36877
4.62600	36876
4.62667	36870
4.62733	36860
4.62800	36845
4.62867	36825
4.62933	36800
4.63000	36772
4.63067	36739
4.63133	36702
4.63200	36662
4.63267	36617
4.63333	36568
4.63400	36516
4.63467	36460
4.63533	36400
4.63600	36337
4.63667	36270
4.63733	36200
4.63800	36127
4.63867	36051
4.63933	35972
4.64000	35890
4.64067	35805
4.64133	35717
4.64200	35626
4.64267	35533
4.64333	35437
4.64400	35339
4.64467	35238
4.64533	35135
4.64600	35029
4.64667	34922
4.64733	34812
4.64800	34700
4.64867	34587
4.64933	34471
4.65000	34354
4.65067	34236
4.65133	34116
4.65200	33994
4.65267	33871
4.65333	33748
4.65400	33623
4.65467	33497
4.65533	33370
4.65600	33242
4.65667	33114
4.65733	32985
4.65800	32855
4.65867	32725
4.65933	32594
4.66000	32463
4.66067	32331
4.66133	32200
4.66200	32068
4.66267	31936
4.66333	31804
4.66400	31672
4.66467	31540
4.66533	31408
4.66600	31276
4.66667	31144
4.66733	31013
4.66800	30882
4.66867	30752
4.66933	30621
4.67000	30491
4.67067	30362
4.67133	30233
4.67200	30104
4.67267	29976
4.67333	29849
4.67400	29722
4.67467	29596
4.67533	29470
4.67600	29345
4.67667	29221
4.67733	29098
4.67800	28976
4.67867	28854
4.67933	28733
4.68000	28614
4.68067	28495
4.68133	28377
4.68200	28260
4.68267	28145
4.68333	28030
4.68400	27917
4.68467	27805
4.68533	27693
4.68600	27583
4.68667	27474
4.68733	27366
4.68800	27259
4.68867	27153
4.68933	27048
4.69000	26944
4.69067	26841
4.69133	26739
4.69200	26638
4.69267	26538
4.69333	26439
4.69400	26341
4.69467	26243
4.69533	26147
4.69600	26052
4.69667	25958
4.69733	25864
4.69800	25772
4.69867	25680
4.69933	25589
4.70000	25499
4.70067	25411
4.70133	25323
4.70200	25236
4.70267	25150
4.70333	25065
4.70400	24980
4.70467	24897
4.70533	24815
4.70600	24733
4.70667	24653
4.70733	24573
4.70800	24494
4.70867	24417
4.70933	24340
4.71000	24264
4.71067	24189
4.71133	24114
4.71200	24041
4.71267	23969
4.71333	23897
4.71400	23826
4.71467	23757
4.71533	23687
4.71600	23619
4.71667	23552
4.71733	23485
4.71800	23419
4.71867	23353
4.71933	23288
4.72000	23224
4.72067	23161
4.72133	23098
4.72200	23036
4.72267	22975
4.72333	22914
4.72400	22855
4.72467	22796
4.72533	22737
4.72600	22679
4.72667	22622
4.72733	22566
4.72800	22511
4.72867	22456
4.72933	22401
4.73000	22348
4.73067	22295
4.73133	22242
4.73200	22191
4.73267	22139
4.73333	22088
4.73400	22038
4.73467	21988
4.73533	21939
4.73600	21890
4.73667	21842
4.73733	21794
4.73800	21746
4.73867	21699
4.73933	21652
4.74000	21606
4.74067	21561
4.74133	21515
4.74200	21470
4.74267	21426
4.74333	21382
4.74400	21338
4.74467	21294
4.74533	21251
4.74600	21208
4.74667	21166
4.74733	21123
4.74800	21081
4.74867	21040
4.74933	20998
4.75000	20957
4.75067	20916
4.75133	20875
4.75200	20835
4.75267	20795
4.75333	20755
4.75400	20715
4.75467	20675
4.75533	20636
4.75600	20597
4.75667	20558
4.75733	20519
4.75800	20480
4.75867	20442
4.75933	20404
4.76000	20366
4.76067	20328
4.76133	20290
4.76200	20253
4.76267	20216
4.76333	20179
4.76400	20143
4.76467	20107
4.76533	20071
4.76600	20035
4.76667	19999
4.76733	19964
4.76800	19929
4.76867	19894
4.76933	19859
4.77000	19825
4.77067	19791
4.77133	19757
4.77200	19723
4.77267	19690
4.77333	19656
4.77400	19623
4.77467	19591
4.77533	19558
4.77600	19526
4.77667	19494
4.77733	19462
4.77800	19431
4.77867	19400
4.77933	19369
4.78000	19338
4.78067	19308
4.78133	19277
4.78200	19247
4.78267	19217
4.78333	19188
4.78400	19158
4.78467	19129
4.78533	19100
4.78600	19071
4.78667	19043
4.78733	19014
4.78800	18986
4.78867	18958
4.78933	18930
4.79000	18902
4.79067	18875
4.79133	18847
4.79200	18820
4.79267	18792
4.79333	18765
4.79400	18738
4.79467	18711
4.79533	18684
4.79600	18657
4.79667	18631
4.79733	18604
4.79800	18578
4.79867	18552
4.79933	18526
4.80000	18500
4.80067	18474
4.80133	18449
4.80200	18423
4.80267	18398
4.80333	18373
4.80400	18348
4.80467	18324
4.80533	18299
4.80600	18275
4.80667	18251
4.80733	18227
4.80800	18204
4.80867	18180
4.80933	18157
4.81000	18134
4.81067	18111
4.81133	18088
4.81200	18066
4.81267	18043
4.81333	18021
4.81400	17998
4.81467	17976
4.81533	17954
4.81600	17932
4.81667	17909
4.81733	17887
4.81800	17865
4.81867	17843
4.81933	17820
4.82000	17798
4.82067	17776
4.82133	17754
4.82200	17731
4.82267	17709
4.82333	17687
4.82400	17664
4.82467	17642
4.82533	17620
4.82600	17597
4.82667	17575
4.82733	17553
4.82800	17531
4.82867	17509
4.82933	17487
4.83000	17465
4.83067	17443
4.83133	17422
4.83200	17401
4.83267	17379
4.83333	17358
4.83400	17337
4.83467	17316
4.83533	17295
4.83600	17275
4.83667	17254
4.83733	17233
4.83800	17213
4.83867	17193
4.83933	17172
4.84000	17152
4.84067	17131
4.84133	17111
4.84200	17091
4.84267	17071
4.84333	17051
4.84400	17031
4.84467	17011
4.84533	16991
4.84600	16971
4.84667	16951
4.84733	16932
4.84800	16912
4.84867	16893
4.84933	16874
4.85000	16854
4.85067	16835
4.85133	16816
4.85200	16797
4.85267	16779
4.85333	16760
4.85400	16742
4.85467	16724
4.85533	16705
4.85600	16687
4.85667	16669
4.85733	16651
4.85800	16633
4.85867	16615
4.85933	16597
4.86000	16579
4.86067	16561
4.86133	16542
4.86200	16524
4.86267	16506
4.86333	16487
4.86400	16469
4.86467	16450
4.86533	16432
4.86600	16413
4.86667	16395
4.86733	16376
4.86800	16358
4.86867	16340
4.86933	16321
4.87000	16303
4.87067	16285
4.87133	16267
4.87200	16250
4.87267	16232
4.87333	16215
4.87400	16197
4.87467	16180
4.87533	16163
4.87600	16146
4.87667	16129
4.87733	16112
4.87800	16095
4.87867	16078
4.87933	16061
4.88000	16045
4.88067	16028
4.88133	16011
4.88200	15995
4.88267	15978
4.88333	15962
4.88400	15945
4.88467	15929
4.88533	15913
4.88600	15896
4.88667	15880
4.88733	15863
4.88800	15847
4.88867	15831
4.88933	15814
4.89000	15798
4.89067	15782
4.89133	15766
4.89200	15750
4.89267	15734
4.89333	15717
4.89400	15701
4.89467	15685
4.89533	15669
4.89600	15653
4.89667	15636
4.89733	15620
4.89800	15603
4.89867	15587
4.89933	15570
4.90000	15553
4.90067	15537
4.90133	15520
4.90200	15504
4.90267	15487
4.90333	15471
4.90400	15455
4.90467	15439
4.90533	15423
4.90600	15407
4.90667	15391
4.90733	15375
4.90800	15359
4.90867	15343
4.90933	15327
4.91000	15311
4.91067	15295
4.91133	15279
4.91200	15263
4.91267	15247
4.91333	15231
4.91400	15215
4.91467	15199
4.91533	15184
4.91600	15168
4.91667	15152
4.91733	15137
4.91800	15122
4.91867	15106
4.91933	15091
4.92000	15076
4.92067	15061
4.92133	15046
4.92200	15031
4.92267	15017
4.92333	15002
4.92400	14988
4.92467	14973
4.92533	14959
4.92600	14944
4.92667	14930
4.92733	14916
4.92800	14902
4.92867	14887
4.92933	14873
4.93000	14859
4.93067	14845
4.93133	14831
4.93200	14818
4.93267	14804
4.93333	14790
4.93400	14776
4.93467	14763
4.93533	14749
4.93600	14736
4.93667	14722
4.93733	14709
4.93800	14695
4.93867	14682
4.93933	14669
4.94000	14655
4.94067	14642
4.94133	14629
4.94200	14616
4.94267	14602
4.94333	14589
4.94400	14576
4.94467	14563
4.94533	14549
4.94600	14536
4.94667	14523
4.94733	14509
4.94800	14496
4.94867	14482
4.94933	14469
4.95000	14455
4.95067	14441
4.95133	14428
4.95200	14414
4.95267	14400
4.95333	14386
4.95400	14372
4.95467	14359
4.95533	14345
4.95600	14331
4.95667	14317
4.95733	14303
4.95800	14289
4.95867	14275
4.95933	14261
4.96000	14248
4.96067	14234
4.96133	14220
4.96200	14206
4.96267	14193
4.96333	14179
4.96400	14166
4.96467	14152
4.96533	14139
4.96600	14126
4.96667	14113
4.96733	14100
4.96800	14087
4.96867	14074
4.96933	14061
4.97000	14047
4.97067	14034
4.97133	14021
4.97200	14008
4.97267	13995
4.97333	13981
4.97400	13968
4.97467	13954
4.97533	13941
4.97600	13927
4.97667	13914
4.97733	13900
4.97800	13887
4.97867	13873
4.97933	13859
4.98000	13846
4.98067	13833
4.98133	13819
4.98200	13806
4.98267	13792
4.98333	13779
4.98400	13766
4.98467	13753
4.98533	13740
4.98600	13727
4.98667	13714
4.98733	13701
4.98800	13688
4.98867	13675
4.98933	13662
4.99000	13649
4.99067	13637
4.99133	13624
4.99200	13612
4.99267	13599
4.99333	13587
4.99400	13575
4.99467	13563
4.99533	13551
4.99600	13539
4.99667	13527
4.99733	13515
4.99800	13504
4.99867	13492
4.99933	13481
5.00000	13470
5.00067	13459
5.00133	13448
5.00200	13437
5.00267	13426
5.00333	13415
5.00400	13404
5.00467	13393
5.00533	13382
5.00600	13371
5.00667	13360
5.00733	13350
5.00800	13339
5.00867	13328
5.00933	13318
5.01000	13308
5.01067	13297
5.01133	13287
5.01200	13277
5.01267	13267
5.01333	13257
5.01400	13247
5.01467	13238
5.01533	13228
5.01600	13219
5.01667	13209
5.01733	13200
5.01800	13191
5.01867	13182
5.01933	13173
5.02000	13164
5.02067	13155
5.02133	13146
5.02200	13138
5.02267	13129
5.02333	13120
5.02400	13111
5.02467	13102
5.02533	13094
5.02600	13085
5.02667	13076
5.02733	13067
5.02800	13059
5.02867	13050
5.02933	13041
5.03000	13032
5.03067	13023
5.03133	13014
5.03200	13005
5.03267	12996
5.03333	12987
5.03400	12978
5.03467	12969
5.03533	12960
5.03600	12950
5.03667	12941
5.03733	12932
5.03800	12922
5.03867	12913
5.03933	12904
5.04000	12894
5.04067	12885
5.04133	12875
5.04200	12866
5.04267	12856
5.04333	12847
5.04400	12837
5.04467	12828
5.04533	12818
5.04600	12808
5.04667	12799
5.04733	12789
5.04800	12779
5.04867	12769
5.04933	12759
5.05000	12749
5.05067	12739
5.05133	12729
5.05200	12719
5.05267	12709
5.05333	12698
5.05400	12688
5.05467	12677
5.05533	12667
5.05600	12656
5.05667	12645
5.05733	12635
5.05800	12624
5.05867	12613
5.05933	12602
5.06000	12591
5.06067	12580
5.06133	12569
5.06200	12558
5.06267	12547
5.06333	12536
5.06400	12525
5.06467	12514
5.06533	12503
5.06600	12492
5.06667	12481
5.06733	12471
5.06800	12460
5.06867	12449
5.06933	12439
5.07000	12428
5.07067	12418
5.07133	12408
5.07200	12397
5.07267	12387
5.07333	12377
5.07400	12367
5.07467	12357
5.07533	12347
5.07600	12337
5.07667	12327
5.07733	12318
5.07800	12308
5.07867	12299
5.07933	12290
5.08000	12281
5.08067	12272
5.08133	12263
5.08200	12254
5.08267	12246
5.08333	12237
5.08400	12229
5.08467	12221
5.08533	12212
5.08600	12204
5.08667	12196
5.08733	12188
5.08800	12181
5.08867	12173
5.08933	12165
5.09000	12158
5.09067	12150
5.09133	12143
5.09200	12135
5.09267	12128
5.09333	12121
5.09400	12114
5.09467	12106
5.09533	12099
5.09600	12092
5.09667	12085
5.09733	12078
5.09800	12070
5.09867	12063
5.09933	12056
5.10000	12049
5.10067	12042
5.10133	12035
5.10200	12028
5.10267	12021
5.10333	12014
5.10400	12007
5.10467	12000
5.10533	11993
5.10600	11986
5.10667	11980
5.10733	11973
5.10800	11966
5.10867	11960
5.10933	11953
5.11000	11946
5.11067	11939
5.11133	11933
5.11200	11926
5.11267	11919
5.11333	11912
5.11400	11905
5.11467	11899
5.11533	11892
5.11600	11885
5.11667	11879
5.11733	11872
5.11800	11866
5.11867	11859
5.11933	11853
5.12000	11846
5.12067	11840
5.12133	11834
5.12200	11827
5.12267	11821
5.12333	11815
5.12400	11808
5.12467	11802
5.12533	11796
5.12600	11790
5.12667	11783
5.12733	11777
5.12800	11771
5.12867	11764
5.12933	11758
5.13000	11752
5.13067	11746
5.13133	11739
5.13200	11733
5.13267	11727
5.13333	11720
5.13400	11714
5.13467	11707
5.13533	11701
5.13600	11695
5.13667	11688
5.13733	11682
5.13800	11676
5.13867	11670
5.13933	11664
5.14000	11658
5.14067	11652
5.14133	11646
5.14200	11640
5.14267	11634
5.14333	11629
5.14400	11623
5.14467	11618
5.14533	11613
5.14600	11608
5.14667	11603
5.14733	11598
5.14800	11593
5.14867	11588
5.14933	11584
5.15000	11579
5.15067	11575
5.15133	11571
5.15200	11567
5.15267	11564
5.15333	11560
5.15400	11557
5.15467	11555
5.15533	11552
5.15600	11549
5.15667	11547
5.15733	11545
5.15800	11543
5.15867	11541
5.15933	11540
5.16000	11539
5.16067	11538
5.16133	11537
5.16200	11536
5.16267	11535
5.16333	11535
5.16400	11534
5.16467	11534
5.16533	11534
5.16600	11535
5.16667	11535
5.16733	11536
5.16800	11536
5.16867	11537
5.16933	11538
5.17000	11539
5.17067	11541
5.17133	11542
5.17200	11544
5.17267	11546
5.17333	11548
5.17400	11550
5.17467	11552
5.17533	11554
5.17600	11557
5.17667	11559
5.17733	11562
5.17800	11564
5.17867	11567
5.17933	11570
5.18000	11573
5.18067	11576
5.18133	11579
5.18200	11582
5.18267	11586
5.18333	11589
5.18400	11593
5.18467	11597
5.18533	11601
5.18600	11605
5.18667	11609
5.18733	11613
5.18800	11617
5.18867	11622
5.18933	11626
5.19000	11630
5.19067	11635
5.19133	11639
5.19200	11644
5.19267	11648
5.19333	11652
5.19400	11657
5.19467	11661
5.19533	11665
5.19600	11670
5.19667	11674
5.19733	11678
5.19800	11682
5.19867	11686
5.19933	11690
5.20000	11694
5.20067	11698
5.20133	11702
5.20200	11706
5.20267	11709
5.20333	11713
5.20400	11716
5.20467	11720
5.20533	11723
5.20600	11726
5.20667	11729
5.20733	11732
5.20800	11735
5.20867	11738
5.20933	11741
5.21000	11743
5.21067	11746
5.21133	11748
5.21200	11750
5.21267	11752
5.21333	11754
5.21400	11756
5.21467	11757
5.21533	11759
5.21600	11760
5.21667	11761
5.21733	11762
5.21800	11763
5.21867	11763
5.21933	11764
5.22000	11764
5.22067	11764
5.22133	11764
5.22200	11764
5.22267	11764
5.22333	11763
5.22400	11763
5.22467	11762
5.22533	11761
5.22600	11760
5.22667	11758
5.22733	11757
5.22800	11755
5.22867	11753
5.22933	11751
5.23000	11748
5.23067	11746
5.23133	11743
5.23200	11740
5.23267	11737
5.23333	11733
5.23400	11730
5.23467	11726
5.23533	11722
5.23600	11718
5.23667	11714
5.23733	11709
5.23800	11704
5.23867	11700
5.23933	11695
5.24000	11689
5.24067	11684
5.24133	11679
5.24200	11673
5.24267	11667
5.24333	11662
5.24400	11656
5.24467	11649
5.24533	11643
5.24600	11637
5.24667	11630
5.24733	11624
5.24800	11617
5.24867	11610
5.24933	11603
5.25000	11596
5.25067	11588
5.25133	11581
5.25200	11573
5.25267	11565
5.25333	11557
5.25400	11549
5.25467	11541
5.25533	11532
5.25600	11523
5.25667	11514
5.25733	11506
5.25800	11496
5.25867	11487
5.25933	11478
5.26000	11469
5.26067	11459
5.26133	11450
5.26200	11440
5.26267	11431
5.26333	11421
5.26400	11411
5.26467	11401
5.26533	11391
5.26600	11381
5.26667	11370
5.26733	11360
5.26800	11350
5.26867	11339
5.26933	11328
5.27000	11317
5.27067	11307
5.27133	11296
5.27200	11284
5.27267	11273
5.27333	11262
5.27400	11250
5.27467	11238
5.27533	11226
5.27600	11214
5.27667	11202
5.27733	11190
5.27800	11178
5.27867	11165
5.27933	11152
5.28000	11140
5.28067	11127
5.28133	11114
5.28200	11101
5.28267	11088
5.28333	11075
5.28400	11062
5.28467	11048
5.28533	11035
5.28600	11022
5.28667	11009
5.28733	10995
5.28800	10982
5.28867	10969
5.28933	10956
5.29000	10942
5.29067	10929
5.29133	10916
5.29200	10903
5.29267	10890
5.29333	10877
5.29400	10863
5.29467	10850
5.29533	10837
5.29600	10824
5.29667	10811
5.29733	10798
5.29800	10785
5.29867	10771
5.29933	10758
5.30000	10745
5.30067	10732
5.30133	10719
5.30200	10706
5.30267	10693
5.30333	10680
5.30400	10667
5.30467	10655
5.30533	10642
5.30600	10629
5.30667	10617
5.30733	10604
5.30800	10592
5.30867	10579
5.30933	10567
5.31000	10555
5.31067	10543
5.31133	10531
5.31200	10519
5.31267	10508
5.31333	10496
5.31400	10485
5.31467	10473
5.31533	10462
5.31600	10450
5.31667	10439
5.31733	10428
5.31800	10417
5.31867	10405
5.31933	10394
5.32000	10383
5.32067	10372
5.32133	10361
5.32200	10351
5.32267	10340
5.32333	10329
5.32400	10318
5.32467	10308
5.32533	10298
5.32600	10287
5.32667	10277
5.32733	10267
5.32800	10257
5.32867	10246
5.32933	10236
5.33000	10226
5.33067	10216
5.33133	10207
5.33200	10197
5.33267	10187
5.33333	10177
5.33400	10168
5.33467	10158
5.33533	10148
5.33600	10139
5.33667	10129
5.33733	10120
5.33800	10110
5.33867	10100
5.33933	10091
5.34000	10081
5.34067	10071
5.34133	10062
5.34200	10052
5.34267	10043
5.34333	10033
5.34400	10024
5.34467	10014
5.34533	10005
5.34600	9996
5.34667	9986
5.34733	9977
5.34800	9968
5.34867	9958
5.34933	9949
5.35000	9940
5.35067	9931
5.35133	9921
5.35200	9912
5.35267	9903
5.35333	9894
5.35400	9885
5.35467	9877
5.35533	9868
5.35600	9859
5.35667	9850
5.35733	9842
5.35800	9833
5.35867	9824
5.35933	9816
5.36000	9807
5.36067	9799
5.36133	9791
5.36200	9782
5.36267	9774
5.36333	9766
5.36400	9758
5.36467	9750
5.36533	9742
5.36600	9734
5.36667	9726
5.36733	9718
5.36800	9710
5.36867	9703
5.36933	9695
5.37000	9687
5.37067	9679
5.37133	9671
5.37200	9664
5.37267	9656
5.37333	9648
5.37400	9640
5.37467	9632
5.37533	9624
5.37600	9616
5.37667	9609
5.37733	9601
5.37800	9593
5.37867	9585
5.37933	9577
5.38000	9569
5.38067	9561
5.38133	9553
5.38200	9545
5.38267	9538
5.38333	9530
5.38400	9522
5.38467	9515
5.38533	9507
5.38600	9500
5.38667	9492
5.38733	9485
5.38800	9477
5.38867	9470
5.38933	9463
5.39000	9456
5.39067	9449
5.39133	9442
5.39200	9434
5.39267	9427
5.39333	9420
5.39400	9413
5.39467	9406
5.39533	9399
5.39600	9392
5.39667	9385
5.39733	9377
5.39800	9370
5.39867	9363
5.39933	9356
5.40000	9349
5.40067	9342
5.40133	9335
5.40200	9328
5.40267	9322
5.40333	9315
5.40400	9308
5.40467	9302
5.40533	9295
5.40600	9288
5.40667	9282
5.40733	9276
5.40800	9269
5.40867	9263
5.40933	9257
5.41000	9250
5.41067	9244
5.41133	9238
5.41200	9232
5.41267	9226
5.41333	9219
5.41400	9213
5.41467	9207
5.41533	9201
5.41600	9194
5.41667	9188
5.41733	9181
5.41800	9175
5.41867	9168
5.41933	9162
5.42000	9155
5.42067	9149
5.42133	9142
5.42200	9136
5.42267	9129
5.42333	9123
5.42400	9116
5.42467	9110
5.42533	9104
5.42600	9097
5.42667	9091
5.42733	9085
5.42800	9078
5.42867	9072
5.42933	9066
5.43000	9059
5.43067	9053
5.43133	9047
5.43200	9040
5.43267	9034
5.43333	9028
5.43400	9021
5.43467	9015
5.43533	9009
5.43600	9003
5.43667	8997
5.43733	8990
5.43800	8984
5.43867	8978
5.43933	8972
5.44000	8966
5.44067	8960
5.44133	8954
5.44200	8948
5.44267	8942
5.44333	8936
5.44400	8930
5.44467	8924
5.44533	8917
5.44600	8911
5.44667	8905
5.44733	8899
5.44800	8893
5.44867	8887
5.44933	8881
5.45000	8874
5.45067	8868
5.45133	8862
5.45200	8856
5.45267	8850
5.45333	8844
5.45400	8838
5.45467	8832
5.45533	8826
5.45600	8820
5.45667	8814
5.45733	8809
5.45800	8803
5.45867	8797
5.45933	8791
5.46000	8785
5.46067	8779
5.46133	8773
5.46200	8768
5.46267	8762
5.46333	8756
5.46400	8750
5.46467	8745
5.46533	8739
5.46600	8733
5.46667	8728
5.46733	8722
5.46800	8716
5.46867	8711
5.46933	8705
5.47000	8699
5.47067	8694
5.47133	8688
5.47200	8683
5.47267	8677
5.47333	8671
5.47400	8666
5.47467	8660
5.47533	8655
5.47600	8649
5.47667	8643
5.47733	8638
5.47800	8632
5.47867	8627
5.47933	8621
5.48000	8616
5.48067	8610
5.48133	8605
5.48200	8600
5.48267	8594
5.48333	8589
5.48400	8584
5.48467	8579
5.48533	8573
5.48600	8568
5.48667	8563
5.48733	8558
5.48800	8553
5.48867	8548
5.48933	8543
5.49000	8538
5.49067	8533
5.49133	8527
5.49200	8522
5.49267	8517
5.49333	8512
5.49400	8506
5.49467	8501
5.49533	8496
5.49600	8490
5.49667	8485
5.49733	8480
5.49800	8475
5.49867	8470
5.49933	8465
5.50000	8459
5.50067	8454
5.50133	8449
5.50200	8444
5.50267	8439
5.50333	8434
5.50400	8429
5.50467	8424
5.50533	8419
5.50600	8414
5.50667	8409
5.50733	8404
5.50800	8398
5.50867	8393
5.50933	8389
5.51000	8384
5.51067	8379
5.51133	8374
5.51200	8369
5.51267	8364
5.51333	8359
5.51400	8355
5.51467	8350
5.51533	8345
5.51600	8340
5.51667	8336
5.51733	8331
5.51800	8326
5.51867	8321
5.51933	8317
5.52000	8312
5.52067	8307
5.52133	8303
5.52200	8298
5.52267	8293
5.52333	8289
5.52400	8284
5.52467	8279
5.52533	8275
5.52600	8270
5.52667	8266
5.52733	8261
5.52800	8256
5.52867	8252
5.52933	8247
5.53000	8243
5.53067	8238
5.53133	8234
5.53200	8230
5.53267	8225
5.53333	8221
5.53400	8216
5.53467	8212
5.53533	8208
5.53600	8203
5.53667	8199
5.53733	8195
5.53800	8190
5.53867	8186
5.53933	8182
5.54000	8177
5.54067	8173
5.54133	8169
5.54200	8165
5.54267	8160
5.54333	8156
5.54400	8152
5.54467	8148
5.54533	8143
5.54600	8139
5.54667	8135
5.54733	8131
5.54800	8127
5.54867	8123
5.54933	8119
5.55000	8115
5.55067	8111
5.55133	8107
5.55200	8103
5.55267	8099
5.55333	8095
5.55400	8091
5.55467	8087
5.55533	8084
5.55600	8080
5.55667	8076
5.55733	8072
5.55800	8068
5.55867	8064
5.55933	8060
5.56000	8056
5.56067	8052
5.56133	8048
5.56200	8044
5.56267	8040
5.56333	8037
5.56400	8033
5.56467	8029
5.56533	8025
5.56600	8021
5.56667	8017
5.56733	8013
5.56800	8009
5.56867	8005
5.56933	8000
5.57000	7996
5.57067	7992
5.57133	7988
5.57200	7984
5.57267	7980
5.57333	7976
5.57400	7972
5.57467	7968
5.57533	7964
5.57600	7959
5.57667	7955
5.57733	7951
5.57800	7947
5.57867	7943
5.57933	7939
5.58000	7935
5.58067	7931
5.58133	7927
5.58200	7923
5.58267	7919
5.58333	7915
5.58400	7911
5.58467	7907
5.58533	7903
5.58600	7899
5.58667	7895
5.58733	7891
5.58800	7887
5.58867	7883
5.58933	7879
5.59000	7875
5.59067	7872
5.59133	7868
5.59200	7864
5.59267	7860
5.59333	7856
5.59400	7852
5.59467	7848
5.59533	7844
5.59600	7841
5.59667	7837
5.59733	7833
5.59800	7829
5.59867	7825
5.59933	7822
5.60000	7818
5.60067	7814
5.60133	7810
5.60200	7807
5.60267	7803
5.60333	7799
5.60400	7796
5.60467	7792
5.60533	7789
5.60600	7785
5.60667	7781
5.60733	7778
5.60800	7774
5.60867	7771
5.60933	7767
5.61000	7764
5.61067	7760
5.61133	7756
5.61200	7753
5.61267	7749
5.61333	7746
5.61400	7742
5.61467	7739
5.61533	7735
5.61600	7732
5.61667	7728
5.61733	7725
5.61800	7721
5.61867	7717
5.61933	7714
5.62000	7710
5.62067	7707
5.62133	7703
5.62200	7700
5.62267	7696
5.62333	7693
5.62400	7689
5.62467	7686
5.62533	7682
5.62600	7679
5.62667	7675
5.62733	7672
5.62800	7668
5.62867	7664
5.62933	7661
5.63000	7657
5.63067	7653
5.63133	7650
5.63200	7646
5.63267	7642
5.63333	7638
5.63400	7635
5.63467	7631
5.63533	7627
5.63600	7623
5.63667	7619
5.63733	7615
5.63800	7611
5.63867	7607
5.63933	7603
5.64000	7599
5.64067	7596
5.64133	7592
5.64200	7588
5.64267	7584
5.64333	7580
5.64400	7576
5.64467	7572
5.64533	7568
5.64600	7565
5.64667	7561
5.64733	7557
5.64800	7553
5.64867	7550
5.64933	7546
5.65000	7542
5.65067	7539
5.65133	7535
5.65200	7531
5.65267	7528
5.65333	7524
5.65400	7521
5.65467	7518
5.65533	7514
5.65600	7511
5.65667	7507
5.65733	7504
5.65800	7500
5.65867	7496
5.65933	7493
5.66000	7489
5.66067	7486
5.66133	7482
5.66200	7478
5.66267	7475
5.66333	7471
5.66400	7468
5.66467	7464
5.66533	7460
5.66600	7457
5.66667	7453
5.66733	7450
5.66800	7446
5.66867	7443
5.66933	7439
5.67000	7436
5.67067	7432
5.67133	7429
5.67200	7425
5.67267	7422
5.67333	7419
5.67400	7415
5.67467	7412
5.67533	7409
5.67600	7405
5.67667	7402
5.67733	7399
5.67800	7396
5.67867	7392
5.67933	7389
5.68000	7386
5.68067	7383
5.68133	7380
5.68200	7376
5.68267	7373
5.68333	7370
5.68400	7367
5.68467	7364
5.68533	7361
5.68600	7358
5.68667	7355
5.68733	7353
5.68800	7350
5.68867	7347
5.68933	7344
5.69000	7341
5.69067	7338
5.69133	7335
5.69200	7333
5.69267	7330
5.69333	7327
5.69400	7324
5.69467	7321
5.69533	7318
5.69600	7315
5.69667	7312
5.69733	7309
5.69800	7306
5.69867	7303
5.69933	7300
5.70000	7297
5.70067	7293
5.70133	7290
5.70200	7287
5.70267	7284
5.70333	7281
5.70400	7278
5.70467	7275
5.70533	7272
5.70600	7269
5.70667	7266
5.70733	7263
5.70800	7260
5.70867	7257
5.70933	7254
5.71000	7251
5.71067	7248
5.71133	7245
5.71200	7242
5.71267	7239
5.71333	7236
5.71400	7233
5.71467	7230
5.71533	7227
5.71600	7224
5.71667	7221
5.71733	7219
5.71800	7216
5.71867	7213
5.71933	7210
5.72000	7208
5.72067	7205
5.72133	7202
5.72200	7200
5.72267	7197
5.72333	7194
5.72400	7192
5.72467	7189
5.72533	7186
5.72600	7184
5.72667	7181
5.72733	7179
5.72800	7176
5.72867	7174
5.72933	7171
5.73000	7169
5.73067	7167
5.73133	7164
5.73200	7162
5.73267	7159
5.73333	7157
5.73400	7154
5.73467	7152
5.73533	7150
5.73600	7147
5.73667	7145
5.73733	7142
5.73800	7140
5.73867	7138
5.73933	7136
5.74000	7134
5.74067	7132
5.74133	7129
5.74200	7127
5.74267	7125
5.74333	7123
5.74400	7121
5.74467	7119
5.74533	7117
5.74600	7115
5.74667	7113
5.74733	7111
5.74800	7109
5.74867	7107
5.74933	7105
5.75000	7102
5.75067	7100
5.75133	7098
5.75200	7096
5.75267	7094
5.75333	7092
5.75400	7090
5.75467	7088
5.75533	7085
5.75600	7083
5.75667	7081
5.75733	7079
5.75800	7077
5.75867	7075
5.75933	7073
5.76000	7071
5.76067	7069
5.76133	7067
5.76200	7065
5.76267	7063
5.76333	7062
5.76400	7060
5.76467	7058
5.76533	7056
5.76600	7054
5.76667	7053
5.76733	7051
5.76800	7049
5.76867	7048
5.76933	7046
5.77000	7044
5.77067	7043
5.77133	7041
5.77200	7040
5.77267	7038
5.77333	7036
5.77400	7035
5.77467	7033
5.77533	7032
5.77600	7030
5.77667	7029
5.77733	7027
5.77800	7026
5.77867	7025
5.77933	7023
5.78000	7022
5.78067	7021
5.78133	7019
5.78200	7018
5.78267	7017
5.78333	7015
5.78400	7014
5.78467	7013
5.78533	7012
5.78600	7011
5.78667	7009
5.78733	7008
5.78800	7007
5.78867	7006
5.78933	7005
5.79000	7003
5.79067	7002
5.79133	7001
5.79200	7000
5.79267	6999
5.79333	6998
5.79400	6996
5.79467	6995
5.79533	6994
5.79600	6993
5.79667	6992
5.79733	6990
5.79800	6989
5.79867	6988
5.79933	6987
5.80000	6985
5.80067	6984
5.80133	6983
5.80200	6982
5.80267	6980
5.80333	6979
5.80400	6978
5.80467	6977
5.80533	6976
5.80600	6974
5.80667	6973
5.80733	6972
5.80800	6971
5.80867	6969
5.80933	6968
5.81000	6967
5.81067	6966
5.81133	6965
5.81200	6963
5.81267	6962
5.81333	6961
5.81400	6960
5.81467	6959
5.81533	6958
5.81600	6956
5.81667	6955
5.81733	6954
5.81800	6953
5.81867	6951
5.81933	6950
5.82000	6949
5.82067	6948
5.82133	6946
5.82200	6945
5.82267	6944
5.82333	6942
5.82400	6941
5.82467	6940
5.82533	6938
5.82600	6937
5.82667	6936
5.82733	6934
5.82800	6933
5.82867	6932
5.82933	6930
5.83000	6929
5.83067	6927
5.83133	6926
5.83200	6925
5.83267	6923
5.83333	6922
5.83400	6921
5.83467	6920
5.83533	6918
5.83600	6917
5.83667	6916
5.83733	6914
5.83800	6913
5.83867	6912
5.83933	6910
5.84000	6909
5.84067	6907
5.84133	6906
5.84200	6904
5.84267	6903
5.84333	6901
5.84400	6899
5.84467	6898
5.84533	6896
5.84600	6894
5.84667	6893
5.84733	6891
5.84800	6889
5.84867	6888
5.84933	6886
5.85000	6884
5.85067	6882
5.85133	6881
5.85200	6879
5.85267	6877
5.85333	6875
5.85400	6873
5.85467	6871
5.85533	6869
5.85600	6867
5.85667	6865
5.85733	6863
5.85800	6861
5.85867	6860
5.85933	6858
5.86000	6856
5.86067	6854
5.86133	6852
5.86200	6850
5.86267	6848
5.86333	6845
5.86400	6843
5.86467	6841
5.86533	6839
5.86600	6837
5.86667	6835
5.86733	6833
5.86800	6830
5.86867	6828
5.86933	6826
5.87000	6823
5.87067	6821
5.87133	6819
5.87200	6816
5.87267	6814
5.87333	6812
5.87400	6809
5.87467	6807
5.87533	6805
5.87600	6802
5.87667	6800
5.87733	6797
5.87800	6795
5.87867	6793
5.87933	6790
5.88000	6788
5.88067	6786
5.88133	6783
5.88200	6781
5.88267	6778
5.88333	6776
5.88400	6774
5.88467	6771
5.88533	6769
5.88600	6766
5.88667	6764
5.88733	6762
5.88800	6759
5.88867	6757
5.88933	6755
5.89000	6752
5.89067	6750
5.89133	6747
5.89200	6745
5.89267	6743
5.89333	6740
5.89400	6738
5.89467	6735
5.89533	6733
5.89600	6730
5.89667	6728
5.89733	6725
5.89800	6722
5.89867	6720
5.89933	6717
5.90000	6714
5.90067	6712
5.90133	6709
5.90200	6706
5.90267	6703
5.90333	6701
5.90400	6698
5.90467	6695
5.90533	6692
5.90600	6689
5.90667	6686
5.90733	6683
5.90800	6680
5.90867	6677
5.90933	6674
5.91000	6671
5.91067	6668
5.91133	6665
5.91200	6663
5.91267	6660
5.91333	6657
5.91400	6654
5.91467	6651
5.91533	6648
5.91600	6645
5.91667	6643
5.91733	6640
5.91800	6637
5.91867	6635
5.91933	6632
5.92000	6629
5.92067	6627
5.92133	6624
5.92200	6622
5.92267	6619
5.92333	6617
5.92400	6614
5.92467	6612
5.92533	6609
5.92600	6607
5.92667	6604
5.92733	6602
5.92800	6599
5.92867	6597
5.92933	6594
5.93000	6592
5.93067	6589
5.93133	6587
5.93200	6584
5.93267	6582
5.93333	6579
5.93400	6577
5.93467	6574
5.93533	6572
5.93600	6569
5.93667	6567
5.93733	6564
5.93800	6562
5.93867	6560
5.93933	6557
5.94000	6555
5.94067	6552
5.94133	6550
5.94200	6547
5.94267	6545
5.94333	6543
5.94400	6540
5.94467	6538
5.94533	6536
5.94600	6533
5.94667	6531
5.94733	6529
5.94800	6526
5.94867	6524
5.94933	6522
5.95000	6519
5.95067	6517
5.95133	6515
5.95200	6513
5.95267	6510
5.95333	6508
5.95400	6506
5.95467	6504
5.95533	6501
5.95600	6499
5.95667	6497
5.95733	6495
5.95800	6493
5.95867	6491
5.95933	6489
5.96000	6487
5.96067	6485
5.96133	6483
5.96200	6481
5.96267	6479
5.96333	6478
5.96400	6476
5.96467	6474
5.96533	6472
5.96600	6470
5.96667	6468
5.96733	6466
5.96800	6465
5.96867	6463
5.96933	6461
5.97000	6459
5.97067	6457
5.97133	6455
5.97200	6453
5.97267	6451
5.97333	6449
5.97400	6447
5.97467	6445
5.97533	6443
5.97600	6441
5.97667	6439
5.97733	6437
5.97800	6435
5.97867	6433
5.97933	6431
5.98000	6429
5.98067	6428
5.98133	6426
5.98200	6424
5.98267	6422
5.98333	6420
5.98400	6418
5.98467	6416
5.98533	6414
5.98600	6412
5.98667	6410
5.98733	6409
5.98800	6407
5.98867	6405
5.98933	6403
5.99000	6401
5.99067	6399
5.99133	6398
5.99200	6396
5.99267	6394
5.99333	6392
5.99400	6390
5.99467	6389
5.99533	6387
5.99600	6385
5.99667	6383
5.99733	6381
5.99800	6379
5.99867	6377
5.99933	6375
6.00000	6373
6.00067	6371
6.00133	6370
6.00200	6368
6.00267	6366
6.00333	6364
6.00400	6362
6.00467	6360
6.00533	6358
6.00600	6356
6.00667	6354
6.00733	6352
6.00800	6350
6.00867	6348
6.00933	6346
6.01000	6344
6.01067	6342
6.01133	6340
6.01200	6338
6.01267	6337
6.01333	6335
6.01400	6333
6.01467	6331
6.01533	6329
6.01600	6327
6.01667	6326
6.01733	6324
6.01800	6322
6.01867	6320
6.01933	6319
6.02000	6317
6.02067	6315
6.02133	6314
6.02200	6312
6.02267	6310
6.02333	6309
6.02400	6307
6.02467	6305
6.02533	6304
6.02600	6302
6.02667	6301
6.02733	6299
6.02800	6297
6.02867	6296
6.02933	6294
6.03000	6293
6.03067	6291
6.03133	6290
6.03200	6288
6.03267	6287
6.03333	6286
6.03400	6284
6.03467	6283
6.03533	6281
6.03600	6280
6.03667	6278
6.03733	6277
6.03800	6275
6.03867	6274
6.03933	6272
6.04000	6271
6.04067	6269
6.04133	6268
6.04200	6266
6.04267	6264
6.04333	6263
6.04400	6261
6.04467	6259
6.04533	6258
6.04600	6256
6.04667	6254
6.04733	6253
6.04800	6251
6.04867	6249
6.04933	6248
6.05000	6246
6.05067	6244
6.05133	6243
6.05200	6241
6.05267	6240
6.05333	6238
6.05400	6236
6.05467	6235
6.05533	6233
6.05600	6231
6.05667	6230
6.05733	6228
6.05800	6226
6.05867	6225
6.05933	6223
6.06000	6222
6.06067	6220
6.06133	6218
6.06200	6217
6.06267	6215
6.06333	6214
6.06400	6212
6.06467	6210
6.06533	6209
6.06600	6207
6.06667	6206
6.06733	6204
6.06800	6203
6.06867	6201
6.06933	6199
6.07000	6198
6.07067	6196
6.07133	6195
6.07200	6193
6.07267	6192
6.07333	6190
6.07400	6189
6.07467	6187
6.07533	6186
6.07600	6184
6.07667	6183
6.07733	6182
6.07800	6180
6.07867	6179
6.07933	6178
6.08000	6177
6.08067	6175
6.08133	6174
6.08200	6173
6.08267	6172
6.08333	6171
6.08400	6170
6.08467	6169
6.08533	6168
6.08600	6167
6.08667	6166
6.08733	6165
6.08800	6164
6.08867	6163
6.08933	6162
6.09000	6161
6.09067	6160
6.09133	6159
6.09200	6158
6.09267	6157
6.09333	6156
6.09400	6155
6.09467	6154
6.09533	6153
6.09600	6152
6.09667	6151
6.09733	6150
6.09800	6149
6.09867	6148
6.09933	6147
6.10000	6146
6.10067	6145
6.10133	6144
6.10200	6143
6.10267	6142
6.10333	6140
6.10400	6139
6.10467	6138
6.10533	6137
6.10600	6136
6.10667	6135
6.10733	6134
6.10800	6132
6.10867	6131
6.10933	6130
6.11000	6129
6.11067	6127
6.11133	6126
6.11200	6125
6.11267	6123
6.11333	6122
6.11400	6120
6.11467	6119
6.11533	6118
6.11600	6116
6.11667	6115
6.11733	6114
6.11800	6112
6.11867	6111
6.11933	6110
6.12000	6108
6.12067	6107
6.12133	6106
6.12200	6105
6.12267	6104
6.12333	6102
6.12400	6101
6.12467	6100
6.12533	6099
6.12600	6098
6.12667	6097
6.12733	6095
6.12800	6094
6.12867	6093
6.12933	6092
6.13000	6090
6.13067	6089
6.13133	6088
6.13200	6087
6.13267	6085
6.13333	6084
6.13400	6083
6.13467	6081
6.13533	6080
6.13600	6079
6.13667	6077
6.13733	6076
6.13800	6075
6.13867	6073
6.13933	6072
6.14000	6071
6.14067	6070
6.14133	6068
6.14200	6067
6.14267	6066
6.14333	6065
6.14400	6063
6.14467	6062
6.14533	6061
6.14600	6059
6.14667	6058
6.14733	6057
6.14800	6056
6.14867	6055
6.14933	6053
6.15000	6052
6.15067	6051
6.15133	6050
6.15200	6049
6.15267	6048
6.15333	6047
6.15400	6046
6.15467	6044
6.15533	6043
6.15600	6042
6.15667	6041
6.15733	6040
6.15800	6039
6.15867	6038
6.15933	6037
6.16000	6036
6.16067	6035
6.16133	6034
6.16200	6033
6.16267	6032
6.16333	6031
6.16400	6030
6.16467	6029
6.16533	6027
6.16600	6026
6.16667	6025
6.16733	6024
6.16800	6023
6.16867	6021
6.16933	6020
6.17000	6019
6.17067	6018
6.17133	6016
6.17200	6015
6.17267	6014
6.17333	6013
6.17400	6012
6.17467	6011
6.17533	6009
6.17600	6008
6.17667	6007
6.17733	6006
6.17800	6005
6.17867	6004
6.17933	6003
6.18000	6002
6.18067	6001
6.18133	6000
6.18200	5999
6.18267	5998
6.18333	5997
6.18400	5996
6.18467	5995
6.18533	5994
6.18600	5994
6.18667	5993
6.18733	5992
6.18800	5991
6.18867	5990
6.18933	5989
6.19000	5988
6.19067	5987
6.19133	5986
6.19200	5985
6.19267	5984
6.19333	5982
6.19400	5981
6.19467	5980
6.19533	5979
6.19600	5978
6.19667	5977
6.19733	5976
6.19800	5975
6.19867	5974
6.19933	5973
6.20000	5972
6.20067	5970
6.20133	5969
6.20200	5968
6.20267	5967
6.20333	5966
6.20400	5964
6.20467	5963
6.20533	5962
6.20600	5961
6.20667	5960
6.20733	5959
6.20800	5957
6.20867	5956
6.20933	5955
6.21000	5954
6.21067	5953
6.21133	5952
6.21200	5951
6.21267	5950
6.21333	5949
6.21400	5948
6.21467	5947
6.21533	5946
6.21600	5945
6.21667	5944
6.21733	5943
6.21800	5942
6.21867	5941
6.21933	5941
6.22000	5940
6.22067	5939
6.22133	5938
6.22200	5938
6.22267	5937
6.22333	5936
6.22400	5936
6.22467	5935
6.22533	5934
6.22600	5934
6.22667	5933
6.22733	5933
6.22800	5932
6.22867	5932
6.22933	5931
6.23000	5931
6.23067	5930
6.23133	5930
6.23200	5929
6.23267	5929
6.23333	5929
6.23400	5929
6.23467	5929
6.23533	5928
6.23600	5928
6.23667	5928
6.23733	5928
6.23800	5928
6.23867	5928
6.23933	5928
6.24000	5928
6.24067	5928
6.24133	5928
6.24200	5928
6.24267	5928
6.24333	5928
6.24400	5928
6.24467	5928
6.24533	5928
6.24600	5928
6.24667	5928
6.24733	5928
6.24800	5927
6.24867	5927
6.24933	5927
6.25000	5927
6.25067	5927
6.25133	5927
6.25200	5927
6.25267	5927
6.25333	5927
6.25400	5927
6.25467	5927
6.25533	5927
6.25600	5926
6.25667	5926
6.25733	5926
6.25800	5926
6.25867	5926
6.25933	5926
6.26000	5926
6.26067	5926
6.26133	5926
6.26200	5926
6.26267	5925
6.26333	5925
6.26400	5925
6.26467	5925
6.26533	5925
6.26600	5925
6.26667	5925
6.26733	5925
6.26800	5925
6.26867	5925
6.26933	5925
6.27000	5925
6.27067	5924
6.27133	5924
6.27200	5924
6.27267	5924
6.27333	5923
6.27400	5923
6.27467	5923
6.27533	5922
6.27600	5922
6.27667	5922
6.27733	5922
6.27800	5921
6.27867	5921
6.27933	5921
6.28000	5921
6.28067	5921
6.28133	5920
6.28200	5920
6.28267	5920
6.28333	5920
6.28400	5920
6.28467	5920
6.28533	5919
6.28600	5919
6.28667	5919
6.28733	5919
6.28800	5919
6.28867	5918
6.28933	5918
6.29000	5918
6.29067	5918
6.29133	5918
6.29200	5918
6.29267	5918
6.29333	5917
6.29400	5917
6.29467	5917
6.29533	5917
6.29600	5917
6.29667	5916
6.29733	5916
6.29800	5916
6.29867	5916
6.29933	5916
6.30000	5915
6.30067	5915
6.30133	5915
6.30200	5915
6.30267	5914
6.30333	5914
6.30400	5914
6.30467	5913
6.30533	5913
6.30600	5912
6.30667	5912
6.30733	5912
6.30800	5911
6.30867	5911
6.30933	5910
6.31000	5910
6.31067	5909
6.31133	5909
6.31200	5908
6.31267	5907
6.31333	5907
6.31400	5906
6.31467	5905
6.31533	5905
6.31600	5904
6.31667	5903
6.31733	5903
6.31800	5902
6.31867	5901
6.31933	5900
6.32000	5899
6.32067	5899
6.32133	5898
6.32200	5897
6.32267	5896
6.32333	5895
6.32400	5894
6.32467	5894
6.32533	5893
6.32600	5892
6.32667	5891
6.32733	5890
6.32800	5889
6.32867	5888
6.32933	5887
6.33000	5886
6.33067	5886
6.33133	5885
6.33200	5884
6.33267	5883
6.33333	5882
6.33400	5880
6.33467	5879
6.33533	5878
6.33600	5877
6.33667	5876
6.33733	5874
6.33800	5873
6.33867	5871
6.33933	5870
6.34000	5869
6.34067	5867
6.34133	5866
6.34200	5864
6.34267	5862
6.34333	5861
6.34400	5859
6.34467	5858
6.34533	5856
6.34600	5855
6.34667	5853
6.34733	5851
6.34800	5850
6.34867	5848
6.34933	5847
6.35000	5845
6.35067	5843
6.35133	5842
6.35200	5840
6.35267	5839
6.35333	5837
6.35400	5836
6.35467	5834
6.35533	5833
6.35600	5832
6.35667	5830
6.35733	5829
6.35800	5827
6.35867	5826
6.35933	5825
6.36000	5824
6.36067	5822
6.36133	5821
6.36200	5820
6.36267	5818
6.36333	5817
6.36400	5816
6.36467	5814
6.36533	5813
6.36600	5812
6.36667	5810
6.36733	5809
6.36800	5808
6.36867	5807
6.36933	5806
6.37000	5805
6.37067	5804
6.37133	5803
6.37200	5802
6.37267	5801
6.37333	5800
6.37400	5799
6.37467	5798
6.37533	5797
6.37600	5796
6.37667	5794
6.37733	5793
6.37800	5792
6.37867	5791
6.37933	5791
6.38000	5790
6.38067	5789
6.38133	5788
6.38200	5787
6.38267	5786
6.38333	5785
6.38400	5784
6.38467	5783
6.38533	5782
6.38600	5781
6.38667	5780
6.38733	5779
6.38800	5778
6.38867	5777
6.38933	5776
6.39000	5775
6.39067	5774
6.39133	5773
6.39200	5772
6.39267	5771
6.39333	5770
6.39400	5769
6.39467	5768
6.39533	5767
6.39600	5766
6.39667	5765
6.39733	5764
6.39800	5762
6.39867	5761
6.39933	5760

