[Header]
Application Name	LabSolutions
Version	5.73
Data File Name	C:\LabSolutions\Data\Project1\stephen\2016-01-06\2.gcd
Output Date	1/11/2016
Output Time	1:19:38 PM

[Configuration]
Instrument Name	WEISSTA-PC-Instrument1
Instrument #	1
Line #	1
# of Detectors	1
Detector ID	DET#2
Detector Name	DFID1
# of Channels	1

[Chromatogram (Ch1)]
Interval(msec)	40
# of Points	9600
Start Time(min)	0.000
End Time(min)	6.400
R.Time (min)	Intensity
0.00033	8
0.00100	8
0.00167	8
0.00233	8
0.00300	8
0.00367	8
0.00433	8
0.00500	8
0.00567	9
0.00633	9
0.00700	9
0.00767	8
0.00833	8
0.00900	7
0.00967	6
0.01033	5
0.01100	3
0.01167	0
0.01233	-3
0.01300	-6
0.01367	-10
0.01433	-14
0.01500	-19
0.01567	-24
0.01633	-29
0.01700	-35
0.01767	-42
0.01833	-48
0.01900	-55
0.01967	-62
0.02033	-68
0.02100	-75
0.02167	-82
0.02233	-89
0.02300	-96
0.02367	-103
0.02433	-109
0.02500	-115
0.02567	-122
0.02633	-128
0.02700	-133
0.02767	-139
0.02833	-144
0.02900	-149
0.02967	-154
0.03033	-158
0.03100	-163
0.03167	-167
0.03233	-170
0.03300	-174
0.03367	-177
0.03433	-180
0.03500	-183
0.03567	-186
0.03633	-188
0.03700	-191
0.03767	-193
0.03833	-195
0.03900	-197
0.03967	-198
0.04033	-200
0.04100	-201
0.04167	-202
0.04233	-203
0.04300	-205
0.04367	-205
0.04433	-206
0.04500	-207
0.04567	-208
0.04633	-208
0.04700	-209
0.04767	-209
0.04833	-210
0.04900	-210
0.04967	-211
0.05033	-211
0.05100	-211
0.05167	-211
0.05233	-211
0.05300	-211
0.05367	-211
0.05433	-211
0.05500	-211
0.05567	-211
0.05633	-211
0.05700	-211
0.05767	-211
0.05833	-210
0.05900	-210
0.05967	-210
0.06033	-210
0.06100	-209
0.06167	-209
0.06233	-209
0.06300	-208
0.06367	-208
0.06433	-208
0.06500	-207
0.06567	-207
0.06633	-207
0.06700	-207
0.06767	-206
0.06833	-206
0.06900	-206
0.06967	-206
0.07033	-205
0.07100	-205
0.07167	-205
0.07233	-205
0.07300	-204
0.07367	-204
0.07433	-204
0.07500	-204
0.07567	-203
0.07633	-203
0.07700	-203
0.07767	-202
0.07833	-202
0.07900	-202
0.07967	-201
0.08033	-201
0.08100	-200
0.08167	-200
0.08233	-200
0.08300	-199
0.08367	-199
0.08433	-198
0.08500	-198
0.08567	-197
0.08633	-197
0.08700	-194
0.08767	-189
0.08833	-178
0.08900	-159
0.08967	-133
0.09033	-86
0.09100	-17
0.09167	80
0.09233	192
0.09300	306
0.09367	429
0.09433	578
0.09500	779
0.09567	1024
0.09633	1318
0.09700	1641
0.09767	2001
0.09833	2392
0.09900	2804
0.09967	3269
0.10033	3756
0.10100	4246
0.10167	4741
0.10233	5272
0.10300	5855
0.10367	6463
0.10433	7091
0.10500	7708
0.10567	8350
0.10633	9016
0.10700	9736
0.10767	10535
0.10833	11330
0.10900	12120
0.10967	12946
0.11033	13770
0.11100	14596
0.11167	15405
0.11233	16184
0.11300	16943
0.11367	17708
0.11433	18483
0.11500	19246
0.11567	19956
0.11633	20626
0.11700	21270
0.11767	21917
0.11833	22611
0.11900	23278
0.11967	23906
0.12033	24490
0.12100	25056
0.12167	25590
0.12233	26082
0.12300	26528
0.12367	26924
0.12433	27295
0.12500	27668
0.12567	28024
0.12633	28373
0.12700	28734
0.12767	29053
0.12833	29373
0.12900	29671
0.12967	29941
0.13033	30159
0.13100	30338
0.13167	30487
0.13233	30598
0.13300	30678
0.13367	30720
0.13433	30738
0.13500	30838
0.13567	31365
0.13633	33335
0.13700	39192
0.13767	54221
0.13833	87890
0.13900	156515
0.13967	283868
0.14033	500393
0.14100	837995
0.14167	1327537
0.14233	1995230
0.14300	2863955
0.14367	3950708
0.14433	5267608
0.14500	6820685
0.14567	8613100
0.14633	10644092
0.14700	12905586
0.14767	15380759
0.14833	18073157
0.14900	21012814
0.14967	24220602
0.15033	27694546
0.15100	31418352
0.15167	35367250
0.15233	39513625
0.15300	43829509
0.15367	48288109
0.15433	52864132
0.15500	57534091
0.15567	62275914
0.15633	67069220
0.15700	71894589
0.15767	76734113
0.15833	81570580
0.15900	86387469
0.15967	91168583
0.16033	95898234
0.16100	100560969
0.16167	105142388
0.16233	109628431
0.16300	114006204
0.16367	118263568
0.16433	122389762
0.16500	126375322
0.16567	130212170
0.16633	133893276
0.16700	137412632
0.16767	140765176
0.16833	143946743
0.16900	146954035
0.16967	149784526
0.17033	152436666
0.17100	154909753
0.17167	157203880
0.17233	159319695
0.17300	161258655
0.17367	163022352
0.17433	164612790
0.17500	166032213
0.17567	167283384
0.17633	168369021
0.17700	169292133
0.17767	170055750
0.17833	170663436
0.17900	171118896
0.17967	171426139
0.18033	171589320
0.18100	171612916
0.18167	171501494
0.18233	171259763
0.18300	170892460
0.18367	170404358
0.18433	169800417
0.18500	169085593
0.18567	168264851
0.18633	167343226
0.18700	166325963
0.18767	165218447
0.18833	164026186
0.18900	162754784
0.18967	161410371
0.19033	159999487
0.19100	158528139
0.19167	157000796
0.19233	155420546
0.19300	153789632
0.19367	152110169
0.19433	150384403
0.19500	148614910
0.19567	146804490
0.19633	144956210
0.19700	143073231
0.19767	141158788
0.19833	139216110
0.19900	137248386
0.19967	135258761
0.20033	133250292
0.20100	131225935
0.20167	129188501
0.20233	127140702
0.20300	125085099
0.20367	123024149
0.20433	120960179
0.20500	118895423
0.20567	116832000
0.20633	114771911
0.20700	112717020
0.20767	110669125
0.20833	108629881
0.20900	106600851
0.20967	104583505
0.21033	102579234
0.21100	100589327
0.21167	98614994
0.21233	96657361
0.21300	94717465
0.21367	92796264
0.21433	90894634
0.21500	89013384
0.21567	87153255
0.21633	85314927
0.21700	83499013
0.21767	81706077
0.21833	79936624
0.21900	78191111
0.21967	76469941
0.22033	74773477
0.22100	73102029
0.22167	71455868
0.22233	69835215
0.22300	68240253
0.22367	66671129
0.22433	65127962
0.22500	63610831
0.22567	62119785
0.22633	60654837
0.22700	59215976
0.22767	57803163
0.22833	56416341
0.22900	55055427
0.22967	53720318
0.23033	52410889
0.23100	51126998
0.23167	49868503
0.23233	48635279
0.23300	47427231
0.23367	46244266
0.23433	45086251
0.23500	43952979
0.23567	42844167
0.23633	41759475
0.23700	40698529
0.23767	39660938
0.23833	38646308
0.23900	37654244
0.23967	36684359
0.24033	35736273
0.24100	34809613
0.24167	33904015
0.24233	33019118
0.24300	32154568
0.24367	31310015
0.24433	30485114
0.24500	29679521
0.24567	28892896
0.24633	28124900
0.24700	27375198
0.24767	26643457
0.24833	25929347
0.24900	25232540
0.24967	24552709
0.25033	23889530
0.25100	23242682
0.25167	22611844
0.25233	21996702
0.25300	21396942
0.25367	20812254
0.25433	20242330
0.25500	19686866
0.25567	19145560
0.25633	18618116
0.25700	18104240
0.25767	17603640
0.25833	17116027
0.25900	16641120
0.25967	16178637
0.26033	15728304
0.26100	15289850
0.26167	14863004
0.26233	14447505
0.26300	14043090
0.26367	13649503
0.26433	13266494
0.26500	12893813
0.26567	12531218
0.26633	12178470
0.26700	11835333
0.26767	11501575
0.26833	11176970
0.26900	10861295
0.26967	10554331
0.27033	10255864
0.27100	9965682
0.27167	9683580
0.27233	9409355
0.27300	9142810
0.27367	8883750
0.27433	8631984
0.27500	8387326
0.27567	8149592
0.27633	7918604
0.27700	7694187
0.27767	7476170
0.27833	7264387
0.27900	7058674
0.27967	6858871
0.28033	6664820
0.28100	6476370
0.28167	6293370
0.28233	6115675
0.28300	5943142
0.28367	5775631
0.28433	5613007
0.28500	5455136
0.28567	5301887
0.28633	5153136
0.28700	5008758
0.28767	4868634
0.28833	4732645
0.28900	4600678
0.28967	4472622
0.29033	4348367
0.29100	4227807
0.29167	4110840
0.29233	3997363
0.29300	3887279
0.29367	3780492
0.29433	3676909
0.29500	3576438
0.29567	3478991
0.29633	3384482
0.29700	3292826
0.29767	3203943
0.29833	3117752
0.29900	3034176
0.29967	2953141
0.30033	2874573
0.30100	2798401
0.30167	2724555
0.30233	2652968
0.30300	2583572
0.30367	2516304
0.30433	2451102
0.30500	2387903
0.30567	2326649
0.30633	2267281
0.30700	2209743
0.30767	2153981
0.30833	2099941
0.30900	2047572
0.30967	1996823
0.31033	1947646
0.31100	1899994
0.31167	1853821
0.31233	1809082
0.31300	1765736
0.31367	1723740
0.31433	1683054
0.31500	1643639
0.31567	1605458
0.31633	1568474
0.31700	1532652
0.31767	1497956
0.31833	1464354
0.31900	1431812
0.31967	1400299
0.32033	1369786
0.32100	1340242
0.32167	1311639
0.32233	1283950
0.32300	1257149
0.32367	1231209
0.32433	1206106
0.32500	1181817
0.32567	1158319
0.32633	1135591
0.32700	1113613
0.32767	1092365
0.32833	1071829
0.32900	1051990
0.32967	1032831
0.33033	1014341
0.33100	996508
0.33167	979321
0.33233	962775
0.33300	946863
0.33367	931585
0.33433	916940
0.33500	902931
0.33567	889565
0.33633	876849
0.33700	864797
0.33767	853425
0.33833	842756
0.33900	832814
0.33967	823628
0.34033	815228
0.34100	807644
0.34167	800904
0.34233	795035
0.34300	790057
0.34367	785986
0.34433	782835
0.34500	780608
0.34567	779308
0.34633	778929
0.34700	779463
0.34767	780898
0.34833	783215
0.34900	786393
0.34967	790409
0.35033	795235
0.35100	800842
0.35167	807197
0.35233	814267
0.35300	822014
0.35367	830402
0.35433	839389
0.35500	848933
0.35567	858992
0.35633	869525
0.35700	880493
0.35767	891855
0.35833	903576
0.35900	915619
0.35967	927950
0.36033	940535
0.36100	953346
0.36167	966354
0.36233	979536
0.36300	992867
0.36367	1006323
0.36433	1019882
0.36500	1033524
0.36567	1047233
0.36633	1060992
0.36700	1074787
0.36767	1088599
0.36833	1102413
0.36900	1116215
0.36967	1129994
0.37033	1143739
0.37100	1157440
0.37167	1171087
0.37233	1184673
0.37300	1198192
0.37367	1211644
0.37433	1225028
0.37500	1238344
0.37567	1251595
0.37633	1264786
0.37700	1277928
0.37767	1291031
0.37833	1304108
0.37900	1317169
0.37967	1330227
0.38033	1343289
0.38100	1356357
0.38167	1369429
0.38233	1382499
0.38300	1395555
0.38367	1408586
0.38433	1421580
0.38500	1434523
0.38567	1447399
0.38633	1460194
0.38700	1472893
0.38767	1485486
0.38833	1497958
0.38900	1510298
0.38967	1522497
0.39033	1534543
0.39100	1546430
0.39167	1558147
0.39233	1569687
0.39300	1581037
0.39367	1592184
0.39433	1603115
0.39500	1613810
0.39567	1624247
0.39633	1634400
0.39700	1644240
0.39767	1653740
0.39833	1662870
0.39900	1671603
0.39967	1679908
0.40033	1687759
0.40100	1695129
0.40167	1701989
0.40233	1708308
0.40300	1714047
0.40367	1719166
0.40433	1723622
0.40500	1727372
0.40567	1730372
0.40633	1732574
0.40700	1733931
0.40767	1734397
0.40833	1733925
0.40900	1732472
0.40967	1729996
0.41033	1726463
0.41100	1721842
0.41167	1716113
0.41233	1709263
0.41300	1701289
0.41367	1692198
0.41433	1682007
0.41500	1670744
0.41567	1658443
0.41633	1645146
0.41700	1630902
0.41767	1615761
0.41833	1599780
0.41900	1583014
0.41967	1565521
0.42033	1547359
0.42100	1528586
0.42167	1509257
0.42233	1489430
0.42300	1469157
0.42367	1448491
0.42433	1427481
0.42500	1406177
0.42567	1384623
0.42633	1362864
0.42700	1340940
0.42767	1318890
0.42833	1296752
0.42900	1274559
0.42967	1252344
0.43033	1230137
0.43100	1207967
0.43167	1185860
0.43233	1163840
0.43300	1141929
0.43367	1120150
0.43433	1098520
0.43500	1077057
0.43567	1055779
0.43633	1034700
0.43700	1013833
0.43767	993192
0.43833	972789
0.43900	952632
0.43967	932733
0.44033	913098
0.44100	893735
0.44167	874651
0.44233	855850
0.44300	837338
0.44367	819118
0.44433	801194
0.44500	783568
0.44567	766241
0.44633	749217
0.44700	732495
0.44767	716077
0.44833	699963
0.44900	684154
0.44967	668650
0.45033	653450
0.45100	638553
0.45167	623958
0.45233	609664
0.45300	595669
0.45367	581971
0.45433	568567
0.45500	555454
0.45567	542631
0.45633	530093
0.45700	517837
0.45767	505861
0.45833	494161
0.45900	482733
0.45967	471575
0.46033	460681
0.46100	450051
0.46167	439678
0.46233	429562
0.46300	419698
0.46367	410082
0.46433	400713
0.46500	391587
0.46567	382700
0.46633	374051
0.46700	365635
0.46767	357450
0.46833	349491
0.46900	341753
0.46967	334231
0.47033	326919
0.47100	319812
0.47167	312905
0.47233	306194
0.47300	299674
0.47367	293339
0.47433	287185
0.47500	281208
0.47567	275401
0.47633	269760
0.47700	264281
0.47767	258959
0.47833	253788
0.47900	248766
0.47967	243888
0.48033	239148
0.48100	234545
0.48167	230072
0.48233	225727
0.48300	221506
0.48367	217405
0.48433	213420
0.48500	209549
0.48567	205787
0.48633	202132
0.48700	198580
0.48767	195128
0.48833	191774
0.48900	188513
0.48967	185344
0.49033	182263
0.49100	179268
0.49167	176355
0.49233	173522
0.49300	170767
0.49367	168087
0.49433	165479
0.49500	162941
0.49567	160471
0.49633	158066
0.49700	155725
0.49767	153446
0.49833	151226
0.49900	149063
0.49967	146956
0.50033	144903
0.50100	142903
0.50167	140953
0.50233	139052
0.50300	137198
0.50367	135390
0.50433	133626
0.50500	131906
0.50567	130227
0.50633	128588
0.50700	126989
0.50767	125427
0.50833	123901
0.50900	122411
0.50967	120956
0.51033	119534
0.51100	118144
0.51167	116785
0.51233	115457
0.51300	114157
0.51367	112887
0.51433	111643
0.51500	110427
0.51567	109236
0.51633	108071
0.51700	106930
0.51767	105812
0.51833	104717
0.51900	103644
0.51967	102593
0.52033	101562
0.52100	100552
0.52167	99561
0.52233	98590
0.52300	97637
0.52367	96701
0.52433	95783
0.52500	94882
0.52567	93997
0.52633	93128
0.52700	92275
0.52767	91436
0.52833	90612
0.52900	89803
0.52967	89007
0.53033	88224
0.53100	87454
0.53167	86697
0.53233	85953
0.53300	85220
0.53367	84499
0.53433	83789
0.53500	83090
0.53567	82402
0.53633	81724
0.53700	81057
0.53767	80399
0.53833	79752
0.53900	79113
0.53967	78484
0.54033	77864
0.54100	77252
0.54167	76649
0.54233	76055
0.54300	75468
0.54367	74890
0.54433	74319
0.54500	73756
0.54567	73200
0.54633	72652
0.54700	72111
0.54767	71577
0.54833	71049
0.54900	70529
0.54967	70015
0.55033	69508
0.55100	69007
0.55167	68512
0.55233	68024
0.55300	67541
0.55367	67065
0.55433	66594
0.55500	66129
0.55567	65669
0.55633	65216
0.55700	64767
0.55767	64324
0.55833	63886
0.55900	63453
0.55967	63025
0.56033	62602
0.56100	62184
0.56167	61771
0.56233	61363
0.56300	60959
0.56367	60560
0.56433	60166
0.56500	59776
0.56567	59390
0.56633	59008
0.56700	58631
0.56767	58258
0.56833	57888
0.56900	57523
0.56967	57162
0.57033	56804
0.57100	56451
0.57167	56101
0.57233	55755
0.57300	55412
0.57367	55073
0.57433	54737
0.57500	54405
0.57567	54076
0.57633	53751
0.57700	53428
0.57767	53109
0.57833	52793
0.57900	52481
0.57967	52171
0.58033	51864
0.58100	51559
0.58167	51258
0.58233	50959
0.58300	50663
0.58367	50370
0.58433	50079
0.58500	49790
0.58567	49504
0.58633	49221
0.58700	48940
0.58767	48661
0.58833	48385
0.58900	48111
0.58967	47839
0.59033	47570
0.59100	47303
0.59167	47039
0.59233	46776
0.59300	46516
0.59367	46258
0.59433	46003
0.59500	45749
0.59567	45498
0.59633	45249
0.59700	45002
0.59767	44757
0.59833	44515
0.59900	44275
0.59967	44036
0.60033	43800
0.60100	43566
0.60167	43334
0.60233	43104
0.60300	42877
0.60367	42651
0.60433	42427
0.60500	42206
0.60567	41986
0.60633	41769
0.60700	41554
0.60767	41340
0.60833	41129
0.60900	40919
0.60967	40712
0.61033	40507
0.61100	40304
0.61167	40102
0.61233	39903
0.61300	39706
0.61367	39511
0.61433	39318
0.61500	39127
0.61567	38938
0.61633	38751
0.61700	38566
0.61767	38383
0.61833	38202
0.61900	38022
0.61967	37845
0.62033	37669
0.62100	37495
0.62167	37323
0.62233	37152
0.62300	36984
0.62367	36816
0.62433	36651
0.62500	36486
0.62567	36324
0.62633	36162
0.62700	36003
0.62767	35844
0.62833	35687
0.62900	35531
0.62967	35376
0.63033	35223
0.63100	35071
0.63167	34920
0.63233	34771
0.63300	34622
0.63367	34475
0.63433	34329
0.63500	34185
0.63567	34041
0.63633	33899
0.63700	33759
0.63767	33619
0.63833	33481
0.63900	33344
0.63967	33208
0.64033	33074
0.64100	32941
0.64167	32810
0.64233	32679
0.64300	32551
0.64367	32423
0.64433	32297
0.64500	32172
0.64567	32049
0.64633	31926
0.64700	31805
0.64767	31685
0.64833	31566
0.64900	31448
0.64967	31332
0.65033	31216
0.65100	31100
0.65167	30986
0.65233	30872
0.65300	30759
0.65367	30647
0.65433	30535
0.65500	30423
0.65567	30312
0.65633	30201
0.65700	30091
0.65767	29981
0.65833	29871
0.65900	29761
0.65967	29652
0.66033	29543
0.66100	29434
0.66167	29325
0.66233	29217
0.66300	29108
0.66367	29000
0.66433	28892
0.66500	28784
0.66567	28676
0.66633	28568
0.66700	28461
0.66767	28353
0.66833	28246
0.66900	28139
0.66967	28032
0.67033	27926
0.67100	27819
0.67167	27713
0.67233	27607
0.67300	27502
0.67367	27396
0.67433	27291
0.67500	27186
0.67567	27082
0.67633	26977
0.67700	26874
0.67767	26771
0.67833	26668
0.67900	26566
0.67967	26465
0.68033	26364
0.68100	26264
0.68167	26165
0.68233	26067
0.68300	25970
0.68367	25874
0.68433	25779
0.68500	25685
0.68567	25593
0.68633	25502
0.68700	25413
0.68767	25326
0.68833	25241
0.68900	25157
0.68967	25076
0.69033	24998
0.69100	24922
0.69167	24848
0.69233	24778
0.69300	24710
0.69367	24646
0.69433	24585
0.69500	24527
0.69567	24472
0.69633	24421
0.69700	24373
0.69767	24329
0.69833	24287
0.69900	24249
0.69967	24214
0.70033	24181
0.70100	24151
0.70167	24123
0.70233	24097
0.70300	24072
0.70367	24049
0.70433	24026
0.70500	24005
0.70567	23983
0.70633	23961
0.70700	23939
0.70767	23915
0.70833	23891
0.70900	23865
0.70967	23837
0.71033	23808
0.71100	23777
0.71167	23743
0.71233	23707
0.71300	23669
0.71367	23628
0.71433	23585
0.71500	23539
0.71567	23491
0.71633	23441
0.71700	23388
0.71767	23334
0.71833	23277
0.71900	23218
0.71967	23157
0.72033	23095
0.72100	23030
0.72167	22964
0.72233	22897
0.72300	22828
0.72367	22757
0.72433	22686
0.72500	22614
0.72567	22540
0.72633	22466
0.72700	22390
0.72767	22314
0.72833	22238
0.72900	22161
0.72967	22083
0.73033	22005
0.73100	21927
0.73167	21849
0.73233	21770
0.73300	21691
0.73367	21612
0.73433	21533
0.73500	21454
0.73567	21376
0.73633	21297
0.73700	21218
0.73767	21140
0.73833	21062
0.73900	20984
0.73967	20907
0.74033	20829
0.74100	20752
0.74167	20676
0.74233	20599
0.74300	20523
0.74367	20448
0.74433	20373
0.74500	20298
0.74567	20224
0.74633	20151
0.74700	20078
0.74767	20005
0.74833	19933
0.74900	19861
0.74967	19790
0.75033	19719
0.75100	19649
0.75167	19579
0.75233	19510
0.75300	19442
0.75367	19374
0.75433	19306
0.75500	19239
0.75567	19172
0.75633	19106
0.75700	19041
0.75767	18976
0.75833	18912
0.75900	18848
0.75967	18785
0.76033	18722
0.76100	18660
0.76167	18598
0.76233	18537
0.76300	18476
0.76367	18416
0.76433	18357
0.76500	18298
0.76567	18240
0.76633	18182
0.76700	18125
0.76767	18068
0.76833	18012
0.76900	17957
0.76967	17901
0.77033	17847
0.77100	17793
0.77167	17739
0.77233	17686
0.77300	17634
0.77367	17582
0.77433	17530
0.77500	17479
0.77567	17428
0.77633	17378
0.77700	17329
0.77767	17279
0.77833	17231
0.77900	17182
0.77967	17135
0.78033	17087
0.78100	17041
0.78167	16994
0.78233	16948
0.78300	16903
0.78367	16858
0.78433	16813
0.78500	16769
0.78567	16725
0.78633	16681
0.78700	16638
0.78767	16595
0.78833	16552
0.78900	16510
0.78967	16468
0.79033	16427
0.79100	16386
0.79167	16345
0.79233	16304
0.79300	16264
0.79367	16224
0.79433	16184
0.79500	16145
0.79567	16106
0.79633	16067
0.79700	16029
0.79767	15991
0.79833	15953
0.79900	15916
0.79967	15878
0.80033	15841
0.80100	15805
0.80167	15769
0.80233	15733
0.80300	15697
0.80367	15662
0.80433	15627
0.80500	15592
0.80567	15557
0.80633	15523
0.80700	15489
0.80767	15456
0.80833	15423
0.80900	15390
0.80967	15357
0.81033	15325
0.81100	15293
0.81167	15261
0.81233	15230
0.81300	15199
0.81367	15168
0.81433	15137
0.81500	15107
0.81567	15077
0.81633	15048
0.81700	15018
0.81767	14989
0.81833	14960
0.81900	14931
0.81967	14903
0.82033	14874
0.82100	14846
0.82167	14818
0.82233	14791
0.82300	14763
0.82367	14736
0.82433	14709
0.82500	14682
0.82567	14656
0.82633	14629
0.82700	14603
0.82767	14577
0.82833	14551
0.82900	14525
0.82967	14499
0.83033	14473
0.83100	14447
0.83167	14422
0.83233	14397
0.83300	14372
0.83367	14346
0.83433	14322
0.83500	14297
0.83567	14272
0.83633	14247
0.83700	14223
0.83767	14199
0.83833	14174
0.83900	14150
0.83967	14126
0.84033	14102
0.84100	14078
0.84167	14055
0.84233	14031
0.84300	14007
0.84367	13984
0.84433	13960
0.84500	13937
0.84567	13914
0.84633	13891
0.84700	13868
0.84767	13845
0.84833	13822
0.84900	13799
0.84967	13777
0.85033	13754
0.85100	13731
0.85167	13709
0.85233	13686
0.85300	13664
0.85367	13641
0.85433	13619
0.85500	13596
0.85567	13574
0.85633	13552
0.85700	13530
0.85767	13507
0.85833	13485
0.85900	13463
0.85967	13441
0.86033	13419
0.86100	13397
0.86167	13375
0.86233	13353
0.86300	13331
0.86367	13310
0.86433	13288
0.86500	13267
0.86567	13245
0.86633	13224
0.86700	13202
0.86767	13181
0.86833	13160
0.86900	13139
0.86967	13118
0.87033	13097
0.87100	13077
0.87167	13056
0.87233	13035
0.87300	13015
0.87367	12994
0.87433	12974
0.87500	12953
0.87567	12933
0.87633	12913
0.87700	12893
0.87767	12873
0.87833	12853
0.87900	12833
0.87967	12814
0.88033	12794
0.88100	12774
0.88167	12755
0.88233	12736
0.88300	12717
0.88367	12698
0.88433	12679
0.88500	12660
0.88567	12641
0.88633	12622
0.88700	12603
0.88767	12585
0.88833	12566
0.88900	12548
0.88967	12529
0.89033	12511
0.89100	12493
0.89167	12475
0.89233	12457
0.89300	12439
0.89367	12421
0.89433	12404
0.89500	12386
0.89567	12369
0.89633	12352
0.89700	12334
0.89767	12317
0.89833	12300
0.89900	12283
0.89967	12266
0.90033	12249
0.90100	12232
0.90167	12216
0.90233	12199
0.90300	12182
0.90367	12166
0.90433	12149
0.90500	12133
0.90567	12117
0.90633	12100
0.90700	12084
0.90767	12068
0.90833	12051
0.90900	12035
0.90967	12019
0.91033	12003
0.91100	11987
0.91167	11971
0.91233	11956
0.91300	11940
0.91367	11924
0.91433	11908
0.91500	11893
0.91567	11877
0.91633	11862
0.91700	11847
0.91767	11831
0.91833	11816
0.91900	11801
0.91967	11786
0.92033	11771
0.92100	11756
0.92167	11741
0.92233	11726
0.92300	11711
0.92367	11697
0.92433	11682
0.92500	11667
0.92567	11653
0.92633	11639
0.92700	11624
0.92767	11610
0.92833	11596
0.92900	11582
0.92967	11567
0.93033	11553
0.93100	11539
0.93167	11526
0.93233	11512
0.93300	11498
0.93367	11484
0.93433	11471
0.93500	11457
0.93567	11443
0.93633	11430
0.93700	11416
0.93767	11403
0.93833	11389
0.93900	11376
0.93967	11363
0.94033	11349
0.94100	11336
0.94167	11322
0.94233	11309
0.94300	11296
0.94367	11282
0.94433	11269
0.94500	11256
0.94567	11242
0.94633	11229
0.94700	11215
0.94767	11202
0.94833	11189
0.94900	11176
0.94967	11162
0.95033	11149
0.95100	11136
0.95167	11123
0.95233	11110
0.95300	11097
0.95367	11084
0.95433	11071
0.95500	11058
0.95567	11045
0.95633	11033
0.95700	11021
0.95767	11008
0.95833	10996
0.95900	10984
0.95967	10973
0.96033	10961
0.96100	10950
0.96167	10938
0.96233	10927
0.96300	10916
0.96367	10905
0.96433	10894
0.96500	10884
0.96567	10873
0.96633	10863
0.96700	10853
0.96767	10842
0.96833	10832
0.96900	10822
0.96967	10812
0.97033	10802
0.97100	10792
0.97167	10781
0.97233	10771
0.97300	10761
0.97367	10751
0.97433	10741
0.97500	10730
0.97567	10720
0.97633	10709
0.97700	10698
0.97767	10687
0.97833	10676
0.97900	10665
0.97967	10654
0.98033	10643
0.98100	10632
0.98167	10620
0.98233	10609
0.98300	10597
0.98367	10585
0.98433	10574
0.98500	10562
0.98567	10550
0.98633	10538
0.98700	10526
0.98767	10514
0.98833	10501
0.98900	10489
0.98967	10477
0.99033	10465
0.99100	10452
0.99167	10440
0.99233	10427
0.99300	10415
0.99367	10403
0.99433	10390
0.99500	10378
0.99567	10365
0.99633	10352
0.99700	10340
0.99767	10327
0.99833	10315
0.99900	10302
0.99967	10289
1.00033	10277
1.00100	10264
1.00167	10252
1.00233	10239
1.00300	10226
1.00367	10214
1.00433	10201
1.00500	10189
1.00567	10177
1.00633	10164
1.00700	10152
1.00767	10140
1.00833	10128
1.00900	10115
1.00967	10103
1.01033	10091
1.01100	10080
1.01167	10068
1.01233	10056
1.01300	10044
1.01367	10033
1.01433	10021
1.01500	10010
1.01567	9998
1.01633	9987
1.01700	9976
1.01767	9965
1.01833	9954
1.01900	9944
1.01967	9933
1.02033	9922
1.02100	9912
1.02167	9902
1.02233	9892
1.02300	9881
1.02367	9871
1.02433	9862
1.02500	9852
1.02567	9842
1.02633	9833
1.02700	9823
1.02767	9814
1.02833	9804
1.02900	9795
1.02967	9786
1.03033	9777
1.03100	9768
1.03167	9759
1.03233	9750
1.03300	9741
1.03367	9732
1.03433	9723
1.03500	9714
1.03567	9705
1.03633	9697
1.03700	9688
1.03767	9679
1.03833	9670
1.03900	9661
1.03967	9653
1.04033	9644
1.04100	9635
1.04167	9627
1.04233	9618
1.04300	9609
1.04367	9600
1.04433	9592
1.04500	9583
1.04567	9574
1.04633	9565
1.04700	9557
1.04767	9548
1.04833	9539
1.04900	9530
1.04967	9522
1.05033	9513
1.05100	9504
1.05167	9495
1.05233	9487
1.05300	9478
1.05367	9470
1.05433	9461
1.05500	9453
1.05567	9444
1.05633	9436
1.05700	9427
1.05767	9419
1.05833	9411
1.05900	9402
1.05967	9394
1.06033	9386
1.06100	9377
1.06167	9369
1.06233	9361
1.06300	9353
1.06367	9344
1.06433	9336
1.06500	9328
1.06567	9320
1.06633	9312
1.06700	9304
1.06767	9296
1.06833	9287
1.06900	9279
1.06967	9271
1.07033	9263
1.07100	9255
1.07167	9247
1.07233	9239
1.07300	9231
1.07367	9223
1.07433	9215
1.07500	9207
1.07567	9199
1.07633	9191
1.07700	9184
1.07767	9176
1.07833	9168
1.07900	9160
1.07967	9152
1.08033	9144
1.08100	9137
1.08167	9129
1.08233	9121
1.08300	9113
1.08367	9105
1.08433	9097
1.08500	9090
1.08567	9082
1.08633	9074
1.08700	9066
1.08767	9058
1.08833	9051
1.08900	9043
1.08967	9035
1.09033	9028
1.09100	9020
1.09167	9012
1.09233	9005
1.09300	8997
1.09367	8990
1.09433	8982
1.09500	8975
1.09567	8967
1.09633	8960
1.09700	8952
1.09767	8945
1.09833	8937
1.09900	8930
1.09967	8923
1.10033	8915
1.10100	8908
1.10167	8901
1.10233	8894
1.10300	8887
1.10367	8880
1.10433	8873
1.10500	8866
1.10567	8859
1.10633	8852
1.10700	8845
1.10767	8838
1.10833	8831
1.10900	8824
1.10967	8818
1.11033	8811
1.11100	8804
1.11167	8798
1.11233	8791
1.11300	8785
1.11367	8778
1.11433	8772
1.11500	8765
1.11567	8759
1.11633	8753
1.11700	8747
1.11767	8740
1.11833	8734
1.11900	8728
1.11967	8722
1.12033	8716
1.12100	8710
1.12167	8705
1.12233	8699
1.12300	8693
1.12367	8688
1.12433	8683
1.12500	8677
1.12567	8672
1.12633	8667
1.12700	8662
1.12767	8657
1.12833	8653
1.12900	8648
1.12967	8644
1.13033	8639
1.13100	8635
1.13167	8632
1.13233	8628
1.13300	8625
1.13367	8621
1.13433	8618
1.13500	8616
1.13567	8613
1.13633	8611
1.13700	8609
1.13767	8607
1.13833	8605
1.13900	8604
1.13967	8603
1.14033	8602
1.14100	8601
1.14167	8600
1.14233	8600
1.14300	8599
1.14367	8598
1.14433	8598
1.14500	8598
1.14567	8597
1.14633	8597
1.14700	8596
1.14767	8595
1.14833	8595
1.14900	8594
1.14967	8593
1.15033	8592
1.15100	8591
1.15167	8589
1.15233	8588
1.15300	8586
1.15367	8584
1.15433	8582
1.15500	8580
1.15567	8578
1.15633	8575
1.15700	8572
1.15767	8569
1.15833	8566
1.15900	8563
1.15967	8559
1.16033	8555
1.16100	8551
1.16167	8547
1.16233	8543
1.16300	8539
1.16367	8534
1.16433	8529
1.16500	8524
1.16567	8519
1.16633	8514
1.16700	8509
1.16767	8503
1.16833	8497
1.16900	8492
1.16967	8486
1.17033	8480
1.17100	8474
1.17167	8468
1.17233	8462
1.17300	8456
1.17367	8450
1.17433	8444
1.17500	8437
1.17567	8431
1.17633	8425
1.17700	8418
1.17767	8412
1.17833	8406
1.17900	8399
1.17967	8393
1.18033	8386
1.18100	8380
1.18167	8373
1.18233	8367
1.18300	8360
1.18367	8354
1.18433	8347
1.18500	8341
1.18567	8335
1.18633	8328
1.18700	8322
1.18767	8316
1.18833	8310
1.18900	8303
1.18967	8297
1.19033	8291
1.19100	8285
1.19167	8279
1.19233	8273
1.19300	8267
1.19367	8262
1.19433	8256
1.19500	8250
1.19567	8245
1.19633	8239
1.19700	8234
1.19767	8228
1.19833	8223
1.19900	8218
1.19967	8212
1.20033	8207
1.20100	8202
1.20167	8197
1.20233	8192
1.20300	8188
1.20367	8183
1.20433	8178
1.20500	8174
1.20567	8169
1.20633	8165
1.20700	8160
1.20767	8156
1.20833	8152
1.20900	8148
1.20967	8144
1.21033	8140
1.21100	8136
1.21167	8132
1.21233	8129
1.21300	8125
1.21367	8122
1.21433	8119
1.21500	8115
1.21567	8112
1.21633	8109
1.21700	8106
1.21767	8103
1.21833	8101
1.21900	8098
1.21967	8095
1.22033	8093
1.22100	8090
1.22167	8088
1.22233	8085
1.22300	8083
1.22367	8081
1.22433	8079
1.22500	8076
1.22567	8074
1.22633	8072
1.22700	8070
1.22767	8069
1.22833	8067
1.22900	8065
1.22967	8063
1.23033	8062
1.23100	8060
1.23167	8058
1.23233	8057
1.23300	8055
1.23367	8054
1.23433	8052
1.23500	8051
1.23567	8050
1.23633	8049
1.23700	8047
1.23767	8046
1.23833	8045
1.23900	8044
1.23967	8043
1.24033	8042
1.24100	8041
1.24167	8041
1.24233	8040
1.24300	8039
1.24367	8038
1.24433	8037
1.24500	8037
1.24567	8036
1.24633	8035
1.24700	8035
1.24767	8034
1.24833	8034
1.24900	8033
1.24967	8033
1.25033	8032
1.25100	8032
1.25167	8031
1.25233	8031
1.25300	8031
1.25367	8031
1.25433	8030
1.25500	8030
1.25567	8030
1.25633	8030
1.25700	8030
1.25767	8029
1.25833	8029
1.25900	8029
1.25967	8029
1.26033	8029
1.26100	8029
1.26167	8029
1.26233	8028
1.26300	8028
1.26367	8028
1.26433	8028
1.26500	8028
1.26567	8028
1.26633	8027
1.26700	8027
1.26767	8027
1.26833	8027
1.26900	8027
1.26967	8027
1.27033	8027
1.27100	8027
1.27167	8027
1.27233	8027
1.27300	8028
1.27367	8028
1.27433	8029
1.27500	8029
1.27567	8030
1.27633	8031
1.27700	8032
1.27767	8033
1.27833	8035
1.27900	8037
1.27967	8039
1.28033	8041
1.28100	8043
1.28167	8046
1.28233	8049
1.28300	8053
1.28367	8056
1.28433	8060
1.28500	8064
1.28567	8068
1.28633	8072
1.28700	8077
1.28767	8081
1.28833	8086
1.28900	8091
1.28967	8096
1.29033	8100
1.29100	8105
1.29167	8110
1.29233	8115
1.29300	8119
1.29367	8124
1.29433	8128
1.29500	8132
1.29567	8136
1.29633	8140
1.29700	8144
1.29767	8147
1.29833	8150
1.29900	8153
1.29967	8156
1.30033	8158
1.30100	8160
1.30167	8161
1.30233	8163
1.30300	8164
1.30367	8165
1.30433	8165
1.30500	8166
1.30567	8165
1.30633	8165
1.30700	8165
1.30767	8164
1.30833	8163
1.30900	8161
1.30967	8160
1.31033	8158
1.31100	8155
1.31167	8153
1.31233	8150
1.31300	8148
1.31367	8145
1.31433	8141
1.31500	8138
1.31567	8134
1.31633	8130
1.31700	8127
1.31767	8122
1.31833	8118
1.31900	8114
1.31967	8109
1.32033	8104
1.32100	8099
1.32167	8094
1.32233	8089
1.32300	8083
1.32367	8078
1.32433	8072
1.32500	8066
1.32567	8060
1.32633	8054
1.32700	8048
1.32767	8042
1.32833	8035
1.32900	8028
1.32967	8022
1.33033	8015
1.33100	8008
1.33167	8001
1.33233	7993
1.33300	7986
1.33367	7979
1.33433	7971
1.33500	7964
1.33567	7956
1.33633	7948
1.33700	7941
1.33767	7933
1.33833	7925
1.33900	7917
1.33967	7910
1.34033	7902
1.34100	7894
1.34167	7886
1.34233	7878
1.34300	7870
1.34367	7862
1.34433	7854
1.34500	7846
1.34567	7838
1.34633	7830
1.34700	7822
1.34767	7814
1.34833	7806
1.34900	7798
1.34967	7790
1.35033	7782
1.35100	7775
1.35167	7767
1.35233	7760
1.35300	7752
1.35367	7745
1.35433	7738
1.35500	7731
1.35567	7724
1.35633	7717
1.35700	7710
1.35767	7703
1.35833	7696
1.35900	7690
1.35967	7683
1.36033	7677
1.36100	7671
1.36167	7664
1.36233	7658
1.36300	7652
1.36367	7646
1.36433	7640
1.36500	7634
1.36567	7628
1.36633	7623
1.36700	7617
1.36767	7611
1.36833	7606
1.36900	7600
1.36967	7595
1.37033	7589
1.37100	7584
1.37167	7579
1.37233	7573
1.37300	7568
1.37367	7563
1.37433	7558
1.37500	7553
1.37567	7548
1.37633	7543
1.37700	7538
1.37767	7533
1.37833	7528
1.37900	7524
1.37967	7519
1.38033	7514
1.38100	7509
1.38167	7504
1.38233	7499
1.38300	7494
1.38367	7490
1.38433	7485
1.38500	7480
1.38567	7476
1.38633	7471
1.38700	7467
1.38767	7462
1.38833	7458
1.38900	7453
1.38967	7449
1.39033	7445
1.39100	7440
1.39167	7436
1.39233	7432
1.39300	7427
1.39367	7423
1.39433	7419
1.39500	7415
1.39567	7410
1.39633	7406
1.39700	7402
1.39767	7398
1.39833	7393
1.39900	7389
1.39967	7385
1.40033	7381
1.40100	7377
1.40167	7373
1.40233	7369
1.40300	7365
1.40367	7361
1.40433	7357
1.40500	7353
1.40567	7349
1.40633	7345
1.40700	7341
1.40767	7337
1.40833	7333
1.40900	7329
1.40967	7326
1.41033	7322
1.41100	7318
1.41167	7314
1.41233	7310
1.41300	7307
1.41367	7303
1.41433	7299
1.41500	7295
1.41567	7292
1.41633	7288
1.41700	7284
1.41767	7280
1.41833	7277
1.41900	7273
1.41967	7270
1.42033	7266
1.42100	7262
1.42167	7259
1.42233	7255
1.42300	7252
1.42367	7248
1.42433	7245
1.42500	7241
1.42567	7238
1.42633	7234
1.42700	7230
1.42767	7227
1.42833	7223
1.42900	7220
1.42967	7216
1.43033	7213
1.43100	7209
1.43167	7206
1.43233	7202
1.43300	7199
1.43367	7195
1.43433	7192
1.43500	7188
1.43567	7185
1.43633	7182
1.43700	7178
1.43767	7175
1.43833	7172
1.43900	7168
1.43967	7165
1.44033	7162
1.44100	7158
1.44167	7155
1.44233	7152
1.44300	7148
1.44367	7145
1.44433	7142
1.44500	7138
1.44567	7135
1.44633	7132
1.44700	7129
1.44767	7126
1.44833	7123
1.44900	7120
1.44967	7117
1.45033	7114
1.45100	7111
1.45167	7108
1.45233	7105
1.45300	7102
1.45367	7099
1.45433	7097
1.45500	7094
1.45567	7091
1.45633	7088
1.45700	7086
1.45767	7083
1.45833	7081
1.45900	7078
1.45967	7075
1.46033	7073
1.46100	7070
1.46167	7068
1.46233	7065
1.46300	7063
1.46367	7060
1.46433	7058
1.46500	7055
1.46567	7053
1.46633	7050
1.46700	7048
1.46767	7046
1.46833	7043
1.46900	7041
1.46967	7039
1.47033	7036
1.47100	7034
1.47167	7032
1.47233	7029
1.47300	7027
1.47367	7024
1.47433	7022
1.47500	7019
1.47567	7017
1.47633	7015
1.47700	7012
1.47767	7009
1.47833	7007
1.47900	7005
1.47967	7002
1.48033	7000
1.48100	6997
1.48167	6995
1.48233	6992
1.48300	6990
1.48367	6987
1.48433	6985
1.48500	6982
1.48567	6980
1.48633	6978
1.48700	6975
1.48767	6973
1.48833	6970
1.48900	6968
1.48967	6965
1.49033	6963
1.49100	6960
1.49167	6958
1.49233	6955
1.49300	6953
1.49367	6950
1.49433	6948
1.49500	6945
1.49567	6943
1.49633	6940
1.49700	6937
1.49767	6935
1.49833	6932
1.49900	6930
1.49967	6927
1.50033	6925
1.50100	6922
1.50167	6920
1.50233	6917
1.50300	6915
1.50367	6913
1.50433	6910
1.50500	6908
1.50567	6906
1.50633	6904
1.50700	6901
1.50767	6899
1.50833	6897
1.50900	6895
1.50967	6893
1.51033	6891
1.51100	6888
1.51167	6886
1.51233	6884
1.51300	6882
1.51367	6880
1.51433	6878
1.51500	6876
1.51567	6873
1.51633	6871
1.51700	6869
1.51767	6867
1.51833	6865
1.51900	6863
1.51967	6861
1.52033	6859
1.52100	6857
1.52167	6855
1.52233	6853
1.52300	6851
1.52367	6849
1.52433	6847
1.52500	6845
1.52567	6843
1.52633	6841
1.52700	6839
1.52767	6837
1.52833	6835
1.52900	6833
1.52967	6831
1.53033	6829
1.53100	6827
1.53167	6825
1.53233	6823
1.53300	6821
1.53367	6819
1.53433	6818
1.53500	6816
1.53567	6814
1.53633	6812
1.53700	6810
1.53767	6808
1.53833	6806
1.53900	6804
1.53967	6802
1.54033	6800
1.54100	6798
1.54167	6796
1.54233	6794
1.54300	6792
1.54367	6790
1.54433	6788
1.54500	6786
1.54567	6784
1.54633	6782
1.54700	6780
1.54767	6778
1.54833	6776
1.54900	6774
1.54967	6772
1.55033	6770
1.55100	6768
1.55167	6766
1.55233	6764
1.55300	6762
1.55367	6760
1.55433	6758
1.55500	6756
1.55567	6754
1.55633	6752
1.55700	6750
1.55767	6749
1.55833	6747
1.55900	6745
1.55967	6743
1.56033	6741
1.56100	6740
1.56167	6738
1.56233	6736
1.56300	6734
1.56367	6732
1.56433	6731
1.56500	6729
1.56567	6727
1.56633	6725
1.56700	6724
1.56767	6722
1.56833	6720
1.56900	6718
1.56967	6717
1.57033	6715
1.57100	6714
1.57167	6712
1.57233	6710
1.57300	6709
1.57367	6707
1.57433	6706
1.57500	6704
1.57567	6702
1.57633	6701
1.57700	6699
1.57767	6698
1.57833	6696
1.57900	6694
1.57967	6693
1.58033	6691
1.58100	6689
1.58167	6688
1.58233	6686
1.58300	6684
1.58367	6683
1.58433	6681
1.58500	6679
1.58567	6678
1.58633	6676
1.58700	6675
1.58767	6673
1.58833	6672
1.58900	6670
1.58967	6669
1.59033	6667
1.59100	6666
1.59167	6664
1.59233	6663
1.59300	6661
1.59367	6660
1.59433	6658
1.59500	6657
1.59567	6655
1.59633	6654
1.59700	6652
1.59767	6651
1.59833	6649
1.59900	6648
1.59967	6646
1.60033	6645
1.60100	6643
1.60167	6642
1.60233	6640
1.60300	6639
1.60367	6638
1.60433	6636
1.60500	6635
1.60567	6633
1.60633	6632
1.60700	6631
1.60767	6629
1.60833	6628
1.60900	6627
1.60967	6626
1.61033	6624
1.61100	6623
1.61167	6622
1.61233	6621
1.61300	6619
1.61367	6618
1.61433	6617
1.61500	6615
1.61567	6614
1.61633	6613
1.61700	6611
1.61767	6610
1.61833	6609
1.61900	6608
1.61967	6607
1.62033	6605
1.62100	6604
1.62167	6603
1.62233	6602
1.62300	6601
1.62367	6600
1.62433	6598
1.62500	6597
1.62567	6596
1.62633	6595
1.62700	6594
1.62767	6593
1.62833	6591
1.62900	6590
1.62967	6589
1.63033	6588
1.63100	6587
1.63167	6586
1.63233	6585
1.63300	6584
1.63367	6583
1.63433	6582
1.63500	6581
1.63567	6580
1.63633	6579
1.63700	6578
1.63767	6578
1.63833	6577
1.63900	6576
1.63967	6575
1.64033	6574
1.64100	6574
1.64167	6573
1.64233	6572
1.64300	6571
1.64367	6570
1.64433	6570
1.64500	6569
1.64567	6568
1.64633	6567
1.64700	6566
1.64767	6565
1.64833	6565
1.64900	6564
1.64967	6563
1.65033	6562
1.65100	6561
1.65167	6560
1.65233	6559
1.65300	6558
1.65367	6557
1.65433	6556
1.65500	6555
1.65567	6554
1.65633	6553
1.65700	6552
1.65767	6551
1.65833	6550
1.65900	6549
1.65967	6548
1.66033	6547
1.66100	6546
1.66167	6545
1.66233	6544
1.66300	6543
1.66367	6543
1.66433	6542
1.66500	6541
1.66567	6540
1.66633	6539
1.66700	6538
1.66767	6537
1.66833	6536
1.66900	6535
1.66967	6533
1.67033	6532
1.67100	6531
1.67167	6530
1.67233	6529
1.67300	6528
1.67367	6527
1.67433	6526
1.67500	6525
1.67567	6524
1.67633	6523
1.67700	6522
1.67767	6521
1.67833	6520
1.67900	6519
1.67967	6518
1.68033	6517
1.68100	6516
1.68167	6515
1.68233	6514
1.68300	6513
1.68367	6512
1.68433	6510
1.68500	6509
1.68567	6508
1.68633	6507
1.68700	6506
1.68767	6505
1.68833	6504
1.68900	6502
1.68967	6501
1.69033	6500
1.69100	6499
1.69167	6498
1.69233	6496
1.69300	6495
1.69367	6494
1.69433	6493
1.69500	6491
1.69567	6490
1.69633	6489
1.69700	6487
1.69767	6486
1.69833	6485
1.69900	6484
1.69967	6482
1.70033	6481
1.70100	6480
1.70167	6478
1.70233	6477
1.70300	6476
1.70367	6474
1.70433	6473
1.70500	6472
1.70567	6470
1.70633	6469
1.70700	6468
1.70767	6466
1.70833	6465
1.70900	6464
1.70967	6463
1.71033	6461
1.71100	6460
1.71167	6459
1.71233	6458
1.71300	6457
1.71367	6456
1.71433	6455
1.71500	6455
1.71567	6454
1.71633	6454
1.71700	6454
1.71767	6455
1.71833	6456
1.71900	6458
1.71967	6461
1.72033	6465
1.72100	6470
1.72167	6477
1.72233	6485
1.72300	6496
1.72367	6510
1.72433	6527
1.72500	6549
1.72567	6575
1.72633	6607
1.72700	6646
1.72767	6694
1.72833	6751
1.72900	6820
1.72967	6903
1.73033	7001
1.73100	7118
1.73167	7255
1.73233	7418
1.73300	7608
1.73367	7831
1.73433	8091
1.73500	8392
1.73567	8741
1.73633	9142
1.73700	9603
1.73767	10130
1.73833	10731
1.73900	11414
1.73967	12187
1.74033	13058
1.74100	14036
1.74167	15129
1.74233	16348
1.74300	17702
1.74367	19201
1.74433	20855
1.74500	22675
1.74567	24672
1.74633	26856
1.74700	29239
1.74767	31829
1.74833	34634
1.74900	37661
1.74967	40915
1.75033	44401
1.75100	48125
1.75167	52090
1.75233	56298
1.75300	60750
1.75367	65445
1.75433	70380
1.75500	75549
1.75567	80944
1.75633	86558
1.75700	92380
1.75767	98399
1.75833	104603
1.75900	110977
1.75967	117506
1.76033	124170
1.76100	130948
1.76167	137814
1.76233	144746
1.76300	151717
1.76367	158701
1.76433	165672
1.76500	172601
1.76567	179459
1.76633	186221
1.76700	192858
1.76767	199345
1.76833	205655
1.76900	211761
1.76967	217639
1.77033	223266
1.77100	228623
1.77167	233689
1.77233	238449
1.77300	242890
1.77367	247001
1.77433	250774
1.77500	254204
1.77567	257287
1.77633	260022
1.77700	262408
1.77767	264449
1.77833	266146
1.77900	267506
1.77967	268535
1.78033	269241
1.78100	269634
1.78167	269726
1.78233	269526
1.78300	269049
1.78367	268306
1.78433	267311
1.78500	266078
1.78567	264620
1.78633	262950
1.78700	261084
1.78767	259032
1.78833	256810
1.78900	254429
1.78967	251903
1.79033	249242
1.79100	246460
1.79167	243566
1.79233	240572
1.79300	237489
1.79367	234324
1.79433	231089
1.79500	227791
1.79567	224440
1.79633	221042
1.79700	217606
1.79767	214138
1.79833	210645
1.79900	207133
1.79967	203607
1.80033	200074
1.80100	196537
1.80167	193003
1.80233	189474
1.80300	185956
1.80367	182452
1.80433	178965
1.80500	175499
1.80567	172056
1.80633	168641
1.80700	165254
1.80767	161898
1.80833	158576
1.80900	155289
1.80967	152040
1.81033	148829
1.81100	145658
1.81167	142528
1.81233	139441
1.81300	136398
1.81367	133399
1.81433	130445
1.81500	127537
1.81567	124675
1.81633	121860
1.81700	119093
1.81767	116373
1.81833	113700
1.81900	111075
1.81967	108498
1.82033	105970
1.82100	103488
1.82167	101055
1.82233	98669
1.82300	96331
1.82367	94039
1.82433	91794
1.82500	89596
1.82567	87444
1.82633	85337
1.82700	83276
1.82767	81259
1.82833	79286
1.82900	77357
1.82967	75471
1.83033	73628
1.83100	71826
1.83167	70066
1.83233	68347
1.83300	66667
1.83367	65027
1.83433	63427
1.83500	61864
1.83567	60339
1.83633	58851
1.83700	57399
1.83767	55983
1.83833	54602
1.83900	53256
1.83967	51943
1.84033	50664
1.84100	49416
1.84167	48201
1.84233	47017
1.84300	45863
1.84367	44739
1.84433	43645
1.84500	42579
1.84567	41541
1.84633	40531
1.84700	39547
1.84767	38590
1.84833	37658
1.84900	36751
1.84967	35869
1.85033	35011
1.85100	34176
1.85167	33363
1.85233	32573
1.85300	31805
1.85367	31058
1.85433	30331
1.85500	29624
1.85567	28938
1.85633	28270
1.85700	27621
1.85767	26990
1.85833	26376
1.85900	25780
1.85967	25201
1.86033	24638
1.86100	24092
1.86167	23560
1.86233	23044
1.86300	22542
1.86367	22055
1.86433	21581
1.86500	21122
1.86567	20675
1.86633	20241
1.86700	19819
1.86767	19410
1.86833	19013
1.86900	18626
1.86967	18251
1.87033	17887
1.87100	17534
1.87167	17191
1.87233	16857
1.87300	16534
1.87367	16219
1.87433	15914
1.87500	15618
1.87567	15331
1.87633	15052
1.87700	14781
1.87767	14518
1.87833	14263
1.87900	14015
1.87967	13775
1.88033	13541
1.88100	13315
1.88167	13095
1.88233	12882
1.88300	12675
1.88367	12474
1.88433	12279
1.88500	12090
1.88567	11907
1.88633	11729
1.88700	11556
1.88767	11389
1.88833	11226
1.88900	11068
1.88967	10915
1.89033	10767
1.89100	10623
1.89167	10483
1.89233	10348
1.89300	10216
1.89367	10089
1.89433	9965
1.89500	9845
1.89567	9729
1.89633	9616
1.89700	9506
1.89767	9400
1.89833	9297
1.89900	9197
1.89967	9099
1.90033	9005
1.90100	8914
1.90167	8825
1.90233	8739
1.90300	8655
1.90367	8574
1.90433	8495
1.90500	8419
1.90567	8345
1.90633	8273
1.90700	8203
1.90767	8135
1.90833	8070
1.90900	8006
1.90967	7944
1.91033	7883
1.91100	7825
1.91167	7768
1.91233	7713
1.91300	7659
1.91367	7607
1.91433	7556
1.91500	7506
1.91567	7458
1.91633	7412
1.91700	7366
1.91767	7322
1.91833	7279
1.91900	7237
1.91967	7197
1.92033	7157
1.92100	7118
1.92167	7081
1.92233	7044
1.92300	7009
1.92367	6974
1.92433	6940
1.92500	6907
1.92567	6875
1.92633	6844
1.92700	6814
1.92767	6784
1.92833	6755
1.92900	6727
1.92967	6700
1.93033	6673
1.93100	6647
1.93167	6622
1.93233	6597
1.93300	6573
1.93367	6549
1.93433	6526
1.93500	6504
1.93567	6482
1.93633	6461
1.93700	6441
1.93767	6421
1.93833	6401
1.93900	6382
1.93967	6363
1.94033	6345
1.94100	6328
1.94167	6310
1.94233	6294
1.94300	6277
1.94367	6261
1.94433	6246
1.94500	6231
1.94567	6216
1.94633	6202
1.94700	6188
1.94767	6174
1.94833	6161
1.94900	6148
1.94967	6136
1.95033	6123
1.95100	6112
1.95167	6100
1.95233	6089
1.95300	6078
1.95367	6067
1.95433	6057
1.95500	6047
1.95567	6037
1.95633	6027
1.95700	6018
1.95767	6008
1.95833	6000
1.95900	5991
1.95967	5982
1.96033	5974
1.96100	5966
1.96167	5958
1.96233	5950
1.96300	5942
1.96367	5935
1.96433	5928
1.96500	5920
1.96567	5913
1.96633	5907
1.96700	5900
1.96767	5893
1.96833	5887
1.96900	5880
1.96967	5874
1.97033	5868
1.97100	5862
1.97167	5856
1.97233	5850
1.97300	5845
1.97367	5839
1.97433	5834
1.97500	5828
1.97567	5823
1.97633	5818
1.97700	5813
1.97767	5808
1.97833	5803
1.97900	5799
1.97967	5794
1.98033	5790
1.98100	5785
1.98167	5781
1.98233	5777
1.98300	5773
1.98367	5769
1.98433	5765
1.98500	5761
1.98567	5757
1.98633	5753
1.98700	5750
1.98767	5746
1.98833	5742
1.98900	5739
1.98967	5735
1.99033	5731
1.99100	5728
1.99167	5725
1.99233	5721
1.99300	5718
1.99367	5715
1.99433	5712
1.99500	5709
1.99567	5706
1.99633	5703
1.99700	5700
1.99767	5697
1.99833	5694
1.99900	5691
1.99967	5689
2.00033	5686
2.00100	5683
2.00167	5680
2.00233	5677
2.00300	5675
2.00367	5672
2.00433	5669
2.00500	5666
2.00567	5664
2.00633	5661
2.00700	5658
2.00767	5656
2.00833	5653
2.00900	5650
2.00967	5647
2.01033	5645
2.01100	5642
2.01167	5639
2.01233	5636
2.01300	5633
2.01367	5630
2.01433	5627
2.01500	5624
2.01567	5621
2.01633	5618
2.01700	5615
2.01767	5612
2.01833	5609
2.01900	5606
2.01967	5603
2.02033	5600
2.02100	5597
2.02167	5594
2.02233	5591
2.02300	5588
2.02367	5585
2.02433	5582
2.02500	5579
2.02567	5576
2.02633	5573
2.02700	5569
2.02767	5566
2.02833	5563
2.02900	5560
2.02967	5557
2.03033	5554
2.03100	5551
2.03167	5547
2.03233	5544
2.03300	5541
2.03367	5538
2.03433	5535
2.03500	5533
2.03567	5530
2.03633	5527
2.03700	5524
2.03767	5521
2.03833	5518
2.03900	5516
2.03967	5513
2.04033	5510
2.04100	5507
2.04167	5505
2.04233	5502
2.04300	5499
2.04367	5496
2.04433	5494
2.04500	5491
2.04567	5488
2.04633	5485
2.04700	5483
2.04767	5480
2.04833	5477
2.04900	5475
2.04967	5472
2.05033	5470
2.05100	5467
2.05167	5464
2.05233	5462
2.05300	5459
2.05367	5457
2.05433	5454
2.05500	5452
2.05567	5449
2.05633	5447
2.05700	5444
2.05767	5442
2.05833	5440
2.05900	5437
2.05967	5435
2.06033	5433
2.06100	5430
2.06167	5428
2.06233	5426
2.06300	5423
2.06367	5421
2.06433	5419
2.06500	5416
2.06567	5414
2.06633	5411
2.06700	5409
2.06767	5407
2.06833	5404
2.06900	5402
2.06967	5400
2.07033	5397
2.07100	5395
2.07167	5393
2.07233	5390
2.07300	5388
2.07367	5386
2.07433	5384
2.07500	5382
2.07567	5379
2.07633	5377
2.07700	5376
2.07767	5374
2.07833	5372
2.07900	5370
2.07967	5368
2.08033	5366
2.08100	5364
2.08167	5362
2.08233	5360
2.08300	5359
2.08367	5357
2.08433	5355
2.08500	5353
2.08567	5351
2.08633	5349
2.08700	5348
2.08767	5346
2.08833	5344
2.08900	5342
2.08967	5340
2.09033	5338
2.09100	5337
2.09167	5335
2.09233	5333
2.09300	5331
2.09367	5329
2.09433	5328
2.09500	5326
2.09567	5324
2.09633	5322
2.09700	5321
2.09767	5319
2.09833	5317
2.09900	5316
2.09967	5314
2.10033	5312
2.10100	5311
2.10167	5309
2.10233	5307
2.10300	5306
2.10367	5304
2.10433	5302
2.10500	5301
2.10567	5299
2.10633	5297
2.10700	5296
2.10767	5294
2.10833	5293
2.10900	5291
2.10967	5289
2.11033	5288
2.11100	5286
2.11167	5285
2.11233	5283
2.11300	5282
2.11367	5280
2.11433	5279
2.11500	5277
2.11567	5276
2.11633	5274
2.11700	5273
2.11767	5271
2.11833	5270
2.11900	5269
2.11967	5267
2.12033	5266
2.12100	5264
2.12167	5263
2.12233	5261
2.12300	5259
2.12367	5258
2.12433	5256
2.12500	5255
2.12567	5253
2.12633	5252
2.12700	5250
2.12767	5249
2.12833	5247
2.12900	5246
2.12967	5244
2.13033	5243
2.13100	5242
2.13167	5240
2.13233	5239
2.13300	5238
2.13367	5236
2.13433	5235
2.13500	5234
2.13567	5232
2.13633	5231
2.13700	5230
2.13767	5229
2.13833	5227
2.13900	5226
2.13967	5225
2.14033	5224
2.14100	5222
2.14167	5221
2.14233	5220
2.14300	5218
2.14367	5217
2.14433	5216
2.14500	5214
2.14567	5213
2.14633	5212
2.14700	5210
2.14767	5209
2.14833	5207
2.14900	5206
2.14967	5204
2.15033	5203
2.15100	5202
2.15167	5200
2.15233	5199
2.15300	5197
2.15367	5196
2.15433	5194
2.15500	5193
2.15567	5192
2.15633	5190
2.15700	5189
2.15767	5187
2.15833	5186
2.15900	5185
2.15967	5184
2.16033	5182
2.16100	5181
2.16167	5180
2.16233	5179
2.16300	5178
2.16367	5176
2.16433	5175
2.16500	5174
2.16567	5173
2.16633	5172
2.16700	5172
2.16767	5171
2.16833	5170
2.16900	5169
2.16967	5168
2.17033	5167
2.17100	5166
2.17167	5165
2.17233	5164
2.17300	5163
2.17367	5162
2.17433	5161
2.17500	5160
2.17567	5159
2.17633	5158
2.17700	5157
2.17767	5156
2.17833	5155
2.17900	5155
2.17967	5154
2.18033	5153
2.18100	5152
2.18167	5151
2.18233	5150
2.18300	5149
2.18367	5149
2.18433	5148
2.18500	5147
2.18567	5146
2.18633	5145
2.18700	5144
2.18767	5143
2.18833	5142
2.18900	5142
2.18967	5141
2.19033	5140
2.19100	5139
2.19167	5138
2.19233	5137
2.19300	5136
2.19367	5135
2.19433	5134
2.19500	5133
2.19567	5132
2.19633	5132
2.19700	5131
2.19767	5130
2.19833	5129
2.19900	5128
2.19967	5128
2.20033	5127
2.20100	5126
2.20167	5125
2.20233	5125
2.20300	5124
2.20367	5124
2.20433	5123
2.20500	5123
2.20567	5123
2.20633	5122
2.20700	5122
2.20767	5122
2.20833	5122
2.20900	5122
2.20967	5122
2.21033	5122
2.21100	5123
2.21167	5123
2.21233	5123
2.21300	5124
2.21367	5124
2.21433	5125
2.21500	5126
2.21567	5126
2.21633	5127
2.21700	5128
2.21767	5129
2.21833	5130
2.21900	5131
2.21967	5132
2.22033	5133
2.22100	5134
2.22167	5135
2.22233	5135
2.22300	5136
2.22367	5137
2.22433	5138
2.22500	5139
2.22567	5140
2.22633	5140
2.22700	5141
2.22767	5142
2.22833	5142
2.22900	5143
2.22967	5143
2.23033	5144
2.23100	5144
2.23167	5145
2.23233	5145
2.23300	5145
2.23367	5146
2.23433	5146
2.23500	5146
2.23567	5146
2.23633	5147
2.23700	5147
2.23767	5147
2.23833	5147
2.23900	5147
2.23967	5146
2.24033	5146
2.24100	5146
2.24167	5145
2.24233	5145
2.24300	5144
2.24367	5144
2.24433	5143
2.24500	5143
2.24567	5142
2.24633	5141
2.24700	5140
2.24767	5140
2.24833	5139
2.24900	5138
2.24967	5138
2.25033	5137
2.25100	5136
2.25167	5135
2.25233	5134
2.25300	5134
2.25367	5133
2.25433	5132
2.25500	5131
2.25567	5130
2.25633	5130
2.25700	5129
2.25767	5128
2.25833	5127
2.25900	5126
2.25967	5125
2.26033	5125
2.26100	5124
2.26167	5123
2.26233	5122
2.26300	5120
2.26367	5119
2.26433	5118
2.26500	5117
2.26567	5116
2.26633	5114
2.26700	5113
2.26767	5112
2.26833	5110
2.26900	5109
2.26967	5108
2.27033	5106
2.27100	5105
2.27167	5103
2.27233	5102
2.27300	5101
2.27367	5099
2.27433	5098
2.27500	5096
2.27567	5095
2.27633	5093
2.27700	5092
2.27767	5090
2.27833	5089
2.27900	5087
2.27967	5086
2.28033	5084
2.28100	5083
2.28167	5081
2.28233	5079
2.28300	5078
2.28367	5076
2.28433	5075
2.28500	5073
2.28567	5072
2.28633	5070
2.28700	5069
2.28767	5067
2.28833	5065
2.28900	5064
2.28967	5062
2.29033	5061
2.29100	5059
2.29167	5058
2.29233	5056
2.29300	5054
2.29367	5053
2.29433	5051
2.29500	5050
2.29567	5048
2.29633	5047
2.29700	5046
2.29767	5044
2.29833	5043
2.29900	5041
2.29967	5040
2.30033	5039
2.30100	5038
2.30167	5036
2.30233	5035
2.30300	5034
2.30367	5033
2.30433	5032
2.30500	5031
2.30567	5030
2.30633	5029
2.30700	5028
2.30767	5027
2.30833	5026
2.30900	5025
2.30967	5024
2.31033	5024
2.31100	5023
2.31167	5022
2.31233	5021
2.31300	5020
2.31367	5020
2.31433	5019
2.31500	5018
2.31567	5018
2.31633	5017
2.31700	5016
2.31767	5016
2.31833	5015
2.31900	5015
2.31967	5014
2.32033	5014
2.32100	5013
2.32167	5013
2.32233	5013
2.32300	5012
2.32367	5012
2.32433	5012
2.32500	5012
2.32567	5012
2.32633	5011
2.32700	5011
2.32767	5011
2.32833	5011
2.32900	5011
2.32967	5011
2.33033	5011
2.33100	5011
2.33167	5011
2.33233	5011
2.33300	5012
2.33367	5012
2.33433	5012
2.33500	5012
2.33567	5012
2.33633	5013
2.33700	5013
2.33767	5013
2.33833	5014
2.33900	5014
2.33967	5014
2.34033	5015
2.34100	5015
2.34167	5015
2.34233	5016
2.34300	5016
2.34367	5017
2.34433	5017
2.34500	5018
2.34567	5018
2.34633	5019
2.34700	5019
2.34767	5020
2.34833	5020
2.34900	5021
2.34967	5021
2.35033	5022
2.35100	5022
2.35167	5023
2.35233	5023
2.35300	5024
2.35367	5025
2.35433	5025
2.35500	5026
2.35567	5026
2.35633	5027
2.35700	5028
2.35767	5028
2.35833	5029
2.35900	5030
2.35967	5031
2.36033	5031
2.36100	5032
2.36167	5033
2.36233	5033
2.36300	5034
2.36367	5035
2.36433	5035
2.36500	5036
2.36567	5036
2.36633	5037
2.36700	5038
2.36767	5038
2.36833	5039
2.36900	5039
2.36967	5040
2.37033	5040
2.37100	5041
2.37167	5041
2.37233	5042
2.37300	5042
2.37367	5042
2.37433	5043
2.37500	5043
2.37567	5043
2.37633	5044
2.37700	5044
2.37767	5044
2.37833	5044
2.37900	5045
2.37967	5045
2.38033	5045
2.38100	5045
2.38167	5045
2.38233	5045
2.38300	5045
2.38367	5045
2.38433	5045
2.38500	5045
2.38567	5045
2.38633	5045
2.38700	5045
2.38767	5044
2.38833	5044
2.38900	5044
2.38967	5044
2.39033	5043
2.39100	5043
2.39167	5043
2.39233	5042
2.39300	5042
2.39367	5042
2.39433	5041
2.39500	5041
2.39567	5040
2.39633	5040
2.39700	5039
2.39767	5039
2.39833	5039
2.39900	5038
2.39967	5038
2.40033	5037
2.40100	5037
2.40167	5037
2.40233	5036
2.40300	5036
2.40367	5035
2.40433	5035
2.40500	5034
2.40567	5034
2.40633	5033
2.40700	5033
2.40767	5032
2.40833	5032
2.40900	5031
2.40967	5031
2.41033	5030
2.41100	5029
2.41167	5029
2.41233	5028
2.41300	5028
2.41367	5027
2.41433	5026
2.41500	5026
2.41567	5025
2.41633	5024
2.41700	5024
2.41767	5023
2.41833	5023
2.41900	5022
2.41967	5021
2.42033	5021
2.42100	5020
2.42167	5020
2.42233	5019
2.42300	5018
2.42367	5018
2.42433	5017
2.42500	5016
2.42567	5016
2.42633	5015
2.42700	5014
2.42767	5014
2.42833	5013
2.42900	5012
2.42967	5011
2.43033	5011
2.43100	5010
2.43167	5009
2.43233	5008
2.43300	5007
2.43367	5006
2.43433	5005
2.43500	5004
2.43567	5003
2.43633	5002
2.43700	5001
2.43767	4999
2.43833	4998
2.43900	4997
2.43967	4995
2.44033	4994
2.44100	4993
2.44167	4991
2.44233	4990
2.44300	4988
2.44367	4987
2.44433	4985
2.44500	4984
2.44567	4982
2.44633	4981
2.44700	4979
2.44767	4978
2.44833	4976
2.44900	4975
2.44967	4973
2.45033	4972
2.45100	4970
2.45167	4969
2.45233	4967
2.45300	4966
2.45367	4964
2.45433	4963
2.45500	4961
2.45567	4960
2.45633	4959
2.45700	4957
2.45767	4956
2.45833	4954
2.45900	4953
2.45967	4951
2.46033	4950
2.46100	4948
2.46167	4947
2.46233	4945
2.46300	4943
2.46367	4942
2.46433	4940
2.46500	4938
2.46567	4937
2.46633	4935
2.46700	4934
2.46767	4932
2.46833	4930
2.46900	4929
2.46967	4927
2.47033	4925
2.47100	4924
2.47167	4922
2.47233	4920
2.47300	4918
2.47367	4917
2.47433	4915
2.47500	4914
2.47567	4912
2.47633	4910
2.47700	4909
2.47767	4907
2.47833	4905
2.47900	4904
2.47967	4902
2.48033	4900
2.48100	4899
2.48167	4897
2.48233	4896
2.48300	4894
2.48367	4892
2.48433	4891
2.48500	4889
2.48567	4887
2.48633	4886
2.48700	4884
2.48767	4882
2.48833	4880
2.48900	4879
2.48967	4877
2.49033	4875
2.49100	4874
2.49167	4872
2.49233	4870
2.49300	4868
2.49367	4866
2.49433	4865
2.49500	4863
2.49567	4861
2.49633	4859
2.49700	4858
2.49767	4856
2.49833	4854
2.49900	4853
2.49967	4851
2.50033	4849
2.50100	4848
2.50167	4846
2.50233	4845
2.50300	4843
2.50367	4842
2.50433	4840
2.50500	4839
2.50567	4837
2.50633	4836
2.50700	4834
2.50767	4833
2.50833	4831
2.50900	4830
2.50967	4828
2.51033	4826
2.51100	4825
2.51167	4824
2.51233	4822
2.51300	4821
2.51367	4819
2.51433	4818
2.51500	4816
2.51567	4815
2.51633	4813
2.51700	4812
2.51767	4810
2.51833	4809
2.51900	4807
2.51967	4806
2.52033	4804
2.52100	4803
2.52167	4801
2.52233	4800
2.52300	4799
2.52367	4797
2.52433	4796
2.52500	4794
2.52567	4793
2.52633	4791
2.52700	4790
2.52767	4788
2.52833	4787
2.52900	4785
2.52967	4784
2.53033	4782
2.53100	4781
2.53167	4779
2.53233	4778
2.53300	4776
2.53367	4774
2.53433	4773
2.53500	4771
2.53567	4769
2.53633	4768
2.53700	4766
2.53767	4765
2.53833	4763
2.53900	4761
2.53967	4760
2.54033	4758
2.54100	4756
2.54167	4755
2.54233	4753
2.54300	4752
2.54367	4750
2.54433	4749
2.54500	4747
2.54567	4745
2.54633	4744
2.54700	4742
2.54767	4741
2.54833	4739
2.54900	4737
2.54967	4736
2.55033	4734
2.55100	4732
2.55167	4731
2.55233	4729
2.55300	4727
2.55367	4726
2.55433	4724
2.55500	4722
2.55567	4721
2.55633	4719
2.55700	4717
2.55767	4716
2.55833	4714
2.55900	4712
2.55967	4711
2.56033	4709
2.56100	4708
2.56167	4706
2.56233	4705
2.56300	4703
2.56367	4702
2.56433	4701
2.56500	4699
2.56567	4698
2.56633	4697
2.56700	4695
2.56767	4694
2.56833	4693
2.56900	4691
2.56967	4690
2.57033	4689
2.57100	4688
2.57167	4686
2.57233	4685
2.57300	4684
2.57367	4683
2.57433	4682
2.57500	4680
2.57567	4679
2.57633	4678
2.57700	4677
2.57767	4676
2.57833	4675
2.57900	4674
2.57967	4673
2.58033	4672
2.58100	4671
2.58167	4670
2.58233	4669
2.58300	4668
2.58367	4667
2.58433	4666
2.58500	4666
2.58567	4665
2.58633	4664
2.58700	4663
2.58767	4662
2.58833	4662
2.58900	4661
2.58967	4660
2.59033	4659
2.59100	4658
2.59167	4658
2.59233	4657
2.59300	4656
2.59367	4655
2.59433	4655
2.59500	4654
2.59567	4653
2.59633	4653
2.59700	4652
2.59767	4651
2.59833	4650
2.59900	4649
2.59967	4649
2.60033	4648
2.60100	4647
2.60167	4646
2.60233	4646
2.60300	4645
2.60367	4644
2.60433	4644
2.60500	4643
2.60567	4642
2.60633	4641
2.60700	4641
2.60767	4640
2.60833	4639
2.60900	4639
2.60967	4638
2.61033	4637
2.61100	4636
2.61167	4635
2.61233	4635
2.61300	4634
2.61367	4633
2.61433	4632
2.61500	4631
2.61567	4630
2.61633	4629
2.61700	4628
2.61767	4627
2.61833	4627
2.61900	4626
2.61967	4625
2.62033	4624
2.62100	4623
2.62167	4622
2.62233	4622
2.62300	4621
2.62367	4620
2.62433	4620
2.62500	4619
2.62567	4618
2.62633	4617
2.62700	4616
2.62767	4616
2.62833	4615
2.62900	4614
2.62967	4613
2.63033	4612
2.63100	4611
2.63167	4610
2.63233	4609
2.63300	4608
2.63367	4607
2.63433	4606
2.63500	4605
2.63567	4604
2.63633	4603
2.63700	4602
2.63767	4601
2.63833	4600
2.63900	4599
2.63967	4598
2.64033	4598
2.64100	4597
2.64167	4596
2.64233	4595
2.64300	4594
2.64367	4593
2.64433	4592
2.64500	4591
2.64567	4590
2.64633	4589
2.64700	4588
2.64767	4587
2.64833	4586
2.64900	4585
2.64967	4584
2.65033	4583
2.65100	4582
2.65167	4581
2.65233	4580
2.65300	4579
2.65367	4578
2.65433	4577
2.65500	4576
2.65567	4575
2.65633	4574
2.65700	4573
2.65767	4572
2.65833	4571
2.65900	4570
2.65967	4569
2.66033	4568
2.66100	4567
2.66167	4566
2.66233	4565
2.66300	4564
2.66367	4563
2.66433	4562
2.66500	4561
2.66567	4561
2.66633	4560
2.66700	4559
2.66767	4558
2.66833	4557
2.66900	4556
2.66967	4555
2.67033	4554
2.67100	4553
2.67167	4552
2.67233	4552
2.67300	4551
2.67367	4550
2.67433	4549
2.67500	4548
2.67567	4547
2.67633	4546
2.67700	4545
2.67767	4544
2.67833	4543
2.67900	4542
2.67967	4541
2.68033	4540
2.68100	4539
2.68167	4538
2.68233	4537
2.68300	4536
2.68367	4535
2.68433	4534
2.68500	4533
2.68567	4532
2.68633	4531
2.68700	4530
2.68767	4528
2.68833	4527
2.68900	4526
2.68967	4525
2.69033	4524
2.69100	4523
2.69167	4522
2.69233	4521
2.69300	4520
2.69367	4519
2.69433	4517
2.69500	4516
2.69567	4515
2.69633	4514
2.69700	4513
2.69767	4512
2.69833	4511
2.69900	4509
2.69967	4508
2.70033	4507
2.70100	4506
2.70167	4505
2.70233	4503
2.70300	4502
2.70367	4501
2.70433	4500
2.70500	4499
2.70567	4498
2.70633	4496
2.70700	4495
2.70767	4494
2.70833	4493
2.70900	4492
2.70967	4491
2.71033	4490
2.71100	4489
2.71167	4488
2.71233	4487
2.71300	4486
2.71367	4486
2.71433	4485
2.71500	4484
2.71567	4483
2.71633	4482
2.71700	4481
2.71767	4480
2.71833	4479
2.71900	4479
2.71967	4478
2.72033	4477
2.72100	4476
2.72167	4475
2.72233	4475
2.72300	4474
2.72367	4473
2.72433	4472
2.72500	4472
2.72567	4471
2.72633	4470
2.72700	4469
2.72767	4469
2.72833	4468
2.72900	4467
2.72967	4467
2.73033	4466
2.73100	4465
2.73167	4465
2.73233	4464
2.73300	4463
2.73367	4463
2.73433	4462
2.73500	4462
2.73567	4461
2.73633	4461
2.73700	4460
2.73767	4459
2.73833	4459
2.73900	4458
2.73967	4458
2.74033	4457
2.74100	4457
2.74167	4456
2.74233	4456
2.74300	4455
2.74367	4455
2.74433	4455
2.74500	4454
2.74567	4454
2.74633	4453
2.74700	4453
2.74767	4453
2.74833	4453
2.74900	4452
2.74967	4452
2.75033	4452
2.75100	4452
2.75167	4452
2.75233	4451
2.75300	4451
2.75367	4451
2.75433	4451
2.75500	4451
2.75567	4451
2.75633	4451
2.75700	4451
2.75767	4451
2.75833	4451
2.75900	4451
2.75967	4451
2.76033	4451
2.76100	4451
2.76167	4452
2.76233	4452
2.76300	4452
2.76367	4452
2.76433	4452
2.76500	4452
2.76567	4453
2.76633	4453
2.76700	4453
2.76767	4454
2.76833	4454
2.76900	4454
2.76967	4455
2.77033	4455
2.77100	4456
2.77167	4456
2.77233	4457
2.77300	4457
2.77367	4458
2.77433	4459
2.77500	4459
2.77567	4460
2.77633	4461
2.77700	4461
2.77767	4462
2.77833	4463
2.77900	4464
2.77967	4465
2.78033	4466
2.78100	4468
2.78167	4469
2.78233	4470
2.78300	4472
2.78367	4473
2.78433	4475
2.78500	4477
2.78567	4479
2.78633	4480
2.78700	4482
2.78767	4484
2.78833	4487
2.78900	4489
2.78967	4491
2.79033	4494
2.79100	4496
2.79167	4499
2.79233	4501
2.79300	4504
2.79367	4507
2.79433	4510
2.79500	4514
2.79567	4517
2.79633	4520
2.79700	4524
2.79767	4527
2.79833	4531
2.79900	4535
2.79967	4539
2.80033	4543
2.80100	4547
2.80167	4551
2.80233	4555
2.80300	4560
2.80367	4564
2.80433	4569
2.80500	4573
2.80567	4578
2.80633	4582
2.80700	4587
2.80767	4592
2.80833	4596
2.80900	4601
2.80967	4606
2.81033	4611
2.81100	4616
2.81167	4620
2.81233	4625
2.81300	4630
2.81367	4635
2.81433	4639
2.81500	4644
2.81567	4649
2.81633	4653
2.81700	4658
2.81767	4662
2.81833	4667
2.81900	4671
2.81967	4675
2.82033	4679
2.82100	4683
2.82167	4687
2.82233	4691
2.82300	4694
2.82367	4697
2.82433	4701
2.82500	4704
2.82567	4707
2.82633	4709
2.82700	4712
2.82767	4714
2.82833	4717
2.82900	4719
2.82967	4721
2.83033	4722
2.83100	4724
2.83167	4726
2.83233	4727
2.83300	4728
2.83367	4729
2.83433	4730
2.83500	4730
2.83567	4731
2.83633	4731
2.83700	4731
2.83767	4731
2.83833	4731
2.83900	4731
2.83967	4731
2.84033	4730
2.84100	4729
2.84167	4729
2.84233	4728
2.84300	4726
2.84367	4725
2.84433	4724
2.84500	4722
2.84567	4721
2.84633	4719
2.84700	4717
2.84767	4715
2.84833	4713
2.84900	4711
2.84967	4708
2.85033	4706
2.85100	4704
2.85167	4701
2.85233	4698
2.85300	4696
2.85367	4693
2.85433	4691
2.85500	4688
2.85567	4685
2.85633	4682
2.85700	4680
2.85767	4677
2.85833	4674
2.85900	4672
2.85967	4669
2.86033	4666
2.86100	4664
2.86167	4661
2.86233	4658
2.86300	4656
2.86367	4653
2.86433	4651
2.86500	4648
2.86567	4646
2.86633	4643
2.86700	4641
2.86767	4639
2.86833	4636
2.86900	4634
2.86967	4632
2.87033	4630
2.87100	4628
2.87167	4627
2.87233	4625
2.87300	4623
2.87367	4622
2.87433	4621
2.87500	4619
2.87567	4618
2.87633	4617
2.87700	4616
2.87767	4616
2.87833	4615
2.87900	4615
2.87967	4614
2.88033	4614
2.88100	4614
2.88167	4614
2.88233	4615
2.88300	4615
2.88367	4616
2.88433	4617
2.88500	4618
2.88567	4619
2.88633	4621
2.88700	4622
2.88767	4624
2.88833	4626
2.88900	4628
2.88967	4631
2.89033	4633
2.89100	4636
2.89167	4639
2.89233	4642
2.89300	4646
2.89367	4649
2.89433	4653
2.89500	4657
2.89567	4661
2.89633	4665
2.89700	4670
2.89767	4674
2.89833	4679
2.89900	4683
2.89967	4688
2.90033	4693
2.90100	4697
2.90167	4702
2.90233	4707
2.90300	4712
2.90367	4716
2.90433	4721
2.90500	4725
2.90567	4730
2.90633	4735
2.90700	4739
2.90767	4743
2.90833	4747
2.90900	4751
2.90967	4755
2.91033	4759
2.91100	4762
2.91167	4766
2.91233	4769
2.91300	4772
2.91367	4774
2.91433	4777
2.91500	4779
2.91567	4781
2.91633	4783
2.91700	4784
2.91767	4785
2.91833	4786
2.91900	4786
2.91967	4786
2.92033	4786
2.92100	4786
2.92167	4785
2.92233	4784
2.92300	4783
2.92367	4782
2.92433	4780
2.92500	4778
2.92567	4775
2.92633	4773
2.92700	4770
2.92767	4766
2.92833	4763
2.92900	4759
2.92967	4755
2.93033	4751
2.93100	4747
2.93167	4742
2.93233	4738
2.93300	4733
2.93367	4728
2.93433	4722
2.93500	4717
2.93567	4711
2.93633	4706
2.93700	4700
2.93767	4694
2.93833	4688
2.93900	4681
2.93967	4675
2.94033	4669
2.94100	4662
2.94167	4656
2.94233	4649
2.94300	4642
2.94367	4636
2.94433	4629
2.94500	4622
2.94567	4615
2.94633	4608
2.94700	4601
2.94767	4594
2.94833	4587
2.94900	4581
2.94967	4574
2.95033	4567
2.95100	4560
2.95167	4553
2.95233	4546
2.95300	4540
2.95367	4533
2.95433	4526
2.95500	4520
2.95567	4513
2.95633	4506
2.95700	4500
2.95767	4493
2.95833	4487
2.95900	4480
2.95967	4474
2.96033	4468
2.96100	4461
2.96167	4455
2.96233	4449
2.96300	4443
2.96367	4437
2.96433	4431
2.96500	4425
2.96567	4420
2.96633	4414
2.96700	4408
2.96767	4403
2.96833	4397
2.96900	4392
2.96967	4386
2.97033	4381
2.97100	4376
2.97167	4371
2.97233	4366
2.97300	4361
2.97367	4356
2.97433	4351
2.97500	4346
2.97567	4341
2.97633	4337
2.97700	4332
2.97767	4328
2.97833	4323
2.97900	4319
2.97967	4315
2.98033	4311
2.98100	4307
2.98167	4303
2.98233	4299
2.98300	4295
2.98367	4291
2.98433	4288
2.98500	4284
2.98567	4281
2.98633	4277
2.98700	4273
2.98767	4270
2.98833	4267
2.98900	4263
2.98967	4260
2.99033	4257
2.99100	4253
2.99167	4250
2.99233	4247
2.99300	4244
2.99367	4241
2.99433	4238
2.99500	4235
2.99567	4232
2.99633	4229
2.99700	4226
2.99767	4223
2.99833	4220
2.99900	4217
2.99967	4214
3.00033	4211
3.00100	4209
3.00167	4206
3.00233	4203
3.00300	4201
3.00367	4198
3.00433	4195
3.00500	4193
3.00567	4190
3.00633	4188
3.00700	4185
3.00767	4183
3.00833	4180
3.00900	4178
3.00967	4175
3.01033	4173
3.01100	4171
3.01167	4168
3.01233	4166
3.01300	4163
3.01367	4161
3.01433	4159
3.01500	4157
3.01567	4155
3.01633	4153
3.01700	4150
3.01767	4148
3.01833	4146
3.01900	4144
3.01967	4142
3.02033	4140
3.02100	4138
3.02167	4136
3.02233	4134
3.02300	4132
3.02367	4130
3.02433	4128
3.02500	4126
3.02567	4124
3.02633	4123
3.02700	4121
3.02767	4119
3.02833	4117
3.02900	4115
3.02967	4113
3.03033	4111
3.03100	4110
3.03167	4108
3.03233	4106
3.03300	4104
3.03367	4103
3.03433	4101
3.03500	4099
3.03567	4098
3.03633	4096
3.03700	4094
3.03767	4093
3.03833	4091
3.03900	4089
3.03967	4088
3.04033	4086
3.04100	4085
3.04167	4083
3.04233	4082
3.04300	4080
3.04367	4079
3.04433	4078
3.04500	4076
3.04567	4075
3.04633	4073
3.04700	4072
3.04767	4071
3.04833	4069
3.04900	4068
3.04967	4067
3.05033	4066
3.05100	4064
3.05167	4063
3.05233	4062
3.05300	4061
3.05367	4060
3.05433	4059
3.05500	4058
3.05567	4057
3.05633	4056
3.05700	4055
3.05767	4054
3.05833	4053
3.05900	4052
3.05967	4051
3.06033	4050
3.06100	4049
3.06167	4049
3.06233	4048
3.06300	4047
3.06367	4046
3.06433	4045
3.06500	4044
3.06567	4044
3.06633	4043
3.06700	4042
3.06767	4042
3.06833	4041
3.06900	4040
3.06967	4040
3.07033	4039
3.07100	4039
3.07167	4038
3.07233	4037
3.07300	4037
3.07367	4036
3.07433	4036
3.07500	4035
3.07567	4034
3.07633	4034
3.07700	4033
3.07767	4032
3.07833	4032
3.07900	4031
3.07967	4030
3.08033	4029
3.08100	4029
3.08167	4028
3.08233	4027
3.08300	4027
3.08367	4026
3.08433	4025
3.08500	4024
3.08567	4024
3.08633	4023
3.08700	4022
3.08767	4021
3.08833	4020
3.08900	4020
3.08967	4019
3.09033	4018
3.09100	4017
3.09167	4016
3.09233	4015
3.09300	4014
3.09367	4013
3.09433	4012
3.09500	4011
3.09567	4010
3.09633	4009
3.09700	4008
3.09767	4007
3.09833	4006
3.09900	4005
3.09967	4004
3.10033	4003
3.10100	4002
3.10167	4000
3.10233	3999
3.10300	3998
3.10367	3997
3.10433	3995
3.10500	3994
3.10567	3993
3.10633	3991
3.10700	3990
3.10767	3988
3.10833	3987
3.10900	3986
3.10967	3984
3.11033	3983
3.11100	3981
3.11167	3980
3.11233	3978
3.11300	3977
3.11367	3975
3.11433	3974
3.11500	3972
3.11567	3971
3.11633	3969
3.11700	3968
3.11767	3966
3.11833	3965
3.11900	3963
3.11967	3962
3.12033	3960
3.12100	3959
3.12167	3958
3.12233	3956
3.12300	3955
3.12367	3953
3.12433	3952
3.12500	3951
3.12567	3949
3.12633	3948
3.12700	3946
3.12767	3945
3.12833	3944
3.12900	3942
3.12967	3941
3.13033	3940
3.13100	3938
3.13167	3937
3.13233	3936
3.13300	3934
3.13367	3933
3.13433	3932
3.13500	3930
3.13567	3929
3.13633	3928
3.13700	3926
3.13767	3925
3.13833	3924
3.13900	3922
3.13967	3921
3.14033	3920
3.14100	3918
3.14167	3917
3.14233	3916
3.14300	3915
3.14367	3913
3.14433	3912
3.14500	3911
3.14567	3910
3.14633	3909
3.14700	3907
3.14767	3906
3.14833	3905
3.14900	3904
3.14967	3903
3.15033	3902
3.15100	3901
3.15167	3900
3.15233	3899
3.15300	3898
3.15367	3897
3.15433	3896
3.15500	3895
3.15567	3895
3.15633	3894
3.15700	3893
3.15767	3892
3.15833	3891
3.15900	3890
3.15967	3890
3.16033	3889
3.16100	3888
3.16167	3887
3.16233	3886
3.16300	3886
3.16367	3885
3.16433	3884
3.16500	3883
3.16567	3883
3.16633	3882
3.16700	3881
3.16767	3880
3.16833	3879
3.16900	3879
3.16967	3878
3.17033	3877
3.17100	3876
3.17167	3876
3.17233	3875
3.17300	3874
3.17367	3873
3.17433	3873
3.17500	3872
3.17567	3871
3.17633	3870
3.17700	3869
3.17767	3869
3.17833	3868
3.17900	3867
3.17967	3867
3.18033	3866
3.18100	3865
3.18167	3865
3.18233	3864
3.18300	3863
3.18367	3863
3.18433	3862
3.18500	3861
3.18567	3861
3.18633	3860
3.18700	3859
3.18767	3859
3.18833	3858
3.18900	3857
3.18967	3857
3.19033	3856
3.19100	3855
3.19167	3855
3.19233	3854
3.19300	3853
3.19367	3853
3.19433	3852
3.19500	3851
3.19567	3850
3.19633	3850
3.19700	3849
3.19767	3848
3.19833	3848
3.19900	3847
3.19967	3846
3.20033	3845
3.20100	3844
3.20167	3843
3.20233	3842
3.20300	3842
3.20367	3841
3.20433	3840
3.20500	3839
3.20567	3838
3.20633	3838
3.20700	3837
3.20767	3836
3.20833	3835
3.20900	3834
3.20967	3834
3.21033	3833
3.21100	3832
3.21167	3831
3.21233	3831
3.21300	3830
3.21367	3829
3.21433	3828
3.21500	3828
3.21567	3827
3.21633	3826
3.21700	3826
3.21767	3825
3.21833	3824
3.21900	3823
3.21967	3823
3.22033	3822
3.22100	3821
3.22167	3821
3.22233	3820
3.22300	3819
3.22367	3818
3.22433	3817
3.22500	3817
3.22567	3816
3.22633	3815
3.22700	3814
3.22767	3814
3.22833	3813
3.22900	3812
3.22967	3811
3.23033	3811
3.23100	3810
3.23167	3809
3.23233	3809
3.23300	3808
3.23367	3807
3.23433	3807
3.23500	3806
3.23567	3805
3.23633	3805
3.23700	3804
3.23767	3803
3.23833	3803
3.23900	3802
3.23967	3801
3.24033	3801
3.24100	3800
3.24167	3800
3.24233	3799
3.24300	3798
3.24367	3798
3.24433	3797
3.24500	3796
3.24567	3796
3.24633	3795
3.24700	3794
3.24767	3794
3.24833	3793
3.24900	3792
3.24967	3792
3.25033	3791
3.25100	3790
3.25167	3789
3.25233	3789
3.25300	3788
3.25367	3787
3.25433	3787
3.25500	3786
3.25567	3785
3.25633	3784
3.25700	3784
3.25767	3783
3.25833	3782
3.25900	3782
3.25967	3781
3.26033	3781
3.26100	3780
3.26167	3780
3.26233	3779
3.26300	3778
3.26367	3778
3.26433	3777
3.26500	3777
3.26567	3776
3.26633	3776
3.26700	3775
3.26767	3775
3.26833	3775
3.26900	3774
3.26967	3774
3.27033	3773
3.27100	3773
3.27167	3772
3.27233	3772
3.27300	3771
3.27367	3771
3.27433	3770
3.27500	3770
3.27567	3769
3.27633	3769
3.27700	3768
3.27767	3768
3.27833	3767
3.27900	3767
3.27967	3767
3.28033	3766
3.28100	3766
3.28167	3765
3.28233	3765
3.28300	3765
3.28367	3764
3.28433	3764
3.28500	3764
3.28567	3763
3.28633	3763
3.28700	3763
3.28767	3762
3.28833	3762
3.28900	3762
3.28967	3762
3.29033	3762
3.29100	3762
3.29167	3762
3.29233	3761
3.29300	3761
3.29367	3761
3.29433	3761
3.29500	3761
3.29567	3761
3.29633	3761
3.29700	3761
3.29767	3761
3.29833	3761
3.29900	3761
3.29967	3761
3.30033	3761
3.30100	3761
3.30167	3762
3.30233	3762
3.30300	3762
3.30367	3762
3.30433	3762
3.30500	3762
3.30567	3762
3.30633	3762
3.30700	3762
3.30767	3762
3.30833	3762
3.30900	3763
3.30967	3763
3.31033	3763
3.31100	3763
3.31167	3763
3.31233	3763
3.31300	3763
3.31367	3763
3.31433	3763
3.31500	3763
3.31567	3762
3.31633	3762
3.31700	3762
3.31767	3762
3.31833	3762
3.31900	3762
3.31967	3762
3.32033	3762
3.32100	3762
3.32167	3762
3.32233	3761
3.32300	3761
3.32367	3761
3.32433	3761
3.32500	3760
3.32567	3760
3.32633	3760
3.32700	3759
3.32767	3759
3.32833	3759
3.32900	3758
3.32967	3758
3.33033	3757
3.33100	3757
3.33167	3756
3.33233	3756
3.33300	3755
3.33367	3755
3.33433	3754
3.33500	3753
3.33567	3753
3.33633	3752
3.33700	3751
3.33767	3751
3.33833	3750
3.33900	3749
3.33967	3748
3.34033	3747
3.34100	3747
3.34167	3746
3.34233	3745
3.34300	3744
3.34367	3743
3.34433	3742
3.34500	3741
3.34567	3741
3.34633	3740
3.34700	3739
3.34767	3739
3.34833	3738
3.34900	3737
3.34967	3737
3.35033	3736
3.35100	3736
3.35167	3735
3.35233	3735
3.35300	3734
3.35367	3734
3.35433	3733
3.35500	3733
3.35567	3732
3.35633	3732
3.35700	3731
3.35767	3731
3.35833	3730
3.35900	3730
3.35967	3730
3.36033	3729
3.36100	3729
3.36167	3728
3.36233	3728
3.36300	3727
3.36367	3727
3.36433	3727
3.36500	3726
3.36567	3726
3.36633	3725
3.36700	3725
3.36767	3724
3.36833	3724
3.36900	3723
3.36967	3723
3.37033	3723
3.37100	3722
3.37167	3722
3.37233	3721
3.37300	3721
3.37367	3720
3.37433	3720
3.37500	3720
3.37567	3719
3.37633	3719
3.37700	3718
3.37767	3718
3.37833	3717
3.37900	3717
3.37967	3717
3.38033	3716
3.38100	3716
3.38167	3716
3.38233	3715
3.38300	3715
3.38367	3715
3.38433	3715
3.38500	3715
3.38567	3714
3.38633	3714
3.38700	3714
3.38767	3714
3.38833	3714
3.38900	3714
3.38967	3714
3.39033	3714
3.39100	3714
3.39167	3714
3.39233	3714
3.39300	3714
3.39367	3714
3.39433	3715
3.39500	3715
3.39567	3715
3.39633	3715
3.39700	3715
3.39767	3715
3.39833	3715
3.39900	3715
3.39967	3715
3.40033	3715
3.40100	3715
3.40167	3715
3.40233	3715
3.40300	3715
3.40367	3716
3.40433	3716
3.40500	3716
3.40567	3716
3.40633	3716
3.40700	3716
3.40767	3716
3.40833	3716
3.40900	3716
3.40967	3717
3.41033	3717
3.41100	3717
3.41167	3717
3.41233	3717
3.41300	3717
3.41367	3718
3.41433	3718
3.41500	3718
3.41567	3718
3.41633	3718
3.41700	3719
3.41767	3719
3.41833	3719
3.41900	3719
3.41967	3720
3.42033	3720
3.42100	3720
3.42167	3721
3.42233	3721
3.42300	3721
3.42367	3722
3.42433	3722
3.42500	3722
3.42567	3722
3.42633	3723
3.42700	3723
3.42767	3723
3.42833	3724
3.42900	3724
3.42967	3725
3.43033	3725
3.43100	3725
3.43167	3726
3.43233	3726
3.43300	3727
3.43367	3727
3.43433	3728
3.43500	3728
3.43567	3729
3.43633	3730
3.43700	3730
3.43767	3731
3.43833	3731
3.43900	3732
3.43967	3733
3.44033	3733
3.44100	3734
3.44167	3734
3.44233	3735
3.44300	3736
3.44367	3736
3.44433	3737
3.44500	3737
3.44567	3738
3.44633	3739
3.44700	3739
3.44767	3740
3.44833	3740
3.44900	3741
3.44967	3742
3.45033	3742
3.45100	3743
3.45167	3744
3.45233	3744
3.45300	3745
3.45367	3746
3.45433	3747
3.45500	3748
3.45567	3749
3.45633	3749
3.45700	3750
3.45767	3751
3.45833	3752
3.45900	3753
3.45967	3754
3.46033	3755
3.46100	3756
3.46167	3757
3.46233	3758
3.46300	3759
3.46367	3760
3.46433	3762
3.46500	3763
3.46567	3764
3.46633	3765
3.46700	3766
3.46767	3767
3.46833	3768
3.46900	3769
3.46967	3770
3.47033	3772
3.47100	3773
3.47167	3774
3.47233	3775
3.47300	3776
3.47367	3777
3.47433	3778
3.47500	3780
3.47567	3781
3.47633	3782
3.47700	3784
3.47767	3785
3.47833	3786
3.47900	3788
3.47967	3789
3.48033	3791
3.48100	3792
3.48167	3793
3.48233	3795
3.48300	3796
3.48367	3798
3.48433	3799
3.48500	3801
3.48567	3803
3.48633	3804
3.48700	3806
3.48767	3808
3.48833	3810
3.48900	3812
3.48967	3814
3.49033	3816
3.49100	3818
3.49167	3821
3.49233	3823
3.49300	3826
3.49367	3828
3.49433	3831
3.49500	3834
3.49567	3837
3.49633	3840
3.49700	3843
3.49767	3846
3.49833	3849
3.49900	3853
3.49967	3856
3.50033	3860
3.50100	3864
3.50167	3868
3.50233	3873
3.50300	3877
3.50367	3882
3.50433	3887
3.50500	3892
3.50567	3897
3.50633	3903
3.50700	3909
3.50767	3915
3.50833	3921
3.50900	3927
3.50967	3934
3.51033	3941
3.51100	3949
3.51167	3956
3.51233	3964
3.51300	3973
3.51367	3981
3.51433	3990
3.51500	3999
3.51567	4009
3.51633	4019
3.51700	4029
3.51767	4040
3.51833	4051
3.51900	4063
3.51967	4075
3.52033	4087
3.52100	4099
3.52167	4113
3.52233	4126
3.52300	4140
3.52367	4154
3.52433	4169
3.52500	4184
3.52567	4199
3.52633	4215
3.52700	4231
3.52767	4248
3.52833	4265
3.52900	4282
3.52967	4300
3.53033	4318
3.53100	4337
3.53167	4355
3.53233	4374
3.53300	4394
3.53367	4414
3.53433	4434
3.53500	4454
3.53567	4475
3.53633	4496
3.53700	4517
3.53767	4539
3.53833	4560
3.53900	4582
3.53967	4604
3.54033	4626
3.54100	4649
3.54167	4671
3.54233	4694
3.54300	4716
3.54367	4739
3.54433	4761
3.54500	4784
3.54567	4807
3.54633	4829
3.54700	4851
3.54767	4874
3.54833	4896
3.54900	4917
3.54967	4939
3.55033	4961
3.55100	4982
3.55167	5003
3.55233	5023
3.55300	5043
3.55367	5063
3.55433	5083
3.55500	5102
3.55567	5121
3.55633	5139
3.55700	5157
3.55767	5174
3.55833	5191
3.55900	5208
3.55967	5223
3.56033	5239
3.56100	5253
3.56167	5268
3.56233	5281
3.56300	5294
3.56367	5307
3.56433	5318
3.56500	5330
3.56567	5340
3.56633	5350
3.56700	5359
3.56767	5368
3.56833	5376
3.56900	5383
3.56967	5390
3.57033	5396
3.57100	5402
3.57167	5407
3.57233	5412
3.57300	5416
3.57367	5419
3.57433	5422
3.57500	5424
3.57567	5426
3.57633	5427
3.57700	5428
3.57767	5428
3.57833	5427
3.57900	5426
3.57967	5425
3.58033	5423
3.58100	5421
3.58167	5418
3.58233	5415
3.58300	5411
3.58367	5407
3.58433	5403
3.58500	5398
3.58567	5393
3.58633	5387
3.58700	5381
3.58767	5375
3.58833	5369
3.58900	5362
3.58967	5355
3.59033	5348
3.59100	5341
3.59167	5333
3.59233	5325
3.59300	5317
3.59367	5309
3.59433	5300
3.59500	5292
3.59567	5283
3.59633	5274
3.59700	5265
3.59767	5256
3.59833	5247
3.59900	5238
3.59967	5229
3.60033	5219
3.60100	5210
3.60167	5200
3.60233	5191
3.60300	5181
3.60367	5172
3.60433	5162
3.60500	5152
3.60567	5143
3.60633	5133
3.60700	5123
3.60767	5113
3.60833	5103
3.60900	5093
3.60967	5083
3.61033	5074
3.61100	5064
3.61167	5054
3.61233	5044
3.61300	5034
3.61367	5024
3.61433	5014
3.61500	5004
3.61567	4994
3.61633	4984
3.61700	4974
3.61767	4964
3.61833	4954
3.61900	4944
3.61967	4934
3.62033	4924
3.62100	4914
3.62167	4904
3.62233	4894
3.62300	4884
3.62367	4874
3.62433	4864
3.62500	4854
3.62567	4844
3.62633	4834
3.62700	4823
3.62767	4813
3.62833	4803
3.62900	4792
3.62967	4782
3.63033	4772
3.63100	4761
3.63167	4751
3.63233	4740
3.63300	4730
3.63367	4719
3.63433	4709
3.63500	4698
3.63567	4688
3.63633	4677
3.63700	4666
3.63767	4655
3.63833	4645
3.63900	4634
3.63967	4623
3.64033	4612
3.64100	4601
3.64167	4591
3.64233	4580
3.64300	4569
3.64367	4558
3.64433	4547
3.64500	4536
3.64567	4525
3.64633	4514
3.64700	4503
3.64767	4492
3.64833	4481
3.64900	4470
3.64967	4459
3.65033	4448
3.65100	4438
3.65167	4427
3.65233	4416
3.65300	4405
3.65367	4394
3.65433	4383
3.65500	4373
3.65567	4362
3.65633	4351
3.65700	4341
3.65767	4330
3.65833	4320
3.65900	4309
3.65967	4299
3.66033	4288
3.66100	4278
3.66167	4268
3.66233	4258
3.66300	4248
3.66367	4238
3.66433	4228
3.66500	4218
3.66567	4208
3.66633	4198
3.66700	4188
3.66767	4179
3.66833	4169
3.66900	4160
3.66967	4150
3.67033	4141
3.67100	4132
3.67167	4123
3.67233	4114
3.67300	4105
3.67367	4096
3.67433	4087
3.67500	4078
3.67567	4069
3.67633	4061
3.67700	4053
3.67767	4044
3.67833	4036
3.67900	4028
3.67967	4020
3.68033	4012
3.68100	4004
3.68167	3997
3.68233	3989
3.68300	3982
3.68367	3974
3.68433	3967
3.68500	3960
3.68567	3953
3.68633	3947
3.68700	3940
3.68767	3933
3.68833	3927
3.68900	3920
3.68967	3914
3.69033	3908
3.69100	3902
3.69167	3896
3.69233	3890
3.69300	3884
3.69367	3878
3.69433	3873
3.69500	3867
3.69567	3862
3.69633	3856
3.69700	3851
3.69767	3846
3.69833	3841
3.69900	3836
3.69967	3831
3.70033	3826
3.70100	3821
3.70167	3816
3.70233	3811
3.70300	3807
3.70367	3802
3.70433	3798
3.70500	3793
3.70567	3789
3.70633	3785
3.70700	3781
3.70767	3776
3.70833	3772
3.70900	3768
3.70967	3764
3.71033	3760
3.71100	3756
3.71167	3752
3.71233	3749
3.71300	3745
3.71367	3741
3.71433	3738
3.71500	3734
3.71567	3731
3.71633	3727
3.71700	3724
3.71767	3720
3.71833	3717
3.71900	3714
3.71967	3710
3.72033	3707
3.72100	3704
3.72167	3701
3.72233	3698
3.72300	3695
3.72367	3692
3.72433	3689
3.72500	3686
3.72567	3683
3.72633	3680
3.72700	3677
3.72767	3675
3.72833	3672
3.72900	3670
3.72967	3667
3.73033	3664
3.73100	3662
3.73167	3659
3.73233	3657
3.73300	3655
3.73367	3652
3.73433	3650
3.73500	3648
3.73567	3645
3.73633	3643
3.73700	3641
3.73767	3639
3.73833	3636
3.73900	3634
3.73967	3632
3.74033	3630
3.74100	3628
3.74167	3626
3.74233	3624
3.74300	3622
3.74367	3621
3.74433	3619
3.74500	3617
3.74567	3615
3.74633	3613
3.74700	3612
3.74767	3610
3.74833	3608
3.74900	3606
3.74967	3604
3.75033	3603
3.75100	3601
3.75167	3599
3.75233	3597
3.75300	3596
3.75367	3594
3.75433	3592
3.75500	3591
3.75567	3589
3.75633	3588
3.75700	3586
3.75767	3585
3.75833	3583
3.75900	3582
3.75967	3580
3.76033	3579
3.76100	3577
3.76167	3576
3.76233	3574
3.76300	3573
3.76367	3572
3.76433	3570
3.76500	3569
3.76567	3568
3.76633	3566
3.76700	3565
3.76767	3564
3.76833	3563
3.76900	3561
3.76967	3560
3.77033	3559
3.77100	3558
3.77167	3557
3.77233	3555
3.77300	3554
3.77367	3553
3.77433	3552
3.77500	3551
3.77567	3550
3.77633	3549
3.77700	3548
3.77767	3546
3.77833	3545
3.77900	3544
3.77967	3543
3.78033	3542
3.78100	3541
3.78167	3540
3.78233	3539
3.78300	3538
3.78367	3537
3.78433	3536
3.78500	3535
3.78567	3534
3.78633	3533
3.78700	3533
3.78767	3532
3.78833	3531
3.78900	3530
3.78967	3529
3.79033	3528
3.79100	3527
3.79167	3527
3.79233	3526
3.79300	3525
3.79367	3524
3.79433	3524
3.79500	3523
3.79567	3522
3.79633	3522
3.79700	3521
3.79767	3520
3.79833	3520
3.79900	3519
3.79967	3518
3.80033	3518
3.80100	3517
3.80167	3517
3.80233	3516
3.80300	3516
3.80367	3515
3.80433	3514
3.80500	3514
3.80567	3513
3.80633	3513
3.80700	3512
3.80767	3512
3.80833	3511
3.80900	3511
3.80967	3510
3.81033	3510
3.81100	3509
3.81167	3508
3.81233	3508
3.81300	3507
3.81367	3507
3.81433	3506
3.81500	3506
3.81567	3505
3.81633	3504
3.81700	3504
3.81767	3503
3.81833	3503
3.81900	3502
3.81967	3502
3.82033	3501
3.82100	3501
3.82167	3500
3.82233	3500
3.82300	3499
3.82367	3498
3.82433	3498
3.82500	3497
3.82567	3497
3.82633	3496
3.82700	3496
3.82767	3496
3.82833	3495
3.82900	3495
3.82967	3494
3.83033	3494
3.83100	3493
3.83167	3492
3.83233	3492
3.83300	3491
3.83367	3491
3.83433	3490
3.83500	3490
3.83567	3489
3.83633	3488
3.83700	3488
3.83767	3487
3.83833	3486
3.83900	3486
3.83967	3485
3.84033	3484
3.84100	3484
3.84167	3483
3.84233	3482
3.84300	3482
3.84367	3481
3.84433	3480
3.84500	3480
3.84567	3479
3.84633	3478
3.84700	3477
3.84767	3477
3.84833	3476
3.84900	3475
3.84967	3474
3.85033	3473
3.85100	3472
3.85167	3472
3.85233	3471
3.85300	3470
3.85367	3469
3.85433	3468
3.85500	3468
3.85567	3467
3.85633	3466
3.85700	3466
3.85767	3465
3.85833	3464
3.85900	3464
3.85967	3463
3.86033	3462
3.86100	3462
3.86167	3461
3.86233	3460
3.86300	3459
3.86367	3459
3.86433	3458
3.86500	3457
3.86567	3456
3.86633	3456
3.86700	3455
3.86767	3454
3.86833	3454
3.86900	3453
3.86967	3452
3.87033	3451
3.87100	3451
3.87167	3450
3.87233	3449
3.87300	3449
3.87367	3448
3.87433	3447
3.87500	3447
3.87567	3446
3.87633	3445
3.87700	3445
3.87767	3444
3.87833	3443
3.87900	3443
3.87967	3442
3.88033	3442
3.88100	3441
3.88167	3440
3.88233	3440
3.88300	3439
3.88367	3439
3.88433	3438
3.88500	3438
3.88567	3438
3.88633	3437
3.88700	3437
3.88767	3436
3.88833	3436
3.88900	3436
3.88967	3435
3.89033	3435
3.89100	3435
3.89167	3434
3.89233	3434
3.89300	3434
3.89367	3433
3.89433	3433
3.89500	3433
3.89567	3433
3.89633	3433
3.89700	3432
3.89767	3432
3.89833	3432
3.89900	3432
3.89967	3432
3.90033	3432
3.90100	3431
3.90167	3431
3.90233	3431
3.90300	3431
3.90367	3431
3.90433	3431
3.90500	3431
3.90567	3430
3.90633	3430
3.90700	3430
3.90767	3430
3.90833	3430
3.90900	3430
3.90967	3430
3.91033	3430
3.91100	3430
3.91167	3430
3.91233	3430
3.91300	3430
3.91367	3430
3.91433	3431
3.91500	3431
3.91567	3431
3.91633	3431
3.91700	3431
3.91767	3431
3.91833	3431
3.91900	3431
3.91967	3431
3.92033	3431
3.92100	3431
3.92167	3431
3.92233	3432
3.92300	3432
3.92367	3432
3.92433	3432
3.92500	3432
3.92567	3432
3.92633	3432
3.92700	3432
3.92767	3433
3.92833	3433
3.92900	3433
3.92967	3433
3.93033	3433
3.93100	3433
3.93167	3433
3.93233	3433
3.93300	3433
3.93367	3433
3.93433	3432
3.93500	3432
3.93567	3432
3.93633	3432
3.93700	3432
3.93767	3432
3.93833	3432
3.93900	3432
3.93967	3432
3.94033	3432
3.94100	3432
3.94167	3432
3.94233	3432
3.94300	3431
3.94367	3431
3.94433	3431
3.94500	3431
3.94567	3431
3.94633	3431
3.94700	3431
3.94767	3430
3.94833	3430
3.94900	3430
3.94967	3430
3.95033	3430
3.95100	3430
3.95167	3429
3.95233	3429
3.95300	3429
3.95367	3429
3.95433	3429
3.95500	3428
3.95567	3428
3.95633	3428
3.95700	3428
3.95767	3427
3.95833	3427
3.95900	3427
3.95967	3427
3.96033	3426
3.96100	3426
3.96167	3426
3.96233	3425
3.96300	3425
3.96367	3425
3.96433	3425
3.96500	3425
3.96567	3424
3.96633	3424
3.96700	3424
3.96767	3424
3.96833	3423
3.96900	3423
3.96967	3423
3.97033	3423
3.97100	3423
3.97167	3422
3.97233	3422
3.97300	3422
3.97367	3422
3.97433	3422
3.97500	3422
3.97567	3422
3.97633	3421
3.97700	3421
3.97767	3421
3.97833	3421
3.97900	3421
3.97967	3421
3.98033	3421
3.98100	3421
3.98167	3421
3.98233	3421
3.98300	3421
3.98367	3421
3.98433	3421
3.98500	3421
3.98567	3421
3.98633	3421
3.98700	3421
3.98767	3421
3.98833	3422
3.98900	3422
3.98967	3422
3.99033	3422
3.99100	3423
3.99167	3423
3.99233	3424
3.99300	3424
3.99367	3425
3.99433	3425
3.99500	3426
3.99567	3426
3.99633	3427
3.99700	3428
3.99767	3429
3.99833	3430
3.99900	3431
3.99967	3432
4.00033	3433
4.00100	3434
4.00167	3436
4.00233	3437
4.00300	3439
4.00367	3440
4.00433	3442
4.00500	3444
4.00567	3445
4.00633	3447
4.00700	3449
4.00767	3451
4.00833	3453
4.00900	3455
4.00967	3457
4.01033	3460
4.01100	3462
4.01167	3464
4.01233	3467
4.01300	3470
4.01367	3472
4.01433	3475
4.01500	3478
4.01567	3481
4.01633	3484
4.01700	3487
4.01767	3490
4.01833	3493
4.01900	3496
4.01967	3500
4.02033	3503
4.02100	3507
4.02167	3511
4.02233	3515
4.02300	3519
4.02367	3523
4.02433	3527
4.02500	3531
4.02567	3535
4.02633	3540
4.02700	3544
4.02767	3549
4.02833	3554
4.02900	3559
4.02967	3563
4.03033	3568
4.03100	3574
4.03167	3579
4.03233	3584
4.03300	3590
4.03367	3595
4.03433	3601
4.03500	3606
4.03567	3612
4.03633	3618
4.03700	3624
4.03767	3630
4.03833	3636
4.03900	3642
4.03967	3648
4.04033	3655
4.04100	3661
4.04167	3667
4.04233	3674
4.04300	3681
4.04367	3688
4.04433	3694
4.04500	3701
4.04567	3708
4.04633	3715
4.04700	3723
4.04767	3730
4.04833	3737
4.04900	3744
4.04967	3752
4.05033	3759
4.05100	3766
4.05167	3774
4.05233	3781
4.05300	3789
4.05367	3796
4.05433	3804
4.05500	3811
4.05567	3819
4.05633	3826
4.05700	3834
4.05767	3842
4.05833	3849
4.05900	3857
4.05967	3864
4.06033	3872
4.06100	3879
4.06167	3887
4.06233	3894
4.06300	3901
4.06367	3909
4.06433	3916
4.06500	3923
4.06567	3931
4.06633	3938
4.06700	3945
4.06767	3952
4.06833	3958
4.06900	3965
4.06967	3972
4.07033	3979
4.07100	3985
4.07167	3992
4.07233	3998
4.07300	4004
4.07367	4011
4.07433	4017
4.07500	4023
4.07567	4029
4.07633	4035
4.07700	4040
4.07767	4046
4.07833	4051
4.07900	4057
4.07967	4062
4.08033	4067
4.08100	4072
4.08167	4077
4.08233	4082
4.08300	4086
4.08367	4091
4.08433	4096
4.08500	4100
4.08567	4104
4.08633	4109
4.08700	4113
4.08767	4117
4.08833	4121
4.08900	4124
4.08967	4128
4.09033	4132
4.09100	4135
4.09167	4138
4.09233	4142
4.09300	4145
4.09367	4148
4.09433	4151
4.09500	4153
4.09567	4156
4.09633	4159
4.09700	4161
4.09767	4164
4.09833	4166
4.09900	4169
4.09967	4171
4.10033	4173
4.10100	4175
4.10167	4177
4.10233	4180
4.10300	4182
4.10367	4184
4.10433	4186
4.10500	4187
4.10567	4189
4.10633	4191
4.10700	4193
4.10767	4195
4.10833	4196
4.10900	4198
4.10967	4200
4.11033	4202
4.11100	4203
4.11167	4205
4.11233	4206
4.11300	4208
4.11367	4210
4.11433	4211
4.11500	4213
4.11567	4215
4.11633	4217
4.11700	4218
4.11767	4220
4.11833	4222
4.11900	4223
4.11967	4225
4.12033	4227
4.12100	4228
4.12167	4230
4.12233	4232
4.12300	4233
4.12367	4235
4.12433	4237
4.12500	4239
4.12567	4241
4.12633	4243
4.12700	4245
4.12767	4247
4.12833	4249
4.12900	4252
4.12967	4254
4.13033	4256
4.13100	4259
4.13167	4261
4.13233	4264
4.13300	4266
4.13367	4269
4.13433	4272
4.13500	4275
4.13567	4278
4.13633	4281
4.13700	4284
4.13767	4287
4.13833	4290
4.13900	4293
4.13967	4296
4.14033	4300
4.14100	4303
4.14167	4307
4.14233	4310
4.14300	4314
4.14367	4318
4.14433	4322
4.14500	4325
4.14567	4329
4.14633	4333
4.14700	4337
4.14767	4341
4.14833	4345
4.14900	4349
4.14967	4354
4.15033	4358
4.15100	4362
4.15167	4366
4.15233	4371
4.15300	4375
4.15367	4380
4.15433	4384
4.15500	4388
4.15567	4393
4.15633	4397
4.15700	4402
4.15767	4406
4.15833	4411
4.15900	4416
4.15967	4420
4.16033	4425
4.16100	4429
4.16167	4434
4.16233	4438
4.16300	4443
4.16367	4447
4.16433	4452
4.16500	4457
4.16567	4461
4.16633	4466
4.16700	4471
4.16767	4475
4.16833	4480
4.16900	4485
4.16967	4489
4.17033	4494
4.17100	4499
4.17167	4503
4.17233	4508
4.17300	4513
4.17367	4518
4.17433	4522
4.17500	4527
4.17567	4532
4.17633	4537
4.17700	4542
4.17767	4547
4.17833	4552
4.17900	4557
4.17967	4562
4.18033	4567
4.18100	4572
4.18167	4576
4.18233	4581
4.18300	4586
4.18367	4591
4.18433	4596
4.18500	4601
4.18567	4606
4.18633	4611
4.18700	4616
4.18767	4621
4.18833	4627
4.18900	4632
4.18967	4637
4.19033	4642
4.19100	4648
4.19167	4653
4.19233	4658
4.19300	4664
4.19367	4669
4.19433	4675
4.19500	4680
4.19567	4686
4.19633	4692
4.19700	4698
4.19767	4704
4.19833	4710
4.19900	4716
4.19967	4722
4.20033	4729
4.20100	4736
4.20167	4742
4.20233	4749
4.20300	4757
4.20367	4764
4.20433	4772
4.20500	4779
4.20567	4787
4.20633	4795
4.20700	4804
4.20767	4812
4.20833	4821
4.20900	4830
4.20967	4840
4.21033	4849
4.21100	4859
4.21167	4869
4.21233	4880
4.21300	4891
4.21367	4902
4.21433	4913
4.21500	4925
4.21567	4938
4.21633	4950
4.21700	4963
4.21767	4977
4.21833	4991
4.21900	5006
4.21967	5021
4.22033	5036
4.22100	5053
4.22167	5069
4.22233	5087
4.22300	5105
4.22367	5124
4.22433	5143
4.22500	5164
4.22567	5185
4.22633	5206
4.22700	5229
4.22767	5252
4.22833	5276
4.22900	5301
4.22967	5327
4.23033	5354
4.23100	5382
4.23167	5411
4.23233	5441
4.23300	5472
4.23367	5504
4.23433	5538
4.23500	5572
4.23567	5608
4.23633	5646
4.23700	5685
4.23767	5725
4.23833	5767
4.23900	5811
4.23967	5856
4.24033	5904
4.24100	5953
4.24167	6003
4.24233	6056
4.24300	6111
4.24367	6168
4.24433	6227
4.24500	6289
4.24567	6352
4.24633	6419
4.24700	6488
4.24767	6559
4.24833	6634
4.24900	6711
4.24967	6791
4.25033	6875
4.25100	6961
4.25167	7051
4.25233	7144
4.25300	7240
4.25367	7341
4.25433	7445
4.25500	7552
4.25567	7664
4.25633	7780
4.25700	7901
4.25767	8025
4.25833	8155
4.25900	8289
4.25967	8429
4.26033	8573
4.26100	8723
4.26167	8879
4.26233	9040
4.26300	9207
4.26367	9379
4.26433	9558
4.26500	9743
4.26567	9935
4.26633	10133
4.26700	10338
4.26767	10550
4.26833	10769
4.26900	10995
4.26967	11229
4.27033	11471
4.27100	11721
4.27167	11978
4.27233	12244
4.27300	12519
4.27367	12802
4.27433	13094
4.27500	13394
4.27567	13704
4.27633	14023
4.27700	14351
4.27767	14689
4.27833	15037
4.27900	15395
4.27967	15764
4.28033	16144
4.28100	16534
4.28167	16936
4.28233	17350
4.28300	17775
4.28367	18212
4.28433	18662
4.28500	19124
4.28567	19598
4.28633	20085
4.28700	20585
4.28767	21098
4.28833	21624
4.28900	22163
4.28967	22715
4.29033	23281
4.29100	23859
4.29167	24451
4.29233	25056
4.29300	25675
4.29367	26307
4.29433	26953
4.29500	27613
4.29567	28286
4.29633	28975
4.29700	29677
4.29767	30394
4.29833	31126
4.29900	31872
4.29967	32633
4.30033	33409
4.30100	34200
4.30167	35006
4.30233	35827
4.30300	36663
4.30367	37513
4.30433	38378
4.30500	39258
4.30567	40151
4.30633	41059
4.30700	41980
4.30767	42915
4.30833	43863
4.30900	44825
4.30967	45799
4.31033	46786
4.31100	47785
4.31167	48796
4.31233	49819
4.31300	50854
4.31367	51899
4.31433	52956
4.31500	54022
4.31567	55098
4.31633	56183
4.31700	57277
4.31767	58380
4.31833	59491
4.31900	60610
4.31967	61736
4.32033	62869
4.32100	64008
4.32167	65152
4.32233	66300
4.32300	67452
4.32367	68606
4.32433	69762
4.32500	70919
4.32567	72077
4.32633	73233
4.32700	74388
4.32767	75541
4.32833	76691
4.32900	77837
4.32967	78978
4.33033	80114
4.33100	81244
4.33167	82368
4.33233	83483
4.33300	84591
4.33367	85690
4.33433	86780
4.33500	87860
4.33567	88929
4.33633	89988
4.33700	91034
4.33767	92068
4.33833	93088
4.33900	94094
4.33967	95085
4.34033	96060
4.34100	97019
4.34167	97961
4.34233	98884
4.34300	99788
4.34367	100671
4.34433	101534
4.34500	102374
4.34567	103192
4.34633	103985
4.34700	104754
4.34767	105498
4.34833	106215
4.34900	106906
4.34967	107569
4.35033	108205
4.35100	108812
4.35167	109390
4.35233	109939
4.35300	110459
4.35367	110949
4.35433	111409
4.35500	111837
4.35567	112234
4.35633	112599
4.35700	112932
4.35767	113233
4.35833	113500
4.35900	113734
4.35967	113934
4.36033	114101
4.36100	114233
4.36167	114332
4.36233	114396
4.36300	114427
4.36367	114424
4.36433	114388
4.36500	114319
4.36567	114217
4.36633	114082
4.36700	113915
4.36767	113716
4.36833	113486
4.36900	113225
4.36967	112934
4.37033	112613
4.37100	112262
4.37167	111883
4.37233	111476
4.37300	111041
4.37367	110580
4.37433	110093
4.37500	109580
4.37567	109043
4.37633	108483
4.37700	107899
4.37767	107294
4.37833	106668
4.37900	106022
4.37967	105357
4.38033	104673
4.38100	103972
4.38167	103254
4.38233	102521
4.38300	101773
4.38367	101011
4.38433	100237
4.38500	99450
4.38567	98652
4.38633	97844
4.38700	97027
4.38767	96200
4.38833	95366
4.38900	94524
4.38967	93676
4.39033	92822
4.39100	91963
4.39167	91100
4.39233	90234
4.39300	89365
4.39367	88494
4.39433	87622
4.39500	86749
4.39567	85876
4.39633	85004
4.39700	84134
4.39767	83265
4.39833	82399
4.39900	81536
4.39967	80676
4.40033	79820
4.40100	78969
4.40167	78123
4.40233	77283
4.40300	76449
4.40367	75621
4.40433	74800
4.40500	73986
4.40567	73181
4.40633	72383
4.40700	71594
4.40767	70814
4.40833	70043
4.40900	69281
4.40967	68529
4.41033	67787
4.41100	67054
4.41167	66332
4.41233	65620
4.41300	64918
4.41367	64226
4.41433	63545
4.41500	62874
4.41567	62214
4.41633	61565
4.41700	60926
4.41767	60298
4.41833	59680
4.41900	59074
4.41967	58477
4.42033	57892
4.42100	57318
4.42167	56754
4.42233	56200
4.42300	55657
4.42367	55124
4.42433	54601
4.42500	54089
4.42567	53587
4.42633	53094
4.42700	52612
4.42767	52138
4.42833	51675
4.42900	51221
4.42967	50775
4.43033	50338
4.43100	49910
4.43167	49491
4.43233	49079
4.43300	48675
4.43367	48280
4.43433	47892
4.43500	47511
4.43567	47139
4.43633	46773
4.43700	46415
4.43767	46064
4.43833	45719
4.43900	45381
4.43967	45049
4.44033	44724
4.44100	44404
4.44167	44090
4.44233	43782
4.44300	43479
4.44367	43181
4.44433	42888
4.44500	42600
4.44567	42316
4.44633	42037
4.44700	41761
4.44767	41490
4.44833	41223
4.44900	40959
4.44967	40698
4.45033	40441
4.45100	40186
4.45167	39935
4.45233	39687
4.45300	39441
4.45367	39198
4.45433	38957
4.45500	38719
4.45567	38482
4.45633	38248
4.45700	38016
4.45767	37785
4.45833	37556
4.45900	37329
4.45967	37103
4.46033	36879
4.46100	36655
4.46167	36433
4.46233	36211
4.46300	35991
4.46367	35771
4.46433	35552
4.46500	35334
4.46567	35116
4.46633	34898
4.46700	34681
4.46767	34465
4.46833	34249
4.46900	34034
4.46967	33819
4.47033	33604
4.47100	33389
4.47167	33175
4.47233	32962
4.47300	32748
4.47367	32536
4.47433	32323
4.47500	32111
4.47567	31899
4.47633	31687
4.47700	31476
4.47767	31265
4.47833	31055
4.47900	30844
4.47967	30634
4.48033	30425
4.48100	30215
4.48167	30006
4.48233	29797
4.48300	29588
4.48367	29380
4.48433	29172
4.48500	28965
4.48567	28758
4.48633	28552
4.48700	28345
4.48767	28140
4.48833	27934
4.48900	27729
4.48967	27525
4.49033	27321
4.49100	27118
4.49167	26915
4.49233	26713
4.49300	26512
4.49367	26311
4.49433	26110
4.49500	25911
4.49567	25712
4.49633	25514
4.49700	25317
4.49767	25120
4.49833	24925
4.49900	24730
4.49967	24536
4.50033	24344
4.50100	24152
4.50167	23961
4.50233	23772
4.50300	23584
4.50367	23396
4.50433	23210
4.50500	23026
4.50567	22842
4.50633	22660
4.50700	22479
4.50767	22300
4.50833	22122
4.50900	21945
4.50967	21770
4.51033	21596
4.51100	21423
4.51167	21252
4.51233	21083
4.51300	20915
4.51367	20749
4.51433	20584
4.51500	20420
4.51567	20259
4.51633	20098
4.51700	19940
4.51767	19783
4.51833	19628
4.51900	19475
4.51967	19323
4.52033	19173
4.52100	19025
4.52167	18878
4.52233	18733
4.52300	18590
4.52367	18449
4.52433	18309
4.52500	18171
4.52567	18034
4.52633	17899
4.52700	17766
4.52767	17635
4.52833	17505
4.52900	17377
4.52967	17251
4.53033	17126
4.53100	17003
4.53167	16882
4.53233	16762
4.53300	16644
4.53367	16528
4.53433	16413
4.53500	16300
4.53567	16189
4.53633	16079
4.53700	15971
4.53767	15865
4.53833	15761
4.53900	15658
4.53967	15556
4.54033	15456
4.54100	15358
4.54167	15262
4.54233	15166
4.54300	15073
4.54367	14981
4.54433	14890
4.54500	14801
4.54567	14713
4.54633	14627
4.54700	14542
4.54767	14459
4.54833	14377
4.54900	14296
4.54967	14217
4.55033	14139
4.55100	14063
4.55167	13988
4.55233	13914
4.55300	13841
4.55367	13770
4.55433	13700
4.55500	13631
4.55567	13563
4.55633	13497
4.55700	13432
4.55767	13368
4.55833	13305
4.55900	13243
4.55967	13183
4.56033	13124
4.56100	13065
4.56167	13008
4.56233	12952
4.56300	12897
4.56367	12843
4.56433	12790
4.56500	12738
4.56567	12687
4.56633	12636
4.56700	12587
4.56767	12538
4.56833	12491
4.56900	12444
4.56967	12398
4.57033	12353
4.57100	12308
4.57167	12264
4.57233	12222
4.57300	12180
4.57367	12138
4.57433	12098
4.57500	12059
4.57567	12020
4.57633	11982
4.57700	11944
4.57767	11908
4.57833	11872
4.57900	11837
4.57967	11802
4.58033	11768
4.58100	11734
4.58167	11701
4.58233	11669
4.58300	11636
4.58367	11605
4.58433	11574
4.58500	11543
4.58567	11513
4.58633	11483
4.58700	11454
4.58767	11425
4.58833	11397
4.58900	11368
4.58967	11341
4.59033	11313
4.59100	11286
4.59167	11260
4.59233	11234
4.59300	11208
4.59367	11182
4.59433	11157
4.59500	11132
4.59567	11107
4.59633	11083
4.59700	11059
4.59767	11036
4.59833	11013
4.59900	10990
4.59967	10967
4.60033	10945
4.60100	10923
4.60167	10902
4.60233	10881
4.60300	10860
4.60367	10840
4.60433	10820
4.60500	10800
4.60567	10780
4.60633	10761
4.60700	10741
4.60767	10722
4.60833	10704
4.60900	10685
4.60967	10667
4.61033	10648
4.61100	10630
4.61167	10612
4.61233	10594
4.61300	10577
4.61367	10559
4.61433	10542
4.61500	10525
4.61567	10507
4.61633	10490
4.61700	10473
4.61767	10457
4.61833	10440
4.61900	10423
4.61967	10407
4.62033	10390
4.62100	10373
4.62167	10357
4.62233	10340
4.62300	10324
4.62367	10308
4.62433	10291
4.62500	10275
4.62567	10258
4.62633	10242
4.62700	10226
4.62767	10209
4.62833	10193
4.62900	10177
4.62967	10160
4.63033	10144
4.63100	10127
4.63167	10111
4.63233	10094
4.63300	10078
4.63367	10061
4.63433	10044
4.63500	10028
4.63567	10011
4.63633	9995
4.63700	9978
4.63767	9961
4.63833	9945
4.63900	9928
4.63967	9912
4.64033	9895
4.64100	9879
4.64167	9862
4.64233	9846
4.64300	9829
4.64367	9813
4.64433	9797
4.64500	9780
4.64567	9764
4.64633	9748
4.64700	9733
4.64767	9717
4.64833	9701
4.64900	9686
4.64967	9670
4.65033	9655
4.65100	9640
4.65167	9625
4.65233	9610
4.65300	9595
4.65367	9580
4.65433	9565
4.65500	9550
4.65567	9535
4.65633	9520
4.65700	9506
4.65767	9491
4.65833	9477
4.65900	9462
4.65967	9448
4.66033	9433
4.66100	9419
4.66167	9405
4.66233	9390
4.66300	9376
4.66367	9362
4.66433	9348
4.66500	9334
4.66567	9320
4.66633	9307
4.66700	9293
4.66767	9280
4.66833	9266
4.66900	9253
4.66967	9240
4.67033	9227
4.67100	9214
4.67167	9201
4.67233	9188
4.67300	9176
4.67367	9163
4.67433	9151
4.67500	9139
4.67567	9127
4.67633	9115
4.67700	9103
4.67767	9091
4.67833	9079
4.67900	9068
4.67967	9056
4.68033	9045
4.68100	9034
4.68167	9022
4.68233	9011
4.68300	9000
4.68367	8989
4.68433	8979
4.68500	8968
4.68567	8957
4.68633	8947
4.68700	8936
4.68767	8926
4.68833	8916
4.68900	8906
4.68967	8896
4.69033	8886
4.69100	8876
4.69167	8866
4.69233	8856
4.69300	8847
4.69367	8837
4.69433	8828
4.69500	8818
4.69567	8809
4.69633	8800
4.69700	8791
4.69767	8782
4.69833	8773
4.69900	8764
4.69967	8755
4.70033	8746
4.70100	8737
4.70167	8728
4.70233	8719
4.70300	8711
4.70367	8702
4.70433	8693
4.70500	8684
4.70567	8675
4.70633	8666
4.70700	8658
4.70767	8649
4.70833	8640
4.70900	8631
4.70967	8622
4.71033	8613
4.71100	8605
4.71167	8596
4.71233	8587
4.71300	8578
4.71367	8569
4.71433	8560
4.71500	8552
4.71567	8543
4.71633	8534
4.71700	8526
4.71767	8517
4.71833	8508
4.71900	8500
4.71967	8491
4.72033	8482
4.72100	8474
4.72167	8465
4.72233	8457
4.72300	8448
4.72367	8439
4.72433	8431
4.72500	8422
4.72567	8413
4.72633	8405
4.72700	8396
4.72767	8388
4.72833	8379
4.72900	8371
4.72967	8362
4.73033	8354
4.73100	8345
4.73167	8337
4.73233	8329
4.73300	8320
4.73367	8312
4.73433	8304
4.73500	8296
4.73567	8287
4.73633	8279
4.73700	8271
4.73767	8263
4.73833	8255
4.73900	8247
4.73967	8239
4.74033	8231
4.74100	8223
4.74167	8215
4.74233	8207
4.74300	8199
4.74367	8191
4.74433	8183
4.74500	8176
4.74567	8168
4.74633	8161
4.74700	8153
4.74767	8146
4.74833	8139
4.74900	8132
4.74967	8124
4.75033	8117
4.75100	8110
4.75167	8104
4.75233	8097
4.75300	8090
4.75367	8083
4.75433	8077
4.75500	8070
4.75567	8064
4.75633	8058
4.75700	8052
4.75767	8046
4.75833	8040
4.75900	8034
4.75967	8028
4.76033	8022
4.76100	8017
4.76167	8011
4.76233	8006
4.76300	8001
4.76367	7995
4.76433	7990
4.76500	7985
4.76567	7980
4.76633	7975
4.76700	7970
4.76767	7966
4.76833	7961
4.76900	7957
4.76967	7952
4.77033	7948
4.77100	7943
4.77167	7939
4.77233	7935
4.77300	7931
4.77367	7927
4.77433	7923
4.77500	7919
4.77567	7915
4.77633	7911
4.77700	7907
4.77767	7903
4.77833	7899
4.77900	7895
4.77967	7891
4.78033	7888
4.78100	7884
4.78167	7880
4.78233	7876
4.78300	7872
4.78367	7869
4.78433	7865
4.78500	7861
4.78567	7857
4.78633	7853
4.78700	7849
4.78767	7845
4.78833	7841
4.78900	7837
4.78967	7834
4.79033	7830
4.79100	7826
4.79167	7822
4.79233	7818
4.79300	7814
4.79367	7810
4.79433	7807
4.79500	7803
4.79567	7799
4.79633	7796
4.79700	7792
4.79767	7789
4.79833	7785
4.79900	7782
4.79967	7778
4.80033	7775
4.80100	7772
4.80167	7768
4.80233	7765
4.80300	7762
4.80367	7758
4.80433	7755
4.80500	7752
4.80567	7749
4.80633	7746
4.80700	7742
4.80767	7739
4.80833	7736
4.80900	7732
4.80967	7729
4.81033	7726
4.81100	7722
4.81167	7719
4.81233	7716
4.81300	7712
4.81367	7709
4.81433	7705
4.81500	7702
4.81567	7698
4.81633	7695
4.81700	7691
4.81767	7688
4.81833	7684
4.81900	7681
4.81967	7678
4.82033	7674
4.82100	7671
4.82167	7668
4.82233	7665
4.82300	7662
4.82367	7659
4.82433	7656
4.82500	7653
4.82567	7650
4.82633	7647
4.82700	7645
4.82767	7642
4.82833	7640
4.82900	7638
4.82967	7635
4.83033	7633
4.83100	7631
4.83167	7629
4.83233	7627
4.83300	7625
4.83367	7624
4.83433	7622
4.83500	7620
4.83567	7618
4.83633	7617
4.83700	7615
4.83767	7614
4.83833	7612
4.83900	7610
4.83967	7609
4.84033	7607
4.84100	7606
4.84167	7604
4.84233	7603
4.84300	7601
4.84367	7600
4.84433	7599
4.84500	7597
4.84567	7596
4.84633	7595
4.84700	7593
4.84767	7592
4.84833	7591
4.84900	7589
4.84967	7588
4.85033	7587
4.85100	7585
4.85167	7584
4.85233	7582
4.85300	7580
4.85367	7579
4.85433	7577
4.85500	7575
4.85567	7574
4.85633	7572
4.85700	7570
4.85767	7569
4.85833	7567
4.85900	7565
4.85967	7563
4.86033	7561
4.86100	7560
4.86167	7558
4.86233	7556
4.86300	7554
4.86367	7552
4.86433	7551
4.86500	7549
4.86567	7547
4.86633	7545
4.86700	7543
4.86767	7541
4.86833	7539
4.86900	7537
4.86967	7535
4.87033	7533
4.87100	7531
4.87167	7529
4.87233	7527
4.87300	7525
4.87367	7523
4.87433	7521
4.87500	7519
4.87567	7517
4.87633	7515
4.87700	7513
4.87767	7510
4.87833	7508
4.87900	7506
4.87967	7504
4.88033	7501
4.88100	7499
4.88167	7497
4.88233	7494
4.88300	7492
4.88367	7489
4.88433	7486
4.88500	7484
4.88567	7481
4.88633	7478
4.88700	7476
4.88767	7473
4.88833	7470
4.88900	7467
4.88967	7464
4.89033	7462
4.89100	7459
4.89167	7456
4.89233	7453
4.89300	7450
4.89367	7447
4.89433	7443
4.89500	7440
4.89567	7437
4.89633	7434
4.89700	7431
4.89767	7427
4.89833	7424
4.89900	7421
4.89967	7418
4.90033	7415
4.90100	7412
4.90167	7408
4.90233	7405
4.90300	7402
4.90367	7399
4.90433	7396
4.90500	7393
4.90567	7390
4.90633	7387
4.90700	7384
4.90767	7381
4.90833	7378
4.90900	7375
4.90967	7372
4.91033	7369
4.91100	7367
4.91167	7364
4.91233	7362
4.91300	7359
4.91367	7357
4.91433	7354
4.91500	7352
4.91567	7350
4.91633	7347
4.91700	7345
4.91767	7342
4.91833	7340
4.91900	7338
4.91967	7335
4.92033	7333
4.92100	7331
4.92167	7328
4.92233	7326
4.92300	7324
4.92367	7321
4.92433	7319
4.92500	7317
4.92567	7314
4.92633	7312
4.92700	7310
4.92767	7308
4.92833	7306
4.92900	7303
4.92967	7301
4.93033	7299
4.93100	7297
4.93167	7295
4.93233	7292
4.93300	7290
4.93367	7288
4.93433	7286
4.93500	7284
4.93567	7282
4.93633	7280
4.93700	7278
4.93767	7276
4.93833	7274
4.93900	7272
4.93967	7270
4.94033	7267
4.94100	7265
4.94167	7263
4.94233	7261
4.94300	7259
4.94367	7256
4.94433	7254
4.94500	7252
4.94567	7249
4.94633	7247
4.94700	7244
4.94767	7242
4.94833	7239
4.94900	7237
4.94967	7234
4.95033	7232
4.95100	7230
4.95167	7227
4.95233	7225
4.95300	7222
4.95367	7220
4.95433	7217
4.95500	7215
4.95567	7212
4.95633	7210
4.95700	7207
4.95767	7204
4.95833	7202
4.95900	7199
4.95967	7196
4.96033	7193
4.96100	7191
4.96167	7188
4.96233	7185
4.96300	7182
4.96367	7180
4.96433	7177
4.96500	7174
4.96567	7171
4.96633	7169
4.96700	7166
4.96767	7163
4.96833	7160
4.96900	7158
4.96967	7155
4.97033	7153
4.97100	7150
4.97167	7148
4.97233	7145
4.97300	7143
4.97367	7140
4.97433	7138
4.97500	7135
4.97567	7133
4.97633	7130
4.97700	7128
4.97767	7126
4.97833	7123
4.97900	7121
4.97967	7118
4.98033	7116
4.98100	7114
4.98167	7111
4.98233	7109
4.98300	7107
4.98367	7104
4.98433	7102
4.98500	7099
4.98567	7097
4.98633	7095
4.98700	7092
4.98767	7090
4.98833	7087
4.98900	7085
4.98967	7082
4.99033	7080
4.99100	7077
4.99167	7075
4.99233	7072
4.99300	7070
4.99367	7067
4.99433	7064
4.99500	7062
4.99567	7059
4.99633	7056
4.99700	7053
4.99767	7051
4.99833	7048
4.99900	7045
4.99967	7043
5.00033	7040
5.00100	7037
5.00167	7035
5.00233	7032
5.00300	7030
5.00367	7027
5.00433	7025
5.00500	7023
5.00567	7020
5.00633	7018
5.00700	7016
5.00767	7013
5.00833	7011
5.00900	7009
5.00967	7007
5.01033	7004
5.01100	7002
5.01167	7000
5.01233	6998
5.01300	6995
5.01367	6993
5.01433	6991
5.01500	6988
5.01567	6986
5.01633	6984
5.01700	6982
5.01767	6979
5.01833	6977
5.01900	6975
5.01967	6972
5.02033	6970
5.02100	6968
5.02167	6966
5.02233	6963
5.02300	6961
5.02367	6959
5.02433	6957
5.02500	6954
5.02567	6952
5.02633	6950
5.02700	6948
5.02767	6945
5.02833	6943
5.02900	6941
5.02967	6938
5.03033	6936
5.03100	6934
5.03167	6931
5.03233	6929
5.03300	6926
5.03367	6924
5.03433	6921
5.03500	6919
5.03567	6916
5.03633	6913
5.03700	6911
5.03767	6908
5.03833	6906
5.03900	6903
5.03967	6901
5.04033	6898
5.04100	6896
5.04167	6893
5.04233	6890
5.04300	6888
5.04367	6885
5.04433	6883
5.04500	6880
5.04567	6878
5.04633	6875
5.04700	6872
5.04767	6870
5.04833	6867
5.04900	6864
5.04967	6861
5.05033	6858
5.05100	6856
5.05167	6853
5.05233	6850
5.05300	6847
5.05367	6844
5.05433	6842
5.05500	6839
5.05567	6836
5.05633	6833
5.05700	6830
5.05767	6828
5.05833	6825
5.05900	6822
5.05967	6819
5.06033	6817
5.06100	6814
5.06167	6811
5.06233	6809
5.06300	6806
5.06367	6803
5.06433	6801
5.06500	6798
5.06567	6795
5.06633	6792
5.06700	6790
5.06767	6787
5.06833	6784
5.06900	6782
5.06967	6779
5.07033	6777
5.07100	6774
5.07167	6771
5.07233	6769
5.07300	6766
5.07367	6764
5.07433	6761
5.07500	6759
5.07567	6756
5.07633	6753
5.07700	6751
5.07767	6748
5.07833	6746
5.07900	6743
5.07967	6740
5.08033	6738
5.08100	6735
5.08167	6733
5.08233	6730
5.08300	6728
5.08367	6725
5.08433	6723
5.08500	6720
5.08567	6718
5.08633	6716
5.08700	6714
5.08767	6711
5.08833	6709
5.08900	6707
5.08967	6704
5.09033	6702
5.09100	6700
5.09167	6697
5.09233	6695
5.09300	6693
5.09367	6690
5.09433	6688
5.09500	6685
5.09567	6683
5.09633	6681
5.09700	6678
5.09767	6676
5.09833	6674
5.09900	6672
5.09967	6669
5.10033	6667
5.10100	6665
5.10167	6663
5.10233	6661
5.10300	6659
5.10367	6657
5.10433	6655
5.10500	6653
5.10567	6651
5.10633	6649
5.10700	6647
5.10767	6645
5.10833	6643
5.10900	6642
5.10967	6640
5.11033	6638
5.11100	6636
5.11167	6635
5.11233	6633
5.11300	6631
5.11367	6630
5.11433	6628
5.11500	6627
5.11567	6625
5.11633	6624
5.11700	6622
5.11767	6620
5.11833	6619
5.11900	6617
5.11967	6616
5.12033	6615
5.12100	6613
5.12167	6612
5.12233	6611
5.12300	6609
5.12367	6608
5.12433	6607
5.12500	6606
5.12567	6604
5.12633	6603
5.12700	6602
5.12767	6601
5.12833	6600
5.12900	6599
5.12967	6598
5.13033	6597
5.13100	6596
5.13167	6595
5.13233	6594
5.13300	6593
5.13367	6592
5.13433	6591
5.13500	6590
5.13567	6589
5.13633	6588
5.13700	6587
5.13767	6586
5.13833	6585
5.13900	6584
5.13967	6583
5.14033	6582
5.14100	6580
5.14167	6579
5.14233	6578
5.14300	6576
5.14367	6575
5.14433	6574
5.14500	6572
5.14567	6571
5.14633	6569
5.14700	6568
5.14767	6566
5.14833	6565
5.14900	6564
5.14967	6562
5.15033	6561
5.15100	6559
5.15167	6558
5.15233	6557
5.15300	6555
5.15367	6554
5.15433	6553
5.15500	6552
5.15567	6550
5.15633	6549
5.15700	6548
5.15767	6547
5.15833	6546
5.15900	6544
5.15967	6543
5.16033	6542
5.16100	6541
5.16167	6540
5.16233	6539
5.16300	6538
5.16367	6538
5.16433	6537
5.16500	6536
5.16567	6536
5.16633	6535
5.16700	6534
5.16767	6534
5.16833	6533
5.16900	6533
5.16967	6533
5.17033	6532
5.17100	6532
5.17167	6532
5.17233	6532
5.17300	6532
5.17367	6532
5.17433	6532
5.17500	6531
5.17567	6531
5.17633	6532
5.17700	6532
5.17767	6532
5.17833	6532
5.17900	6532
5.17967	6533
5.18033	6533
5.18100	6533
5.18167	6534
5.18233	6534
5.18300	6535
5.18367	6535
5.18433	6536
5.18500	6537
5.18567	6537
5.18633	6538
5.18700	6539
5.18767	6539
5.18833	6540
5.18900	6541
5.18967	6542
5.19033	6543
5.19100	6544
5.19167	6545
5.19233	6546
5.19300	6547
5.19367	6548
5.19433	6549
5.19500	6550
5.19567	6551
5.19633	6552
5.19700	6553
5.19767	6554
5.19833	6555
5.19900	6556
5.19967	6557
5.20033	6558
5.20100	6559
5.20167	6560
5.20233	6561
5.20300	6562
5.20367	6563
5.20433	6564
5.20500	6564
5.20567	6565
5.20633	6566
5.20700	6567
5.20767	6568
5.20833	6569
5.20900	6569
5.20967	6570
5.21033	6571
5.21100	6571
5.21167	6572
5.21233	6573
5.21300	6573
5.21367	6573
5.21433	6574
5.21500	6574
5.21567	6574
5.21633	6574
5.21700	6574
5.21767	6574
5.21833	6574
5.21900	6574
5.21967	6573
5.22033	6573
5.22100	6572
5.22167	6572
5.22233	6571
5.22300	6570
5.22367	6570
5.22433	6569
5.22500	6568
5.22567	6567
5.22633	6566
5.22700	6565
5.22767	6564
5.22833	6562
5.22900	6561
5.22967	6560
5.23033	6558
5.23100	6557
5.23167	6556
5.23233	6554
5.23300	6552
5.23367	6551
5.23433	6549
5.23500	6548
5.23567	6546
5.23633	6545
5.23700	6543
5.23767	6542
5.23833	6540
5.23900	6539
5.23967	6537
5.24033	6536
5.24100	6534
5.24167	6533
5.24233	6531
5.24300	6529
5.24367	6528
5.24433	6526
5.24500	6525
5.24567	6523
5.24633	6521
5.24700	6519
5.24767	6518
5.24833	6516
5.24900	6514
5.24967	6512
5.25033	6511
5.25100	6509
5.25167	6507
5.25233	6505
5.25300	6504
5.25367	6502
5.25433	6500
5.25500	6498
5.25567	6496
5.25633	6494
5.25700	6493
5.25767	6491
5.25833	6489
5.25900	6487
5.25967	6485
5.26033	6483
5.26100	6481
5.26167	6479
5.26233	6478
5.26300	6476
5.26367	6474
5.26433	6472
5.26500	6470
5.26567	6468
5.26633	6466
5.26700	6464
5.26767	6462
5.26833	6460
5.26900	6458
5.26967	6456
5.27033	6454
5.27100	6452
5.27167	6450
5.27233	6448
5.27300	6446
5.27367	6444
5.27433	6442
5.27500	6440
5.27567	6438
5.27633	6436
5.27700	6434
5.27767	6431
5.27833	6429
5.27900	6427
5.27967	6424
5.28033	6422
5.28100	6420
5.28167	6417
5.28233	6415
5.28300	6413
5.28367	6410
5.28433	6408
5.28500	6405
5.28567	6403
5.28633	6400
5.28700	6398
5.28767	6395
5.28833	6393
5.28900	6390
5.28967	6387
5.29033	6385
5.29100	6382
5.29167	6379
5.29233	6376
5.29300	6374
5.29367	6371
5.29433	6368
5.29500	6365
5.29567	6362
5.29633	6360
5.29700	6357
5.29767	6354
5.29833	6352
5.29900	6349
5.29967	6346
5.30033	6344
5.30100	6341
5.30167	6338
5.30233	6335
5.30300	6333
5.30367	6330
5.30433	6327
5.30500	6325
5.30567	6322
5.30633	6320
5.30700	6317
5.30767	6315
5.30833	6312
5.30900	6310
5.30967	6307
5.31033	6305
5.31100	6302
5.31167	6300
5.31233	6297
5.31300	6295
5.31367	6292
5.31433	6289
5.31500	6287
5.31567	6284
5.31633	6282
5.31700	6279
5.31767	6277
5.31833	6274
5.31900	6272
5.31967	6269
5.32033	6267
5.32100	6264
5.32167	6261
5.32233	6259
5.32300	6256
5.32367	6254
5.32433	6251
5.32500	6248
5.32567	6246
5.32633	6243
5.32700	6241
5.32767	6238
5.32833	6236
5.32900	6233
5.32967	6231
5.33033	6228
5.33100	6226
5.33167	6224
5.33233	6221
5.33300	6219
5.33367	6217
5.33433	6215
5.33500	6213
5.33567	6210
5.33633	6208
5.33700	6206
5.33767	6204
5.33833	6202
5.33900	6200
5.33967	6198
5.34033	6196
5.34100	6193
5.34167	6191
5.34233	6189
5.34300	6187
5.34367	6185
5.34433	6183
5.34500	6181
5.34567	6179
5.34633	6177
5.34700	6175
5.34767	6173
5.34833	6171
5.34900	6169
5.34967	6167
5.35033	6165
5.35100	6163
5.35167	6162
5.35233	6160
5.35300	6158
5.35367	6156
5.35433	6154
5.35500	6153
5.35567	6151
5.35633	6149
5.35700	6147
5.35767	6145
5.35833	6143
5.35900	6141
5.35967	6139
5.36033	6137
5.36100	6135
5.36167	6133
5.36233	6132
5.36300	6130
5.36367	6128
5.36433	6126
5.36500	6124
5.36567	6122
5.36633	6120
5.36700	6118
5.36767	6116
5.36833	6114
5.36900	6112
5.36967	6110
5.37033	6108
5.37100	6106
5.37167	6104
5.37233	6103
5.37300	6101
5.37367	6099
5.37433	6097
5.37500	6096
5.37567	6094
5.37633	6092
5.37700	6091
5.37767	6089
5.37833	6087
5.37900	6086
5.37967	6084
5.38033	6083
5.38100	6081
5.38167	6079
5.38233	6078
5.38300	6076
5.38367	6074
5.38433	6073
5.38500	6071
5.38567	6069
5.38633	6068
5.38700	6066
5.38767	6064
5.38833	6062
5.38900	6061
5.38967	6059
5.39033	6057
5.39100	6056
5.39167	6054
5.39233	6052
5.39300	6050
5.39367	6048
5.39433	6047
5.39500	6045
5.39567	6043
5.39633	6041
5.39700	6039
5.39767	6038
5.39833	6036
5.39900	6034
5.39967	6032
5.40033	6030
5.40100	6028
5.40167	6026
5.40233	6024
5.40300	6022
5.40367	6020
5.40433	6018
5.40500	6016
5.40567	6014
5.40633	6012
5.40700	6010
5.40767	6008
5.40833	6006
5.40900	6004
5.40967	6002
5.41033	6000
5.41100	5998
5.41167	5996
5.41233	5995
5.41300	5993
5.41367	5991
5.41433	5989
5.41500	5987
5.41567	5985
5.41633	5983
5.41700	5981
5.41767	5979
5.41833	5977
5.41900	5975
5.41967	5973
5.42033	5972
5.42100	5970
5.42167	5968
5.42233	5966
5.42300	5964
5.42367	5962
5.42433	5960
5.42500	5958
5.42567	5956
5.42633	5954
5.42700	5952
5.42767	5950
5.42833	5949
5.42900	5947
5.42967	5945
5.43033	5943
5.43100	5941
5.43167	5939
5.43233	5937
5.43300	5935
5.43367	5934
5.43433	5932
5.43500	5930
5.43567	5928
5.43633	5926
5.43700	5924
5.43767	5923
5.43833	5921
5.43900	5919
5.43967	5917
5.44033	5915
5.44100	5914
5.44167	5912
5.44233	5910
5.44300	5908
5.44367	5906
5.44433	5905
5.44500	5903
5.44567	5901
5.44633	5900
5.44700	5898
5.44767	5897
5.44833	5895
5.44900	5893
5.44967	5892
5.45033	5890
5.45100	5889
5.45167	5887
5.45233	5886
5.45300	5884
5.45367	5883
5.45433	5881
5.45500	5880
5.45567	5878
5.45633	5877
5.45700	5875
5.45767	5873
5.45833	5872
5.45900	5870
5.45967	5869
5.46033	5867
5.46100	5865
5.46167	5864
5.46233	5862
5.46300	5861
5.46367	5859
5.46433	5857
5.46500	5856
5.46567	5854
5.46633	5852
5.46700	5851
5.46767	5849
5.46833	5847
5.46900	5846
5.46967	5844
5.47033	5842
5.47100	5841
5.47167	5839
5.47233	5837
5.47300	5836
5.47367	5834
5.47433	5832
5.47500	5831
5.47567	5829
5.47633	5827
5.47700	5826
5.47767	5824
5.47833	5822
5.47900	5821
5.47967	5819
5.48033	5817
5.48100	5816
5.48167	5814
5.48233	5812
5.48300	5811
5.48367	5809
5.48433	5807
5.48500	5805
5.48567	5804
5.48633	5802
5.48700	5800
5.48767	5799
5.48833	5797
5.48900	5795
5.48967	5793
5.49033	5791
5.49100	5790
5.49167	5788
5.49233	5786
5.49300	5785
5.49367	5783
5.49433	5782
5.49500	5780
5.49567	5778
5.49633	5777
5.49700	5775
5.49767	5774
5.49833	5772
5.49900	5771
5.49967	5769
5.50033	5767
5.50100	5766
5.50167	5764
5.50233	5763
5.50300	5762
5.50367	5760
5.50433	5759
5.50500	5757
5.50567	5756
5.50633	5755
5.50700	5753
5.50767	5752
5.50833	5751
5.50900	5749
5.50967	5748
5.51033	5747
5.51100	5745
5.51167	5744
5.51233	5743
5.51300	5741
5.51367	5740
5.51433	5739
5.51500	5737
5.51567	5736
5.51633	5734
5.51700	5733
5.51767	5732
5.51833	5730
5.51900	5729
5.51967	5728
5.52033	5726
5.52100	5725
5.52167	5724
5.52233	5722
5.52300	5721
5.52367	5720
5.52433	5718
5.52500	5717
5.52567	5716
5.52633	5714
5.52700	5713
5.52767	5712
5.52833	5710
5.52900	5709
5.52967	5708
5.53033	5707
5.53100	5705
5.53167	5704
5.53233	5703
5.53300	5702
5.53367	5700
5.53433	5699
5.53500	5698
5.53567	5697
5.53633	5695
5.53700	5694
5.53767	5693
5.53833	5691
5.53900	5690
5.53967	5689
5.54033	5687
5.54100	5686
5.54167	5685
5.54233	5683
5.54300	5682
5.54367	5681
5.54433	5679
5.54500	5678
5.54567	5677
5.54633	5676
5.54700	5674
5.54767	5673
5.54833	5672
5.54900	5671
5.54967	5669
5.55033	5668
5.55100	5667
5.55167	5666
5.55233	5665
5.55300	5664
5.55367	5663
5.55433	5661
5.55500	5660
5.55567	5659
5.55633	5658
5.55700	5657
5.55767	5656
5.55833	5655
5.55900	5654
5.55967	5653
5.56033	5652
5.56100	5651
5.56167	5650
5.56233	5649
5.56300	5648
5.56367	5647
5.56433	5646
5.56500	5645
5.56567	5644
5.56633	5643
5.56700	5642
5.56767	5641
5.56833	5640
5.56900	5639
5.56967	5638
5.57033	5637
5.57100	5636
5.57167	5634
5.57233	5633
5.57300	5632
5.57367	5630
5.57433	5629
5.57500	5628
5.57567	5627
5.57633	5625
5.57700	5624
5.57767	5623
5.57833	5622
5.57900	5620
5.57967	5619
5.58033	5618
5.58100	5616
5.58167	5615
5.58233	5614
5.58300	5612
5.58367	5611
5.58433	5610
5.58500	5608
5.58567	5607
5.58633	5606
5.58700	5605
5.58767	5604
5.58833	5602
5.58900	5601
5.58967	5600
5.59033	5599
5.59100	5598
5.59167	5597
5.59233	5596
5.59300	5595
5.59367	5593
5.59433	5592
5.59500	5591
5.59567	5590
5.59633	5588
5.59700	5587
5.59767	5586
5.59833	5585
5.59900	5584
5.59967	5583
5.60033	5582
5.60100	5580
5.60167	5579
5.60233	5578
5.60300	5577
5.60367	5576
5.60433	5575
5.60500	5574
5.60567	5573
5.60633	5572
5.60700	5571
5.60767	5570
5.60833	5569
5.60900	5568
5.60967	5567
5.61033	5566
5.61100	5565
5.61167	5564
5.61233	5563
5.61300	5562
5.61367	5561
5.61433	5560
5.61500	5559
5.61567	5559
5.61633	5558
5.61700	5557
5.61767	5556
5.61833	5555
5.61900	5554
5.61967	5553
5.62033	5552
5.62100	5551
5.62167	5550
5.62233	5550
5.62300	5549
5.62367	5548
5.62433	5547
5.62500	5546
5.62567	5545
5.62633	5544
5.62700	5543
5.62767	5543
5.62833	5542
5.62900	5541
5.62967	5540
5.63033	5539
5.63100	5538
5.63167	5537
5.63233	5536
5.63300	5535
5.63367	5534
5.63433	5533
5.63500	5532
5.63567	5531
5.63633	5529
5.63700	5528
5.63767	5527
5.63833	5526
5.63900	5525
5.63967	5524
5.64033	5522
5.64100	5521
5.64167	5520
5.64233	5518
5.64300	5517
5.64367	5516
5.64433	5515
5.64500	5513
5.64567	5512
5.64633	5511
5.64700	5510
5.64767	5508
5.64833	5507
5.64900	5506
5.64967	5505
5.65033	5504
5.65100	5503
5.65167	5501
5.65233	5500
5.65300	5499
5.65367	5498
5.65433	5497
5.65500	5496
5.65567	5495
5.65633	5494
5.65700	5494
5.65767	5493
5.65833	5492
5.65900	5491
5.65967	5490
5.66033	5490
5.66100	5489
5.66167	5488
5.66233	5488
5.66300	5487
5.66367	5487
5.66433	5486
5.66500	5485
5.66567	5485
5.66633	5484
5.66700	5484
5.66767	5483
5.66833	5483
5.66900	5483
5.66967	5482
5.67033	5482
5.67100	5481
5.67167	5481
5.67233	5480
5.67300	5480
5.67367	5479
5.67433	5479
5.67500	5478
5.67567	5478
5.67633	5477
5.67700	5476
5.67767	5476
5.67833	5475
5.67900	5475
5.67967	5474
5.68033	5473
5.68100	5473
5.68167	5472
5.68233	5471
5.68300	5470
5.68367	5470
5.68433	5469
5.68500	5468
5.68567	5468
5.68633	5467
5.68700	5466
5.68767	5465
5.68833	5464
5.68900	5463
5.68967	5462
5.69033	5462
5.69100	5461
5.69167	5460
5.69233	5459
5.69300	5458
5.69367	5458
5.69433	5457
5.69500	5456
5.69567	5455
5.69633	5454
5.69700	5454
5.69767	5453
5.69833	5452
5.69900	5451
5.69967	5450
5.70033	5449
5.70100	5448
5.70167	5448
5.70233	5447
5.70300	5446
5.70367	5445
5.70433	5444
5.70500	5444
5.70567	5443
5.70633	5442
5.70700	5441
5.70767	5441
5.70833	5440
5.70900	5439
5.70967	5439
5.71033	5438
5.71100	5438
5.71167	5437
5.71233	5437
5.71300	5436
5.71367	5435
5.71433	5435
5.71500	5435
5.71567	5434
5.71633	5434
5.71700	5433
5.71767	5433
5.71833	5433
5.71900	5432
5.71967	5432
5.72033	5432
5.72100	5431
5.72167	5431
5.72233	5431
5.72300	5431
5.72367	5430
5.72433	5430
5.72500	5430
5.72567	5430
5.72633	5430
5.72700	5429
5.72767	5429
5.72833	5429
5.72900	5429
5.72967	5429
5.73033	5428
5.73100	5428
5.73167	5428
5.73233	5428
5.73300	5428
5.73367	5427
5.73433	5427
5.73500	5427
5.73567	5427
5.73633	5427
5.73700	5426
5.73767	5426
5.73833	5426
5.73900	5426
5.73967	5426
5.74033	5426
5.74100	5426
5.74167	5426
5.74233	5425
5.74300	5425
5.74367	5425
5.74433	5425
5.74500	5425
5.74567	5425
5.74633	5425
5.74700	5425
5.74767	5426
5.74833	5426
5.74900	5426
5.74967	5426
5.75033	5426
5.75100	5426
5.75167	5427
5.75233	5427
5.75300	5427
5.75367	5428
5.75433	5428
5.75500	5428
5.75567	5429
5.75633	5429
5.75700	5429
5.75767	5430
5.75833	5430
5.75900	5430
5.75967	5430
5.76033	5430
5.76100	5431
5.76167	5431
5.76233	5431
5.76300	5432
5.76367	5432
5.76433	5432
5.76500	5433
5.76567	5433
5.76633	5434
5.76700	5434
5.76767	5435
5.76833	5436
5.76900	5436
5.76967	5437
5.77033	5438
5.77100	5438
5.77167	5439
5.77233	5440
5.77300	5440
5.77367	5441
5.77433	5442
5.77500	5442
5.77567	5443
5.77633	5444
5.77700	5445
5.77767	5445
5.77833	5446
5.77900	5447
5.77967	5447
5.78033	5448
5.78100	5449
5.78167	5450
5.78233	5450
5.78300	5451
5.78367	5452
5.78433	5453
5.78500	5454
5.78567	5454
5.78633	5455
5.78700	5456
5.78767	5457
5.78833	5457
5.78900	5458
5.78967	5459
5.79033	5460
5.79100	5461
5.79167	5461
5.79233	5462
5.79300	5463
5.79367	5464
5.79433	5465
5.79500	5465
5.79567	5466
5.79633	5467
5.79700	5468
5.79767	5469
5.79833	5470
5.79900	5471
5.79967	5472
5.80033	5473
5.80100	5474
5.80167	5474
5.80233	5475
5.80300	5476
5.80367	5477
5.80433	5478
5.80500	5479
5.80567	5479
5.80633	5480
5.80700	5481
5.80767	5482
5.80833	5482
5.80900	5483
5.80967	5484
5.81033	5485
5.81100	5485
5.81167	5486
5.81233	5487
5.81300	5487
5.81367	5488
5.81433	5489
5.81500	5490
5.81567	5490
5.81633	5491
5.81700	5492
5.81767	5493
5.81833	5494
5.81900	5495
5.81967	5495
5.82033	5496
5.82100	5497
5.82167	5498
5.82233	5499
5.82300	5500
5.82367	5501
5.82433	5501
5.82500	5502
5.82567	5503
5.82633	5504
5.82700	5505
5.82767	5506
5.82833	5507
5.82900	5508
5.82967	5508
5.83033	5509
5.83100	5510
5.83167	5511
5.83233	5512
5.83300	5512
5.83367	5513
5.83433	5514
5.83500	5514
5.83567	5515
5.83633	5516
5.83700	5516
5.83767	5517
5.83833	5518
5.83900	5519
5.83967	5519
5.84033	5520
5.84100	5521
5.84167	5521
5.84233	5522
5.84300	5522
5.84367	5523
5.84433	5523
5.84500	5524
5.84567	5524
5.84633	5524
5.84700	5525
5.84767	5525
5.84833	5525
5.84900	5526
5.84967	5526
5.85033	5526
5.85100	5526
5.85167	5526
5.85233	5526
5.85300	5527
5.85367	5527
5.85433	5527
5.85500	5527
5.85567	5527
5.85633	5526
5.85700	5526
5.85767	5526
5.85833	5526
5.85900	5526
5.85967	5526
5.86033	5526
5.86100	5525
5.86167	5525
5.86233	5525
5.86300	5524
5.86367	5524
5.86433	5523
5.86500	5523
5.86567	5523
5.86633	5522
5.86700	5522
5.86767	5521
5.86833	5521
5.86900	5520
5.86967	5520
5.87033	5519
5.87100	5519
5.87167	5519
5.87233	5518
5.87300	5518
5.87367	5518
5.87433	5517
5.87500	5517
5.87567	5517
5.87633	5516
5.87700	5516
5.87767	5516
5.87833	5515
5.87900	5515
5.87967	5514
5.88033	5514
5.88100	5513
5.88167	5513
5.88233	5512
5.88300	5512
5.88367	5512
5.88433	5511
5.88500	5511
5.88567	5510
5.88633	5510
5.88700	5509
5.88767	5509
5.88833	5508
5.88900	5508
5.88967	5507
5.89033	5507
5.89100	5506
5.89167	5506
5.89233	5505
5.89300	5505
5.89367	5504
5.89433	5504
5.89500	5503
5.89567	5503
5.89633	5502
5.89700	5502
5.89767	5501
5.89833	5500
5.89900	5500
5.89967	5499
5.90033	5498
5.90100	5498
5.90167	5497
5.90233	5496
5.90300	5495
5.90367	5494
5.90433	5494
5.90500	5493
5.90567	5492
5.90633	5491
5.90700	5490
5.90767	5489
5.90833	5488
5.90900	5486
5.90967	5485
5.91033	5484
5.91100	5483
5.91167	5482
5.91233	5481
5.91300	5479
5.91367	5478
5.91433	5477
5.91500	5476
5.91567	5474
5.91633	5473
5.91700	5472
5.91767	5471
5.91833	5470
5.91900	5468
5.91967	5467
5.92033	5466
5.92100	5465
5.92167	5464
5.92233	5463
5.92300	5461
5.92367	5460
5.92433	5459
5.92500	5458
5.92567	5457
5.92633	5455
5.92700	5454
5.92767	5453
5.92833	5452
5.92900	5451
5.92967	5450
5.93033	5448
5.93100	5447
5.93167	5446
5.93233	5445
5.93300	5444
5.93367	5443
5.93433	5441
5.93500	5440
5.93567	5439
5.93633	5438
5.93700	5437
5.93767	5435
5.93833	5434
5.93900	5433
5.93967	5432
5.94033	5431
5.94100	5430
5.94167	5429
5.94233	5428
5.94300	5427
5.94367	5425
5.94433	5424
5.94500	5423
5.94567	5422
5.94633	5421
5.94700	5421
5.94767	5420
5.94833	5419
5.94900	5418
5.94967	5417
5.95033	5416
5.95100	5415
5.95167	5414
5.95233	5413
5.95300	5413
5.95367	5412
5.95433	5411
5.95500	5410
5.95567	5409
5.95633	5408
5.95700	5407
5.95767	5406
5.95833	5405
5.95900	5404
5.95967	5403
5.96033	5402
5.96100	5401
5.96167	5400
5.96233	5400
5.96300	5399
5.96367	5398
5.96433	5397
5.96500	5396
5.96567	5395
5.96633	5394
5.96700	5393
5.96767	5392
5.96833	5392
5.96900	5391
5.96967	5390
5.97033	5389
5.97100	5388
5.97167	5387
5.97233	5386
5.97300	5385
5.97367	5384
5.97433	5383
5.97500	5383
5.97567	5382
5.97633	5381
5.97700	5380
5.97767	5379
5.97833	5378
5.97900	5378
5.97967	5377
5.98033	5376
5.98100	5376
5.98167	5375
5.98233	5374
5.98300	5374
5.98367	5373
5.98433	5372
5.98500	5372
5.98567	5371
5.98633	5370
5.98700	5370
5.98767	5369
5.98833	5368
5.98900	5368
5.98967	5367
5.99033	5367
5.99100	5366
5.99167	5365
5.99233	5365
5.99300	5364
5.99367	5363
5.99433	5363
5.99500	5362
5.99567	5361
5.99633	5361
5.99700	5360
5.99767	5359
5.99833	5358
5.99900	5358
5.99967	5357
6.00033	5356
6.00100	5355
6.00167	5355
6.00233	5354
6.00300	5354
6.00367	5353
6.00433	5352
6.00500	5352
6.00567	5351
6.00633	5351
6.00700	5350
6.00767	5350
6.00833	5350
6.00900	5349
6.00967	5349
6.01033	5348
6.01100	5348
6.01167	5347
6.01233	5347
6.01300	5347
6.01367	5346
6.01433	5346
6.01500	5345
6.01567	5345
6.01633	5344
6.01700	5344
6.01767	5343
6.01833	5343
6.01900	5342
6.01967	5342
6.02033	5341
6.02100	5341
6.02167	5340
6.02233	5340
6.02300	5339
6.02367	5339
6.02433	5338
6.02500	5338
6.02567	5337
6.02633	5337
6.02700	5336
6.02767	5336
6.02833	5335
6.02900	5334
6.02967	5334
6.03033	5333
6.03100	5333
6.03167	5332
6.03233	5332
6.03300	5331
6.03367	5331
6.03433	5330
6.03500	5330
6.03567	5330
6.03633	5329
6.03700	5329
6.03767	5329
6.03833	5328
6.03900	5328
6.03967	5328
6.04033	5327
6.04100	5327
6.04167	5327
6.04233	5327
6.04300	5326
6.04367	5326
6.04433	5326
6.04500	5325
6.04567	5325
6.04633	5325
6.04700	5325
6.04767	5324
6.04833	5324
6.04900	5323
6.04967	5323
6.05033	5323
6.05100	5322
6.05167	5322
6.05233	5321
6.05300	5321
6.05367	5320
6.05433	5320
6.05500	5320
6.05567	5319
6.05633	5319
6.05700	5319
6.05767	5318
6.05833	5318
6.05900	5317
6.05967	5317
6.06033	5317
6.06100	5317
6.06167	5316
6.06233	5316
6.06300	5316
6.06367	5315
6.06433	5315
6.06500	5315
6.06567	5315
6.06633	5314
6.06700	5314
6.06767	5314
6.06833	5313
6.06900	5313
6.06967	5313
6.07033	5312
6.07100	5312
6.07167	5312
6.07233	5311
6.07300	5311
6.07367	5310
6.07433	5310
6.07500	5310
6.07567	5309
6.07633	5309
6.07700	5309
6.07767	5308
6.07833	5308
6.07900	5307
6.07967	5307
6.08033	5307
6.08100	5306
6.08167	5306
6.08233	5305
6.08300	5305
6.08367	5304
6.08433	5304
6.08500	5303
6.08567	5303
6.08633	5302
6.08700	5302
6.08767	5302
6.08833	5301
6.08900	5301
6.08967	5301
6.09033	5300
6.09100	5300
6.09167	5299
6.09233	5299
6.09300	5299
6.09367	5299
6.09433	5298
6.09500	5298
6.09567	5298
6.09633	5297
6.09700	5297
6.09767	5297
6.09833	5297
6.09900	5296
6.09967	5296
6.10033	5296
6.10100	5296
6.10167	5295
6.10233	5295
6.10300	5295
6.10367	5295
6.10433	5294
6.10500	5294
6.10567	5294
6.10633	5294
6.10700	5294
6.10767	5293
6.10833	5293
6.10900	5293
6.10967	5293
6.11033	5293
6.11100	5293
6.11167	5292
6.11233	5292
6.11300	5292
6.11367	5292
6.11433	5292
6.11500	5292
6.11567	5292
6.11633	5292
6.11700	5292
6.11767	5292
6.11833	5292
6.11900	5292
6.11967	5292
6.12033	5291
6.12100	5291
6.12167	5291
6.12233	5291
6.12300	5291
6.12367	5291
6.12433	5291
6.12500	5291
6.12567	5291
6.12633	5291
6.12700	5291
6.12767	5290
6.12833	5290
6.12900	5290
6.12967	5290
6.13033	5290
6.13100	5290
6.13167	5290
6.13233	5290
6.13300	5290
6.13367	5289
6.13433	5289
6.13500	5289
6.13567	5289
6.13633	5289
6.13700	5289
6.13767	5289
6.13833	5289
6.13900	5289
6.13967	5289
6.14033	5288
6.14100	5288
6.14167	5288
6.14233	5288
6.14300	5288
6.14367	5288
6.14433	5287
6.14500	5287
6.14567	5287
6.14633	5287
6.14700	5286
6.14767	5286
6.14833	5286
6.14900	5286
6.14967	5286
6.15033	5286
6.15100	5285
6.15167	5285
6.15233	5285
6.15300	5285
6.15367	5285
6.15433	5285
6.15500	5284
6.15567	5284
6.15633	5284
6.15700	5284
6.15767	5284
6.15833	5284
6.15900	5283
6.15967	5283
6.16033	5283
6.16100	5283
6.16167	5282
6.16233	5282
6.16300	5282
6.16367	5282
6.16433	5282
6.16500	5281
6.16567	5281
6.16633	5281
6.16700	5281
6.16767	5281
6.16833	5281
6.16900	5281
6.16967	5280
6.17033	5280
6.17100	5280
6.17167	5280
6.17233	5279
6.17300	5279
6.17367	5279
6.17433	5279
6.17500	5278
6.17567	5278
6.17633	5277
6.17700	5277
6.17767	5277
6.17833	5276
6.17900	5276
6.17967	5275
6.18033	5275
6.18100	5274
6.18167	5274
6.18233	5274
6.18300	5273
6.18367	5273
6.18433	5272
6.18500	5272
6.18567	5271
6.18633	5271
6.18700	5271
6.18767	5270
6.18833	5270
6.18900	5269
6.18967	5269
6.19033	5268
6.19100	5268
6.19167	5267
6.19233	5267
6.19300	5266
6.19367	5266
6.19433	5265
6.19500	5265
6.19567	5264
6.19633	5264
6.19700	5264
6.19767	5263
6.19833	5263
6.19900	5263
6.19967	5262
6.20033	5262
6.20100	5262
6.20167	5261
6.20233	5261
6.20300	5261
6.20367	5260
6.20433	5260
6.20500	5260
6.20567	5259
6.20633	5259
6.20700	5259
6.20767	5258
6.20833	5258
6.20900	5258
6.20967	5257
6.21033	5257
6.21100	5256
6.21167	5256
6.21233	5256
6.21300	5255
6.21367	5255
6.21433	5254
6.21500	5254
6.21567	5253
6.21633	5253
6.21700	5253
6.21767	5252
6.21833	5252
6.21900	5251
6.21967	5251
6.22033	5251
6.22100	5250
6.22167	5250
6.22233	5250
6.22300	5250
6.22367	5249
6.22433	5249
6.22500	5249
6.22567	5249
6.22633	5248
6.22700	5248
6.22767	5248
6.22833	5248
6.22900	5248
6.22967	5247
6.23033	5247
6.23100	5247
6.23167	5247
6.23233	5247
6.23300	5247
6.23367	5246
6.23433	5246
6.23500	5246
6.23567	5246
6.23633	5246
6.23700	5246
6.23767	5246
6.23833	5246
6.23900	5247
6.23967	5247
6.24033	5247
6.24100	5247
6.24167	5247
6.24233	5247
6.24300	5247
6.24367	5247
6.24433	5247
6.24500	5247
6.24567	5248
6.24633	5248
6.24700	5248
6.24767	5248
6.24833	5249
6.24900	5249
6.24967	5249
6.25033	5250
6.25100	5250
6.25167	5251
6.25233	5251
6.25300	5251
6.25367	5252
6.25433	5252
6.25500	5252
6.25567	5253
6.25633	5253
6.25700	5253
6.25767	5253
6.25833	5254
6.25900	5254
6.25967	5254
6.26033	5254
6.26100	5254
6.26167	5255
6.26233	5255
6.26300	5255
6.26367	5255
6.26433	5255
6.26500	5256
6.26567	5256
6.26633	5256
6.26700	5257
6.26767	5257
6.26833	5257
6.26900	5258
6.26967	5258
6.27033	5258
6.27100	5258
6.27167	5259
6.27233	5259
6.27300	5259
6.27367	5260
6.27433	5260
6.27500	5260
6.27567	5261
6.27633	5261
6.27700	5261
6.27767	5262
6.27833	5262
6.27900	5262
6.27967	5262
6.28033	5263
6.28100	5263
6.28167	5263
6.28233	5263
6.28300	5263
6.28367	5263
6.28433	5264
6.28500	5264
6.28567	5264
6.28633	5264
6.28700	5264
6.28767	5264
6.28833	5264
6.28900	5264
6.28967	5264
6.29033	5264
6.29100	5264
6.29167	5263
6.29233	5263
6.29300	5263
6.29367	5263
6.29433	5263
6.29500	5263
6.29567	5264
6.29633	5264
6.29700	5264
6.29767	5264
6.29833	5264
6.29900	5264
6.29967	5264
6.30033	5265
6.30100	5265
6.30167	5265
6.30233	5265
6.30300	5266
6.30367	5266
6.30433	5266
6.30500	5266
6.30567	5267
6.30633	5267
6.30700	5267
6.30767	5268
6.30833	5268
6.30900	5268
6.30967	5268
6.31033	5269
6.31100	5269
6.31167	5269
6.31233	5270
6.31300	5270
6.31367	5270
6.31433	5270
6.31500	5270
6.31567	5270
6.31633	5271
6.31700	5271
6.31767	5271
6.31833	5271
6.31900	5271
6.31967	5271
6.32033	5272
6.32100	5272
6.32167	5272
6.32233	5272
6.32300	5272
6.32367	5272
6.32433	5272
6.32500	5272
6.32567	5272
6.32633	5273
6.32700	5273
6.32767	5273
6.32833	5273
6.32900	5273
6.32967	5273
6.33033	5273
6.33100	5273
6.33167	5273
6.33233	5273
6.33300	5273
6.33367	5274
6.33433	5274
6.33500	5274
6.33567	5274
6.33633	5274
6.33700	5274
6.33767	5274
6.33833	5274
6.33900	5274
6.33967	5273
6.34033	5273
6.34100	5273
6.34167	5273
6.34233	5273
6.34300	5273
6.34367	5273
6.34433	5273
6.34500	5273
6.34567	5273
6.34633	5273
6.34700	5273
6.34767	5273
6.34833	5272
6.34900	5272
6.34967	5272
6.35033	5272
6.35100	5272
6.35167	5271
6.35233	5271
6.35300	5271
6.35367	5271
6.35433	5270
6.35500	5270
6.35567	5270
6.35633	5269
6.35700	5269
6.35767	5268
6.35833	5268
6.35900	5268
6.35967	5267
6.36033	5267
6.36100	5267
6.36167	5266
6.36233	5266
6.36300	5266
6.36367	5265
6.36433	5265
6.36500	5265
6.36567	5264
6.36633	5264
6.36700	5263
6.36767	5263
6.36833	5262
6.36900	5262
6.36967	5261
6.37033	5261
6.37100	5260
6.37167	5260
6.37233	5260
6.37300	5259
6.37367	5259
6.37433	5258
6.37500	5258
6.37567	5257
6.37633	5257
6.37700	5256
6.37767	5256
6.37833	5256
6.37900	5255
6.37967	5255
6.38033	5255
6.38100	5254
6.38167	5254
6.38233	5253
6.38300	5253
6.38367	5252
6.38433	5252
6.38500	5251
6.38567	5251
6.38633	5251
6.38700	5250
6.38767	5250
6.38833	5249
6.38900	5249
6.38967	5248
6.39033	5248
6.39100	5248
6.39167	5247
6.39233	5247
6.39300	5246
6.39367	5246
6.39433	5245
6.39500	5245
6.39567	5244
6.39633	5244
6.39700	5243
6.39767	5243
6.39833	5242
6.39900	5242
6.39967	5241

