[Header]
Application Name	LabSolutions
Version	5.73
Data File Name	C:\LabSolutions\Data\Project1\stephen\2016-01-06\28.gcd
Output Date	1/11/2016
Output Time	1:19:44 PM

[Configuration]
Instrument Name	WEISSTA-PC-Instrument1
Instrument #	1
Line #	1
# of Detectors	1
Detector ID	DET#2
Detector Name	DFID1
# of Channels	1

[Chromatogram (Ch1)]
Interval(msec)	40
# of Points	9600
Start Time(min)	0.000
End Time(min)	6.399
R.Time (min)	Intensity
0.00000	20
0.00067	20
0.00133	20
0.00200	20
0.00267	20
0.00333	20
0.00400	20
0.00467	20
0.00533	20
0.00600	20
0.00667	20
0.00733	20
0.00800	20
0.00867	19
0.00933	19
0.01000	18
0.01067	17
0.01133	15
0.01200	13
0.01267	11
0.01333	9
0.01400	6
0.01467	3
0.01533	-1
0.01600	-5
0.01667	-9
0.01733	-14
0.01800	-18
0.01867	-23
0.01933	-29
0.02000	-34
0.02067	-39
0.02133	-45
0.02200	-50
0.02267	-56
0.02333	-61
0.02400	-66
0.02467	-71
0.02533	-76
0.02600	-81
0.02667	-86
0.02733	-91
0.02800	-95
0.02867	-99
0.02933	-103
0.03000	-107
0.03067	-111
0.03133	-115
0.03200	-118
0.03267	-121
0.03333	-124
0.03400	-127
0.03467	-130
0.03533	-133
0.03600	-135
0.03667	-137
0.03733	-139
0.03800	-141
0.03867	-143
0.03933	-145
0.04000	-146
0.04067	-148
0.04133	-149
0.04200	-150
0.04267	-151
0.04333	-152
0.04400	-153
0.04467	-154
0.04533	-155
0.04600	-155
0.04667	-156
0.04733	-156
0.04800	-157
0.04867	-157
0.04933	-157
0.05000	-157
0.05067	-157
0.05133	-157
0.05200	-157
0.05267	-157
0.05333	-157
0.05400	-156
0.05467	-156
0.05533	-156
0.05600	-155
0.05667	-155
0.05733	-154
0.05800	-154
0.05867	-153
0.05933	-153
0.06000	-152
0.06067	-151
0.06133	-151
0.06200	-150
0.06267	-150
0.06333	-149
0.06400	-148
0.06467	-148
0.06533	-147
0.06600	-146
0.06667	-146
0.06733	-145
0.06800	-145
0.06867	-144
0.06933	-143
0.07000	-143
0.07067	-142
0.07133	-142
0.07200	-141
0.07267	-141
0.07333	-140
0.07400	-140
0.07467	-139
0.07533	-139
0.07600	-138
0.07667	-138
0.07733	-137
0.07800	-137
0.07867	-136
0.07933	-136
0.08000	-136
0.08067	-135
0.08133	-135
0.08200	-134
0.08267	-134
0.08333	-133
0.08400	-133
0.08467	-133
0.08533	-132
0.08600	-131
0.08667	-130
0.08733	-128
0.08800	-125
0.08867	-121
0.08933	-114
0.09000	-101
0.09067	-80
0.09133	-37
0.09200	30
0.09267	109
0.09333	200
0.09400	310
0.09467	446
0.09533	613
0.09600	796
0.09667	987
0.09733	1193
0.09800	1416
0.09867	1687
0.09933	1992
0.10000	2306
0.10067	2660
0.10133	3046
0.10200	3446
0.10267	3859
0.10333	4281
0.10400	4719
0.10467	5156
0.10533	5606
0.10600	6079
0.10667	6550
0.10733	7008
0.10800	7463
0.10867	7911
0.10933	8389
0.11000	8895
0.11067	9388
0.11133	9862
0.11200	10320
0.11267	10752
0.11333	11151
0.11400	11538
0.11467	11960
0.11533	12396
0.11600	12821
0.11667	13214
0.11733	13568
0.11800	13895
0.11867	14216
0.11933	14540
0.12000	14859
0.12067	15204
0.12133	15541
0.12200	15850
0.12267	16124
0.12333	16380
0.12400	16647
0.12467	16894
0.12533	17110
0.12600	17295
0.12667	17449
0.12733	17588
0.12800	17703
0.12867	17790
0.12933	17849
0.13000	17885
0.13067	17903
0.13133	17907
0.13200	17892
0.13267	17860
0.13333	17829
0.13400	17805
0.13467	17847
0.13533	18242
0.13600	19808
0.13667	24569
0.13733	36541
0.13800	63217
0.13867	116502
0.13933	214714
0.14000	381508
0.14067	644680
0.14133	1032056
0.14200	1571130
0.14267	2286580
0.14333	3200563
0.14400	4330356
0.14467	5689106
0.14533	7285478
0.14600	9125347
0.14667	11210094
0.14733	13532325
0.14800	16084020
0.14867	18876149
0.14933	21928451
0.15000	25246396
0.15067	28820136
0.15133	32629504
0.15200	36649079
0.15267	40851866
0.15333	45210518
0.15400	49699296
0.15467	54293783
0.15533	58971484
0.15600	63711310
0.15667	68493484
0.15733	73299017
0.15800	78109867
0.15867	82908973
0.15933	87680698
0.16000	92410177
0.16067	97083432
0.16133	101687088
0.16200	106208103
0.16267	110634220
0.16333	114953991
0.16400	119156804
0.16467	123233007
0.16533	127173035
0.16600	130968244
0.16667	134611654
0.16733	138096901
0.16800	141418619
0.16867	144572143
0.16933	147554179
0.17000	150362086
0.17067	152994196
0.17133	155449303
0.17200	157727734
0.17267	159831141
0.17333	161762045
0.17400	163521894
0.17467	165111641
0.17533	166532015
0.17600	167784013
0.17667	168868803
0.17733	169788127
0.17800	170544367
0.17867	171140508
0.17933	171580126
0.18000	171867132
0.18067	172005756
0.18133	172000270
0.18200	171855222
0.18267	171575190
0.18333	171165072
0.18400	170629734
0.18467	169974267
0.18533	169203703
0.18600	168323262
0.18667	167338199
0.18733	166253917
0.18800	165075720
0.18867	163808866
0.18933	162458470
0.19000	161029586
0.19067	159527089
0.19133	157955822
0.19200	156320550
0.19267	154625961
0.19333	152876673
0.19400	151077206
0.19467	149232023
0.19533	147345494
0.19600	145421859
0.19667	143465148
0.19733	141479203
0.19800	139467641
0.19867	137433913
0.19933	135381272
0.20000	133312861
0.20067	131231677
0.20133	129140631
0.20200	127042533
0.20267	124940270
0.20333	122836934
0.20400	120735694
0.20467	118639358
0.20533	116550104
0.20600	114469578
0.20667	112399064
0.20733	110339607
0.20800	108292140
0.20867	106257566
0.20933	104236794
0.21000	102230743
0.21067	100240326
0.21133	98266454
0.21200	96310014
0.21267	94371878
0.21333	92452879
0.21400	90553825
0.21467	88675465
0.21533	86818517
0.21600	84983642
0.21667	83171457
0.21733	81382523
0.21800	79617359
0.21867	77876428
0.21933	76160148
0.22000	74468888
0.22067	72802968
0.22133	71162665
0.22200	69548212
0.22267	67959800
0.22333	66397579
0.22400	64861657
0.22467	63352108
0.22533	61868969
0.22600	60412241
0.22667	58981892
0.22733	57577856
0.22800	56200042
0.22867	54848329
0.22933	53522574
0.23000	52222604
0.23067	50948228
0.23133	49699236
0.23200	48475407
0.23267	47276500
0.23333	46102264
0.23400	44952432
0.23467	43826729
0.23533	42724867
0.23600	41646553
0.23667	40591482
0.23733	39559342
0.23800	38549819
0.23867	37562593
0.23933	36597340
0.24000	35653732
0.24067	34731440
0.24133	33830130
0.24200	32949469
0.24267	32089118
0.24333	31248739
0.24400	30427992
0.24467	29626540
0.24533	28844045
0.24600	28080170
0.24667	27334579
0.24733	26606939
0.24800	25896916
0.24867	25204178
0.24933	24528397
0.25000	23869243
0.25067	23226391
0.25133	22599518
0.25200	21988302
0.25267	21392425
0.25333	20811571
0.25400	20245427
0.25467	19693683
0.25533	19156032
0.25600	18632172
0.25667	18121803
0.25733	17624632
0.25800	17140365
0.25867	16668716
0.25933	16209402
0.26000	15762146
0.26067	15326674
0.26133	14902716
0.26200	14490007
0.26267	14088284
0.26333	13697289
0.26400	13316768
0.26467	12946471
0.26533	12586154
0.26600	12235574
0.26667	11894494
0.26733	11562681
0.26800	11239908
0.26867	10925951
0.26933	10620590
0.27000	10323611
0.27067	10034803
0.27133	9753961
0.27200	9480885
0.27267	9215379
0.27333	8957253
0.27400	8706319
0.27467	8462394
0.27533	8225299
0.27600	7994857
0.27667	7770898
0.27733	7553252
0.27800	7341755
0.27867	7136248
0.27933	6936571
0.28000	6742573
0.28067	6554101
0.28133	6371009
0.28200	6193154
0.28267	6020395
0.28333	5852594
0.28400	5689617
0.28467	5531334
0.28533	5377616
0.28600	5228339
0.28667	5083381
0.28733	4942623
0.28800	4805950
0.28867	4673249
0.28933	4544411
0.29000	4419329
0.29067	4297899
0.29133	4180020
0.29200	4065594
0.29267	3954525
0.29333	3846718
0.29400	3742084
0.29467	3640532
0.29533	3541977
0.29600	3446333
0.29667	3353519
0.29733	3263456
0.29800	3176063
0.29867	3091267
0.29933	3008991
0.30000	2929165
0.30067	2851717
0.30133	2776581
0.30200	2703689
0.30267	2632978
0.30333	2564383
0.30400	2497844
0.30467	2433300
0.30533	2370694
0.30600	2309968
0.30667	2251067
0.30733	2193934
0.30800	2138516
0.30867	2084761
0.30933	2032620
0.31000	1982042
0.31067	1932981
0.31133	1885390
0.31200	1839225
0.31267	1794444
0.31333	1751006
0.31400	1708873
0.31467	1668007
0.31533	1628372
0.31600	1589934
0.31667	1552660
0.31733	1516519
0.31800	1481479
0.31867	1447512
0.31933	1414589
0.32000	1382683
0.32067	1351768
0.32133	1321818
0.32200	1292807
0.32267	1264713
0.32333	1237512
0.32400	1211183
0.32467	1185702
0.32533	1161048
0.32600	1137201
0.32667	1114142
0.32733	1091852
0.32800	1070313
0.32867	1049510
0.32933	1029425
0.33000	1010045
0.33067	991354
0.33133	973339
0.33200	955984
0.33267	939274
0.33333	923194
0.33400	907731
0.33467	892870
0.33533	878597
0.33600	864898
0.33667	851760
0.33733	839171
0.33800	827119
0.33867	815594
0.33933	804588
0.34000	794096
0.34067	784113
0.34133	774636
0.34200	765667
0.34267	757205
0.34333	749256
0.34400	741829
0.34467	734934
0.34533	728587
0.34600	722810
0.34667	717626
0.34733	713060
0.34800	709135
0.34867	705866
0.34933	703261
0.35000	701319
0.35067	700035
0.35133	699391
0.35200	699364
0.35267	699926
0.35333	701041
0.35400	702672
0.35467	704782
0.35533	707331
0.35600	710279
0.35667	713588
0.35733	717218
0.35800	721133
0.35867	725296
0.35933	729674
0.36000	734237
0.36067	738955
0.36133	743805
0.36200	748760
0.36267	753802
0.36333	758910
0.36400	764071
0.36467	769267
0.36533	774488
0.36600	779720
0.36667	784951
0.36733	790169
0.36800	795364
0.36867	800526
0.36933	805645
0.37000	810712
0.37067	815719
0.37133	820657
0.37200	825521
0.37267	830304
0.37333	835001
0.37400	839607
0.37467	844119
0.37533	848536
0.37600	852856
0.37667	857080
0.37733	861207
0.37800	865237
0.37867	869168
0.37933	872999
0.38000	876729
0.38067	880356
0.38133	883878
0.38200	887296
0.38267	890610
0.38333	893819
0.38400	896926
0.38467	899930
0.38533	902835
0.38600	905644
0.38667	908359
0.38733	910986
0.38800	913532
0.38867	916001
0.38933	918403
0.39000	920744
0.39067	923032
0.39133	925269
0.39200	927461
0.39267	929606
0.39333	931704
0.39400	933751
0.39467	935744
0.39533	937678
0.39600	939546
0.39667	941342
0.39733	943060
0.39800	944693
0.39867	946235
0.39933	947682
0.40000	949030
0.40067	950277
0.40133	951423
0.40200	952467
0.40267	953409
0.40333	954252
0.40400	954995
0.40467	955638
0.40533	956181
0.40600	956622
0.40667	956956
0.40733	957178
0.40800	957280
0.40867	957250
0.40933	957076
0.41000	956745
0.41067	956242
0.41133	955554
0.41200	954664
0.41267	953559
0.41333	952226
0.41400	950648
0.41467	948809
0.41533	946692
0.41600	944278
0.41667	941546
0.41733	938478
0.41800	935056
0.41867	931265
0.41933	927090
0.42000	922517
0.42067	917532
0.42133	912122
0.42200	906275
0.42267	899983
0.42333	893242
0.42400	886054
0.42467	878427
0.42533	870372
0.42600	861909
0.42667	853058
0.42733	843845
0.42800	834297
0.42867	824440
0.42933	814303
0.43000	803915
0.43067	793302
0.43133	782491
0.43200	771508
0.43267	760377
0.43333	749121
0.43400	737763
0.43467	726323
0.43533	714821
0.43600	703278
0.43667	691710
0.43733	680134
0.43800	668566
0.43867	657021
0.43933	645512
0.44000	634052
0.44067	622652
0.44133	611323
0.44200	600074
0.44267	588914
0.44333	577852
0.44400	566895
0.44467	556049
0.44533	545321
0.44600	534716
0.44667	524241
0.44733	513899
0.44800	503696
0.44867	493636
0.44933	483721
0.45000	473956
0.45067	464344
0.45133	454886
0.45200	445584
0.45267	436441
0.45333	427458
0.45400	418635
0.45467	409973
0.45533	401472
0.45600	393134
0.45667	384957
0.45733	376942
0.45800	369089
0.45867	361397
0.45933	353866
0.46000	346495
0.46067	339284
0.46133	332233
0.46200	325340
0.46267	318606
0.46333	312029
0.46400	305610
0.46467	299347
0.46533	293240
0.46600	287288
0.46667	281490
0.46733	275844
0.46800	270348
0.46867	264998
0.46933	259792
0.47000	254726
0.47067	249798
0.47133	245003
0.47200	240340
0.47267	235805
0.47333	231394
0.47400	227105
0.47467	222934
0.47533	218878
0.47600	214933
0.47667	211097
0.47733	207366
0.47800	203738
0.47867	200210
0.47933	196779
0.48000	193442
0.48067	190196
0.48133	187039
0.48200	183969
0.48267	180983
0.48333	178077
0.48400	175251
0.48467	172502
0.48533	169827
0.48600	167224
0.48667	164691
0.48733	162227
0.48800	159828
0.48867	157493
0.48933	155220
0.49000	153007
0.49067	150852
0.49133	148753
0.49200	146709
0.49267	144716
0.49333	142775
0.49400	140882
0.49467	139037
0.49533	137238
0.49600	135483
0.49667	133771
0.49733	132101
0.49800	130471
0.49867	128879
0.49933	127326
0.50000	125808
0.50067	124326
0.50133	122878
0.50200	121463
0.50267	120080
0.50333	118728
0.50400	117406
0.50467	116113
0.50533	114848
0.50600	113611
0.50667	112400
0.50733	111214
0.50800	110053
0.50867	108916
0.50933	107802
0.51000	106711
0.51067	105642
0.51133	104593
0.51200	103565
0.51267	102557
0.51333	101569
0.51400	100599
0.51467	99647
0.51533	98712
0.51600	97795
0.51667	96894
0.51733	96009
0.51800	95140
0.51867	94286
0.51933	93446
0.52000	92621
0.52067	91810
0.52133	91013
0.52200	90228
0.52267	89456
0.52333	88696
0.52400	87948
0.52467	87212
0.52533	86488
0.52600	85774
0.52667	85071
0.52733	84379
0.52800	83697
0.52867	83025
0.52933	82362
0.53000	81709
0.53067	81066
0.53133	80431
0.53200	79805
0.53267	79188
0.53333	78579
0.53400	77978
0.53467	77385
0.53533	76799
0.53600	76222
0.53667	75652
0.53733	75089
0.53800	74533
0.53867	73983
0.53933	73441
0.54000	72905
0.54067	72376
0.54133	71854
0.54200	71337
0.54267	70827
0.54333	70323
0.54400	69825
0.54467	69332
0.54533	68846
0.54600	68366
0.54667	67891
0.54733	67422
0.54800	66959
0.54867	66502
0.54933	66050
0.55000	65605
0.55067	65165
0.55133	64731
0.55200	64303
0.55267	63881
0.55333	63465
0.55400	63055
0.55467	62650
0.55533	62252
0.55600	61859
0.55667	61472
0.55733	61090
0.55800	60714
0.55867	60343
0.55933	59977
0.56000	59617
0.56067	59261
0.56133	58909
0.56200	58562
0.56267	58219
0.56333	57879
0.56400	57544
0.56467	57211
0.56533	56882
0.56600	56557
0.56667	56234
0.56733	55913
0.56800	55595
0.56867	55280
0.56933	54967
0.57000	54656
0.57067	54347
0.57133	54040
0.57200	53735
0.57267	53432
0.57333	53132
0.57400	52833
0.57467	52535
0.57533	52240
0.57600	51946
0.57667	51654
0.57733	51364
0.57800	51075
0.57867	50788
0.57933	50503
0.58000	50219
0.58067	49937
0.58133	49656
0.58200	49377
0.58267	49100
0.58333	48824
0.58400	48549
0.58467	48277
0.58533	48006
0.58600	47736
0.58667	47468
0.58733	47202
0.58800	46938
0.58867	46675
0.58933	46413
0.59000	46154
0.59067	45896
0.59133	45640
0.59200	45386
0.59267	45134
0.59333	44883
0.59400	44634
0.59467	44386
0.59533	44141
0.59600	43897
0.59667	43655
0.59733	43415
0.59800	43176
0.59867	42939
0.59933	42704
0.60000	42471
0.60067	42240
0.60133	42011
0.60200	41783
0.60267	41557
0.60333	41334
0.60400	41112
0.60467	40892
0.60533	40673
0.60600	40457
0.60667	40243
0.60733	40030
0.60800	39819
0.60867	39611
0.60933	39404
0.61000	39199
0.61067	38996
0.61133	38795
0.61200	38595
0.61267	38398
0.61333	38203
0.61400	38009
0.61467	37817
0.61533	37627
0.61600	37439
0.61667	37253
0.61733	37069
0.61800	36886
0.61867	36706
0.61933	36527
0.62000	36350
0.62067	36174
0.62133	36000
0.62200	35828
0.62267	35658
0.62333	35489
0.62400	35321
0.62467	35156
0.62533	34991
0.62600	34828
0.62667	34666
0.62733	34506
0.62800	34347
0.62867	34190
0.62933	34033
0.63000	33878
0.63067	33724
0.63133	33572
0.63200	33421
0.63267	33271
0.63333	33122
0.63400	32975
0.63467	32829
0.63533	32684
0.63600	32540
0.63667	32398
0.63733	32256
0.63800	32117
0.63867	31978
0.63933	31841
0.64000	31705
0.64067	31571
0.64133	31438
0.64200	31306
0.64267	31176
0.64333	31047
0.64400	30920
0.64467	30793
0.64533	30668
0.64600	30544
0.64667	30422
0.64733	30300
0.64800	30180
0.64867	30061
0.64933	29943
0.65000	29826
0.65067	29710
0.65133	29595
0.65200	29480
0.65267	29366
0.65333	29253
0.65400	29141
0.65467	29030
0.65533	28919
0.65600	28808
0.65667	28698
0.65733	28589
0.65800	28480
0.65867	28372
0.65933	28264
0.66000	28156
0.66067	28049
0.66133	27941
0.66200	27835
0.66267	27728
0.66333	27622
0.66400	27517
0.66467	27411
0.66533	27306
0.66600	27201
0.66667	27097
0.66733	26993
0.66800	26890
0.66867	26786
0.66933	26683
0.67000	26581
0.67067	26479
0.67133	26377
0.67200	26275
0.67267	26174
0.67333	26074
0.67400	25974
0.67467	25874
0.67533	25775
0.67600	25676
0.67667	25578
0.67733	25481
0.67800	25384
0.67867	25288
0.67933	25193
0.68000	25099
0.68067	25006
0.68133	24913
0.68200	24822
0.68267	24732
0.68333	24644
0.68400	24557
0.68467	24471
0.68533	24387
0.68600	24305
0.68667	24226
0.68733	24148
0.68800	24073
0.68867	24000
0.68933	23930
0.69000	23863
0.69067	23799
0.69133	23739
0.69200	23682
0.69267	23628
0.69333	23578
0.69400	23532
0.69467	23490
0.69533	23451
0.69600	23417
0.69667	23386
0.69733	23359
0.69800	23335
0.69867	23315
0.69933	23298
0.70000	23284
0.70067	23272
0.70133	23263
0.70200	23255
0.70267	23250
0.70333	23245
0.70400	23241
0.70467	23237
0.70533	23233
0.70600	23229
0.70667	23223
0.70733	23217
0.70800	23209
0.70867	23199
0.70933	23186
0.71000	23172
0.71067	23154
0.71133	23134
0.71200	23111
0.71267	23085
0.71333	23056
0.71400	23024
0.71467	22989
0.71533	22951
0.71600	22910
0.71667	22866
0.71733	22819
0.71800	22769
0.71867	22717
0.71933	22662
0.72000	22605
0.72067	22546
0.72133	22484
0.72200	22420
0.72267	22355
0.72333	22288
0.72400	22219
0.72467	22149
0.72533	22077
0.72600	22005
0.72667	21931
0.72733	21856
0.72800	21780
0.72867	21704
0.72933	21626
0.73000	21548
0.73067	21470
0.73133	21391
0.73200	21311
0.73267	21232
0.73333	21152
0.73400	21072
0.73467	20992
0.73533	20911
0.73600	20831
0.73667	20751
0.73733	20671
0.73800	20591
0.73867	20511
0.73933	20431
0.74000	20352
0.74067	20272
0.74133	20193
0.74200	20115
0.74267	20036
0.74333	19958
0.74400	19881
0.74467	19803
0.74533	19726
0.74600	19650
0.74667	19574
0.74733	19499
0.74800	19424
0.74867	19349
0.74933	19276
0.75000	19202
0.75067	19129
0.75133	19057
0.75200	18985
0.75267	18913
0.75333	18843
0.75400	18772
0.75467	18703
0.75533	18634
0.75600	18565
0.75667	18497
0.75733	18430
0.75800	18363
0.75867	18297
0.75933	18231
0.76000	18167
0.76067	18102
0.76133	18039
0.76200	17976
0.76267	17913
0.76333	17851
0.76400	17790
0.76467	17729
0.76533	17669
0.76600	17610
0.76667	17551
0.76733	17492
0.76800	17434
0.76867	17377
0.76933	17320
0.77000	17263
0.77067	17207
0.77133	17152
0.77200	17097
0.77267	17043
0.77333	16989
0.77400	16936
0.77467	16884
0.77533	16832
0.77600	16780
0.77667	16729
0.77733	16678
0.77800	16628
0.77867	16579
0.77933	16530
0.78000	16481
0.78067	16433
0.78133	16386
0.78200	16339
0.78267	16292
0.78333	16246
0.78400	16200
0.78467	16154
0.78533	16109
0.78600	16065
0.78667	16021
0.78733	15977
0.78800	15934
0.78867	15891
0.78933	15848
0.79000	15806
0.79067	15764
0.79133	15723
0.79200	15682
0.79267	15641
0.79333	15601
0.79400	15561
0.79467	15521
0.79533	15482
0.79600	15443
0.79667	15405
0.79733	15367
0.79800	15329
0.79867	15291
0.79933	15254
0.80000	15217
0.80067	15180
0.80133	15144
0.80200	15108
0.80267	15072
0.80333	15037
0.80400	15002
0.80467	14967
0.80533	14933
0.80600	14899
0.80667	14865
0.80733	14831
0.80800	14798
0.80867	14765
0.80933	14732
0.81000	14699
0.81067	14667
0.81133	14635
0.81200	14603
0.81267	14572
0.81333	14541
0.81400	14510
0.81467	14480
0.81533	14449
0.81600	14420
0.81667	14390
0.81733	14361
0.81800	14332
0.81867	14303
0.81933	14275
0.82000	14247
0.82067	14219
0.82133	14192
0.82200	14164
0.82267	14137
0.82333	14110
0.82400	14084
0.82467	14057
0.82533	14031
0.82600	14005
0.82667	13979
0.82733	13953
0.82800	13927
0.82867	13902
0.82933	13876
0.83000	13851
0.83067	13826
0.83133	13801
0.83200	13776
0.83267	13751
0.83333	13727
0.83400	13702
0.83467	13678
0.83533	13654
0.83600	13630
0.83667	13606
0.83733	13582
0.83800	13558
0.83867	13534
0.83933	13511
0.84000	13488
0.84067	13464
0.84133	13441
0.84200	13418
0.84267	13395
0.84333	13372
0.84400	13350
0.84467	13327
0.84533	13305
0.84600	13282
0.84667	13260
0.84733	13238
0.84800	13215
0.84867	13193
0.84933	13171
0.85000	13149
0.85067	13127
0.85133	13105
0.85200	13083
0.85267	13061
0.85333	13039
0.85400	13018
0.85467	12996
0.85533	12974
0.85600	12952
0.85667	12931
0.85733	12909
0.85800	12888
0.85867	12866
0.85933	12845
0.86000	12824
0.86067	12802
0.86133	12781
0.86200	12760
0.86267	12739
0.86333	12718
0.86400	12697
0.86467	12677
0.86533	12656
0.86600	12635
0.86667	12615
0.86733	12594
0.86800	12574
0.86867	12554
0.86933	12534
0.87000	12514
0.87067	12494
0.87133	12474
0.87200	12454
0.87267	12434
0.87333	12415
0.87400	12395
0.87467	12376
0.87533	12357
0.87600	12337
0.87667	12318
0.87733	12299
0.87800	12280
0.87867	12261
0.87933	12242
0.88000	12223
0.88067	12205
0.88133	12186
0.88200	12168
0.88267	12149
0.88333	12131
0.88400	12113
0.88467	12095
0.88533	12077
0.88600	12059
0.88667	12041
0.88733	12024
0.88800	12006
0.88867	11989
0.88933	11971
0.89000	11954
0.89067	11937
0.89133	11920
0.89200	11903
0.89267	11886
0.89333	11869
0.89400	11852
0.89467	11835
0.89533	11819
0.89600	11802
0.89667	11786
0.89733	11769
0.89800	11753
0.89867	11737
0.89933	11721
0.90000	11704
0.90067	11688
0.90133	11672
0.90200	11657
0.90267	11641
0.90333	11625
0.90400	11609
0.90467	11593
0.90533	11578
0.90600	11562
0.90667	11547
0.90733	11531
0.90800	11516
0.90867	11500
0.90933	11485
0.91000	11469
0.91067	11454
0.91133	11439
0.91200	11424
0.91267	11409
0.91333	11393
0.91400	11378
0.91467	11363
0.91533	11348
0.91600	11333
0.91667	11319
0.91733	11304
0.91800	11289
0.91867	11274
0.91933	11259
0.92000	11245
0.92067	11230
0.92133	11216
0.92200	11201
0.92267	11187
0.92333	11173
0.92400	11158
0.92467	11144
0.92533	11130
0.92600	11116
0.92667	11102
0.92733	11089
0.92800	11075
0.92867	11061
0.92933	11048
0.93000	11034
0.93067	11021
0.93133	11007
0.93200	10994
0.93267	10981
0.93333	10968
0.93400	10954
0.93467	10941
0.93533	10928
0.93600	10915
0.93667	10902
0.93733	10890
0.93800	10877
0.93867	10864
0.93933	10851
0.94000	10838
0.94067	10826
0.94133	10813
0.94200	10800
0.94267	10788
0.94333	10775
0.94400	10763
0.94467	10750
0.94533	10738
0.94600	10725
0.94667	10713
0.94733	10700
0.94800	10688
0.94867	10675
0.94933	10663
0.95000	10650
0.95067	10638
0.95133	10626
0.95200	10614
0.95267	10602
0.95333	10589
0.95400	10577
0.95467	10566
0.95533	10554
0.95600	10542
0.95667	10530
0.95733	10519
0.95800	10507
0.95867	10496
0.95933	10485
0.96000	10474
0.96067	10463
0.96133	10452
0.96200	10441
0.96267	10430
0.96333	10420
0.96400	10409
0.96467	10399
0.96533	10389
0.96600	10379
0.96667	10368
0.96733	10358
0.96800	10348
0.96867	10338
0.96933	10329
0.97000	10319
0.97067	10309
0.97133	10299
0.97200	10289
0.97267	10279
0.97333	10269
0.97400	10259
0.97467	10249
0.97533	10238
0.97600	10228
0.97667	10218
0.97733	10207
0.97800	10197
0.97867	10186
0.97933	10176
0.98000	10165
0.98067	10154
0.98133	10143
0.98200	10132
0.98267	10122
0.98333	10110
0.98400	10099
0.98467	10088
0.98533	10077
0.98600	10066
0.98667	10054
0.98733	10043
0.98800	10031
0.98867	10020
0.98933	10009
0.99000	9997
0.99067	9986
0.99133	9974
0.99200	9962
0.99267	9951
0.99333	9939
0.99400	9928
0.99467	9916
0.99533	9905
0.99600	9893
0.99667	9882
0.99733	9870
0.99800	9858
0.99867	9847
0.99933	9835
1.00000	9824
1.00067	9812
1.00133	9801
1.00200	9789
1.00267	9778
1.00333	9767
1.00400	9755
1.00467	9744
1.00533	9733
1.00600	9721
1.00667	9710
1.00733	9699
1.00800	9688
1.00867	9677
1.00933	9666
1.01000	9656
1.01067	9645
1.01133	9634
1.01200	9624
1.01267	9613
1.01333	9603
1.01400	9593
1.01467	9583
1.01533	9573
1.01600	9563
1.01667	9554
1.01733	9544
1.01800	9535
1.01867	9526
1.01933	9517
1.02000	9508
1.02067	9500
1.02133	9491
1.02200	9483
1.02267	9475
1.02333	9467
1.02400	9460
1.02467	9452
1.02533	9445
1.02600	9437
1.02667	9430
1.02733	9423
1.02800	9416
1.02867	9409
1.02933	9402
1.03000	9396
1.03067	9389
1.03133	9382
1.03200	9376
1.03267	9369
1.03333	9363
1.03400	9356
1.03467	9350
1.03533	9343
1.03600	9337
1.03667	9330
1.03733	9323
1.03800	9316
1.03867	9310
1.03933	9303
1.04000	9296
1.04067	9289
1.04133	9282
1.04200	9275
1.04267	9267
1.04333	9260
1.04400	9253
1.04467	9245
1.04533	9237
1.04600	9230
1.04667	9222
1.04733	9214
1.04800	9206
1.04867	9198
1.04933	9190
1.05000	9182
1.05067	9174
1.05133	9166
1.05200	9158
1.05267	9149
1.05333	9141
1.05400	9133
1.05467	9124
1.05533	9116
1.05600	9108
1.05667	9099
1.05733	9091
1.05800	9083
1.05867	9074
1.05933	9066
1.06000	9057
1.06067	9049
1.06133	9040
1.06200	9032
1.06267	9023
1.06333	9015
1.06400	9006
1.06467	8998
1.06533	8989
1.06600	8981
1.06667	8972
1.06733	8964
1.06800	8955
1.06867	8947
1.06933	8938
1.07000	8930
1.07067	8921
1.07133	8913
1.07200	8904
1.07267	8896
1.07333	8887
1.07400	8879
1.07467	8870
1.07533	8862
1.07600	8853
1.07667	8845
1.07733	8837
1.07800	8828
1.07867	8820
1.07933	8812
1.08000	8803
1.08067	8795
1.08133	8787
1.08200	8779
1.08267	8771
1.08333	8762
1.08400	8754
1.08467	8746
1.08533	8738
1.08600	8730
1.08667	8722
1.08733	8714
1.08800	8706
1.08867	8698
1.08933	8690
1.09000	8682
1.09067	8675
1.09133	8667
1.09200	8659
1.09267	8651
1.09333	8643
1.09400	8635
1.09467	8628
1.09533	8620
1.09600	8612
1.09667	8604
1.09733	8597
1.09800	8589
1.09867	8582
1.09933	8574
1.10000	8566
1.10067	8559
1.10133	8552
1.10200	8544
1.10267	8537
1.10333	8529
1.10400	8522
1.10467	8515
1.10533	8508
1.10600	8500
1.10667	8493
1.10733	8486
1.10800	8479
1.10867	8472
1.10933	8465
1.11000	8458
1.11067	8451
1.11133	8444
1.11200	8437
1.11267	8431
1.11333	8424
1.11400	8417
1.11467	8410
1.11533	8404
1.11600	8397
1.11667	8391
1.11733	8384
1.11800	8378
1.11867	8371
1.11933	8365
1.12000	8358
1.12067	8352
1.12133	8346
1.12200	8340
1.12267	8333
1.12333	8327
1.12400	8321
1.12467	8315
1.12533	8310
1.12600	8304
1.12667	8298
1.12733	8292
1.12800	8286
1.12867	8281
1.12933	8275
1.13000	8270
1.13067	8264
1.13133	8259
1.13200	8253
1.13267	8248
1.13333	8243
1.13400	8238
1.13467	8233
1.13533	8227
1.13600	8222
1.13667	8218
1.13733	8213
1.13800	8208
1.13867	8203
1.13933	8199
1.14000	8194
1.14067	8190
1.14133	8185
1.14200	8181
1.14267	8177
1.14333	8173
1.14400	8169
1.14467	8165
1.14533	8161
1.14600	8157
1.14667	8153
1.14733	8149
1.14800	8145
1.14867	8142
1.14933	8138
1.15000	8134
1.15067	8130
1.15133	8127
1.15200	8123
1.15267	8119
1.15333	8116
1.15400	8112
1.15467	8108
1.15533	8104
1.15600	8100
1.15667	8097
1.15733	8093
1.15800	8089
1.15867	8085
1.15933	8081
1.16000	8077
1.16067	8073
1.16133	8069
1.16200	8064
1.16267	8060
1.16333	8056
1.16400	8052
1.16467	8048
1.16533	8044
1.16600	8039
1.16667	8035
1.16733	8031
1.16800	8026
1.16867	8022
1.16933	8018
1.17000	8013
1.17067	8009
1.17133	8004
1.17200	8000
1.17267	7995
1.17333	7990
1.17400	7986
1.17467	7981
1.17533	7977
1.17600	7972
1.17667	7968
1.17733	7963
1.17800	7958
1.17867	7954
1.17933	7949
1.18000	7945
1.18067	7940
1.18133	7936
1.18200	7931
1.18267	7927
1.18333	7922
1.18400	7917
1.18467	7913
1.18533	7909
1.18600	7904
1.18667	7900
1.18733	7895
1.18800	7891
1.18867	7887
1.18933	7882
1.19000	7878
1.19067	7874
1.19133	7870
1.19200	7866
1.19267	7862
1.19333	7858
1.19400	7854
1.19467	7850
1.19533	7846
1.19600	7842
1.19667	7838
1.19733	7834
1.19800	7830
1.19867	7827
1.19933	7823
1.20000	7820
1.20067	7816
1.20133	7813
1.20200	7809
1.20267	7806
1.20333	7803
1.20400	7800
1.20467	7797
1.20533	7794
1.20600	7791
1.20667	7788
1.20733	7785
1.20800	7783
1.20867	7780
1.20933	7778
1.21000	7775
1.21067	7773
1.21133	7770
1.21200	7768
1.21267	7766
1.21333	7763
1.21400	7761
1.21467	7759
1.21533	7757
1.21600	7755
1.21667	7753
1.21733	7751
1.21800	7749
1.21867	7747
1.21933	7745
1.22000	7743
1.22067	7741
1.22133	7739
1.22200	7738
1.22267	7736
1.22333	7734
1.22400	7732
1.22467	7731
1.22533	7729
1.22600	7727
1.22667	7726
1.22733	7724
1.22800	7723
1.22867	7721
1.22933	7720
1.23000	7718
1.23067	7717
1.23133	7716
1.23200	7714
1.23267	7713
1.23333	7712
1.23400	7710
1.23467	7709
1.23533	7708
1.23600	7707
1.23667	7706
1.23733	7704
1.23800	7703
1.23867	7702
1.23933	7701
1.24000	7700
1.24067	7700
1.24133	7699
1.24200	7698
1.24267	7697
1.24333	7696
1.24400	7695
1.24467	7694
1.24533	7693
1.24600	7693
1.24667	7692
1.24733	7691
1.24800	7690
1.24867	7690
1.24933	7689
1.25000	7689
1.25067	7688
1.25133	7688
1.25200	7688
1.25267	7688
1.25333	7688
1.25400	7688
1.25467	7688
1.25533	7688
1.25600	7689
1.25667	7689
1.25733	7690
1.25800	7691
1.25867	7692
1.25933	7693
1.26000	7694
1.26067	7696
1.26133	7697
1.26200	7699
1.26267	7701
1.26333	7704
1.26400	7706
1.26467	7709
1.26533	7712
1.26600	7716
1.26667	7719
1.26733	7724
1.26800	7728
1.26867	7733
1.26933	7738
1.27000	7743
1.27067	7749
1.27133	7756
1.27200	7762
1.27267	7769
1.27333	7776
1.27400	7784
1.27467	7792
1.27533	7800
1.27600	7809
1.27667	7818
1.27733	7827
1.27800	7836
1.27867	7846
1.27933	7856
1.28000	7866
1.28067	7876
1.28133	7886
1.28200	7897
1.28267	7907
1.28333	7918
1.28400	7928
1.28467	7939
1.28533	7949
1.28600	7959
1.28667	7969
1.28733	7979
1.28800	7989
1.28867	7998
1.28933	8007
1.29000	8016
1.29067	8025
1.29133	8033
1.29200	8041
1.29267	8048
1.29333	8055
1.29400	8062
1.29467	8068
1.29533	8074
1.29600	8079
1.29667	8084
1.29733	8089
1.29800	8093
1.29867	8096
1.29933	8099
1.30000	8102
1.30067	8104
1.30133	8106
1.30200	8107
1.30267	8108
1.30333	8108
1.30400	8108
1.30467	8108
1.30533	8107
1.30600	8106
1.30667	8104
1.30733	8102
1.30800	8099
1.30867	8097
1.30933	8093
1.31000	8090
1.31067	8086
1.31133	8082
1.31200	8078
1.31267	8073
1.31333	8069
1.31400	8064
1.31467	8058
1.31533	8053
1.31600	8047
1.31667	8041
1.31733	8035
1.31800	8029
1.31867	8023
1.31933	8016
1.32000	8009
1.32067	8003
1.32133	7996
1.32200	7989
1.32267	7981
1.32333	7974
1.32400	7967
1.32467	7959
1.32533	7951
1.32600	7944
1.32667	7936
1.32733	7928
1.32800	7920
1.32867	7912
1.32933	7904
1.33000	7895
1.33067	7887
1.33133	7879
1.33200	7871
1.33267	7862
1.33333	7854
1.33400	7846
1.33467	7837
1.33533	7829
1.33600	7820
1.33667	7812
1.33733	7804
1.33800	7795
1.33867	7787
1.33933	7779
1.34000	7770
1.34067	7762
1.34133	7754
1.34200	7745
1.34267	7737
1.34333	7729
1.34400	7721
1.34467	7712
1.34533	7704
1.34600	7696
1.34667	7688
1.34733	7680
1.34800	7672
1.34867	7664
1.34933	7655
1.35000	7647
1.35067	7639
1.35133	7632
1.35200	7624
1.35267	7616
1.35333	7608
1.35400	7600
1.35467	7592
1.35533	7585
1.35600	7577
1.35667	7569
1.35733	7562
1.35800	7554
1.35867	7547
1.35933	7539
1.36000	7532
1.36067	7525
1.36133	7517
1.36200	7510
1.36267	7503
1.36333	7496
1.36400	7489
1.36467	7482
1.36533	7476
1.36600	7469
1.36667	7462
1.36733	7456
1.36800	7449
1.36867	7443
1.36933	7437
1.37000	7430
1.37067	7424
1.37133	7418
1.37200	7412
1.37267	7407
1.37333	7401
1.37400	7395
1.37467	7390
1.37533	7384
1.37600	7379
1.37667	7373
1.37733	7368
1.37800	7363
1.37867	7358
1.37933	7353
1.38000	7348
1.38067	7343
1.38133	7338
1.38200	7333
1.38267	7329
1.38333	7324
1.38400	7319
1.38467	7315
1.38533	7310
1.38600	7306
1.38667	7301
1.38733	7297
1.38800	7293
1.38867	7289
1.38933	7284
1.39000	7280
1.39067	7276
1.39133	7272
1.39200	7268
1.39267	7264
1.39333	7260
1.39400	7256
1.39467	7252
1.39533	7248
1.39600	7244
1.39667	7240
1.39733	7237
1.39800	7233
1.39867	7229
1.39933	7225
1.40000	7221
1.40067	7217
1.40133	7213
1.40200	7209
1.40267	7206
1.40333	7202
1.40400	7198
1.40467	7194
1.40533	7190
1.40600	7187
1.40667	7183
1.40733	7179
1.40800	7175
1.40867	7172
1.40933	7168
1.41000	7164
1.41067	7160
1.41133	7157
1.41200	7153
1.41267	7149
1.41333	7146
1.41400	7142
1.41467	7138
1.41533	7134
1.41600	7131
1.41667	7127
1.41733	7123
1.41800	7119
1.41867	7116
1.41933	7112
1.42000	7108
1.42067	7105
1.42133	7101
1.42200	7097
1.42267	7094
1.42333	7090
1.42400	7087
1.42467	7083
1.42533	7080
1.42600	7076
1.42667	7073
1.42733	7069
1.42800	7066
1.42867	7063
1.42933	7059
1.43000	7056
1.43067	7053
1.43133	7050
1.43200	7047
1.43267	7043
1.43333	7040
1.43400	7037
1.43467	7035
1.43533	7032
1.43600	7029
1.43667	7026
1.43733	7023
1.43800	7021
1.43867	7018
1.43933	7015
1.44000	7013
1.44067	7010
1.44133	7008
1.44200	7005
1.44267	7003
1.44333	7000
1.44400	6998
1.44467	6996
1.44533	6993
1.44600	6991
1.44667	6989
1.44733	6986
1.44800	6984
1.44867	6982
1.44933	6979
1.45000	6977
1.45067	6974
1.45133	6972
1.45200	6970
1.45267	6967
1.45333	6965
1.45400	6963
1.45467	6960
1.45533	6958
1.45600	6956
1.45667	6954
1.45733	6952
1.45800	6949
1.45867	6947
1.45933	6945
1.46000	6943
1.46067	6940
1.46133	6938
1.46200	6936
1.46267	6934
1.46333	6932
1.46400	6930
1.46467	6927
1.46533	6925
1.46600	6923
1.46667	6921
1.46733	6919
1.46800	6917
1.46867	6914
1.46933	6912
1.47000	6910
1.47067	6908
1.47133	6906
1.47200	6904
1.47267	6901
1.47333	6899
1.47400	6897
1.47467	6895
1.47533	6892
1.47600	6890
1.47667	6888
1.47733	6886
1.47800	6883
1.47867	6881
1.47933	6879
1.48000	6877
1.48067	6875
1.48133	6872
1.48200	6870
1.48267	6868
1.48333	6866
1.48400	6864
1.48467	6862
1.48533	6860
1.48600	6857
1.48667	6855
1.48733	6853
1.48800	6851
1.48867	6849
1.48933	6847
1.49000	6844
1.49067	6842
1.49133	6840
1.49200	6838
1.49267	6836
1.49333	6834
1.49400	6831
1.49467	6829
1.49533	6827
1.49600	6825
1.49667	6822
1.49733	6820
1.49800	6818
1.49867	6815
1.49933	6813
1.50000	6810
1.50067	6808
1.50133	6805
1.50200	6803
1.50267	6800
1.50333	6798
1.50400	6795
1.50467	6792
1.50533	6790
1.50600	6787
1.50667	6785
1.50733	6782
1.50800	6780
1.50867	6777
1.50933	6775
1.51000	6772
1.51067	6770
1.51133	6767
1.51200	6765
1.51267	6762
1.51333	6760
1.51400	6757
1.51467	6755
1.51533	6752
1.51600	6750
1.51667	6747
1.51733	6745
1.51800	6742
1.51867	6740
1.51933	6738
1.52000	6735
1.52067	6733
1.52133	6731
1.52200	6729
1.52267	6727
1.52333	6724
1.52400	6722
1.52467	6720
1.52533	6718
1.52600	6716
1.52667	6714
1.52733	6712
1.52800	6710
1.52867	6709
1.52933	6707
1.53000	6705
1.53067	6703
1.53133	6701
1.53200	6699
1.53267	6698
1.53333	6696
1.53400	6694
1.53467	6692
1.53533	6690
1.53600	6689
1.53667	6687
1.53733	6685
1.53800	6683
1.53867	6681
1.53933	6680
1.54000	6678
1.54067	6676
1.54133	6674
1.54200	6673
1.54267	6671
1.54333	6669
1.54400	6667
1.54467	6666
1.54533	6664
1.54600	6662
1.54667	6660
1.54733	6659
1.54800	6657
1.54867	6655
1.54933	6654
1.55000	6652
1.55067	6650
1.55133	6648
1.55200	6647
1.55267	6645
1.55333	6643
1.55400	6641
1.55467	6639
1.55533	6637
1.55600	6636
1.55667	6634
1.55733	6632
1.55800	6630
1.55867	6628
1.55933	6627
1.56000	6625
1.56067	6623
1.56133	6622
1.56200	6620
1.56267	6618
1.56333	6617
1.56400	6615
1.56467	6613
1.56533	6612
1.56600	6610
1.56667	6609
1.56733	6607
1.56800	6605
1.56867	6604
1.56933	6602
1.57000	6601
1.57067	6600
1.57133	6598
1.57200	6597
1.57267	6595
1.57333	6594
1.57400	6592
1.57467	6591
1.57533	6590
1.57600	6588
1.57667	6587
1.57733	6586
1.57800	6584
1.57867	6583
1.57933	6582
1.58000	6581
1.58067	6579
1.58133	6578
1.58200	6577
1.58267	6576
1.58333	6575
1.58400	6573
1.58467	6572
1.58533	6571
1.58600	6570
1.58667	6569
1.58733	6568
1.58800	6567
1.58867	6566
1.58933	6565
1.59000	6564
1.59067	6563
1.59133	6562
1.59200	6561
1.59267	6560
1.59333	6559
1.59400	6557
1.59467	6556
1.59533	6555
1.59600	6554
1.59667	6553
1.59733	6552
1.59800	6551
1.59867	6550
1.59933	6549
1.60000	6548
1.60067	6547
1.60133	6545
1.60200	6544
1.60267	6543
1.60333	6542
1.60400	6541
1.60467	6540
1.60533	6539
1.60600	6537
1.60667	6536
1.60733	6535
1.60800	6534
1.60867	6533
1.60933	6531
1.61000	6530
1.61067	6529
1.61133	6528
1.61200	6527
1.61267	6527
1.61333	6526
1.61400	6525
1.61467	6524
1.61533	6523
1.61600	6522
1.61667	6522
1.61733	6521
1.61800	6520
1.61867	6519
1.61933	6518
1.62000	6518
1.62067	6517
1.62133	6516
1.62200	6515
1.62267	6515
1.62333	6514
1.62400	6513
1.62467	6512
1.62533	6511
1.62600	6510
1.62667	6509
1.62733	6508
1.62800	6507
1.62867	6507
1.62933	6506
1.63000	6505
1.63067	6504
1.63133	6503
1.63200	6502
1.63267	6501
1.63333	6500
1.63400	6498
1.63467	6497
1.63533	6496
1.63600	6495
1.63667	6495
1.63733	6494
1.63800	6493
1.63867	6492
1.63933	6491
1.64000	6490
1.64067	6490
1.64133	6489
1.64200	6489
1.64267	6488
1.64333	6487
1.64400	6487
1.64467	6487
1.64533	6486
1.64600	6486
1.64667	6486
1.64733	6486
1.64800	6486
1.64867	6486
1.64933	6486
1.65000	6486
1.65067	6486
1.65133	6486
1.65200	6486
1.65267	6486
1.65333	6487
1.65400	6487
1.65467	6487
1.65533	6487
1.65600	6488
1.65667	6488
1.65733	6488
1.65800	6488
1.65867	6488
1.65933	6488
1.66000	6488
1.66067	6488
1.66133	6488
1.66200	6488
1.66267	6488
1.66333	6488
1.66400	6488
1.66467	6488
1.66533	6488
1.66600	6488
1.66667	6487
1.66733	6487
1.66800	6487
1.66867	6486
1.66933	6486
1.67000	6486
1.67067	6485
1.67133	6485
1.67200	6485
1.67267	6484
1.67333	6484
1.67400	6483
1.67467	6483
1.67533	6483
1.67600	6482
1.67667	6482
1.67733	6481
1.67800	6481
1.67867	6480
1.67933	6479
1.68000	6479
1.68067	6478
1.68133	6478
1.68200	6477
1.68267	6476
1.68333	6476
1.68400	6475
1.68467	6474
1.68533	6474
1.68600	6473
1.68667	6472
1.68733	6471
1.68800	6471
1.68867	6470
1.68933	6469
1.69000	6468
1.69067	6468
1.69133	6467
1.69200	6466
1.69267	6465
1.69333	6464
1.69400	6463
1.69467	6462
1.69533	6461
1.69600	6460
1.69667	6459
1.69733	6457
1.69800	6456
1.69867	6455
1.69933	6454
1.70000	6452
1.70067	6451
1.70133	6450
1.70200	6448
1.70267	6447
1.70333	6446
1.70400	6444
1.70467	6443
1.70533	6441
1.70600	6440
1.70667	6438
1.70733	6437
1.70800	6435
1.70867	6433
1.70933	6432
1.71000	6430
1.71067	6429
1.71133	6427
1.71200	6426
1.71267	6424
1.71333	6423
1.71400	6422
1.71467	6421
1.71533	6420
1.71600	6420
1.71667	6420
1.71733	6420
1.71800	6421
1.71867	6422
1.71933	6425
1.72000	6428
1.72067	6433
1.72133	6439
1.72200	6447
1.72267	6457
1.72333	6470
1.72400	6486
1.72467	6506
1.72533	6530
1.72600	6560
1.72667	6597
1.72733	6641
1.72800	6695
1.72867	6759
1.72933	6837
1.73000	6929
1.73067	7038
1.73133	7167
1.73200	7319
1.73267	7497
1.73333	7704
1.73400	7944
1.73467	8222
1.73533	8542
1.73600	8910
1.73667	9330
1.73733	9810
1.73800	10356
1.73867	10974
1.73933	11672
1.74000	12458
1.74067	13341
1.74133	14328
1.74200	15428
1.74267	16651
1.74333	18004
1.74400	19498
1.74467	21140
1.74533	22939
1.74600	24903
1.74667	27041
1.74733	29360
1.74800	31867
1.74867	34568
1.74933	37472
1.75000	40582
1.75067	43902
1.75133	47435
1.75200	51180
1.75267	55137
1.75333	59304
1.75400	63678
1.75467	68255
1.75533	73029
1.75600	77997
1.75667	83152
1.75733	88484
1.75800	93981
1.75867	99627
1.75933	105405
1.76000	111294
1.76067	117274
1.76133	123322
1.76200	129414
1.76267	135527
1.76333	141636
1.76400	147718
1.76467	153745
1.76533	159692
1.76600	165531
1.76667	171239
1.76733	176792
1.76800	182167
1.76867	187347
1.76933	192314
1.77000	197051
1.77067	201545
1.77133	205780
1.77200	209745
1.77267	213430
1.77333	216827
1.77400	219928
1.77467	222731
1.77533	225230
1.77600	227426
1.77667	229319
1.77733	230911
1.77800	232208
1.77867	233215
1.77933	233938
1.78000	234386
1.78067	234568
1.78133	234493
1.78200	234173
1.78267	233617
1.78333	232838
1.78400	231846
1.78467	230653
1.78533	229272
1.78600	227714
1.78667	225990
1.78733	224113
1.78800	222093
1.78867	219941
1.78933	217667
1.79000	215283
1.79067	212798
1.79133	210222
1.79200	207563
1.79267	204830
1.79333	202032
1.79400	199177
1.79467	196271
1.79533	193322
1.79600	190337
1.79667	187322
1.79733	184282
1.79800	181225
1.79867	178153
1.79933	175074
1.80000	171991
1.80067	168908
1.80133	165829
1.80200	162759
1.80267	159700
1.80333	156656
1.80400	153629
1.80467	150623
1.80533	147639
1.80600	144681
1.80667	141749
1.80733	138847
1.80800	135975
1.80867	133135
1.80933	130330
1.81000	127559
1.81067	124824
1.81133	122127
1.81200	119467
1.81267	116847
1.81333	114266
1.81400	111725
1.81467	109224
1.81533	106765
1.81600	104347
1.81667	101971
1.81733	99636
1.81800	97343
1.81867	95092
1.81933	92883
1.82000	90715
1.82067	88590
1.82133	86506
1.82200	84463
1.82267	82461
1.82333	80501
1.82400	78581
1.82467	76701
1.82533	74861
1.82600	73060
1.82667	71299
1.82733	69576
1.82800	67891
1.82867	66244
1.82933	64634
1.83000	63061
1.83067	61524
1.83133	60023
1.83200	58557
1.83267	57126
1.83333	55728
1.83400	54364
1.83467	53033
1.83533	51735
1.83600	50468
1.83667	49232
1.83733	48027
1.83800	46852
1.83867	45707
1.83933	44590
1.84000	43502
1.84067	42442
1.84133	41409
1.84200	40403
1.84267	39422
1.84333	38468
1.84400	37539
1.84467	36634
1.84533	35753
1.84600	34895
1.84667	34060
1.84733	33248
1.84800	32458
1.84867	31688
1.84933	30940
1.85000	30212
1.85067	29504
1.85133	28816
1.85200	28146
1.85267	27495
1.85333	26862
1.85400	26246
1.85467	25648
1.85533	25066
1.85600	24500
1.85667	23950
1.85733	23416
1.85800	22897
1.85867	22392
1.85933	21902
1.86000	21425
1.86067	20962
1.86133	20513
1.86200	20076
1.86267	19651
1.86333	19239
1.86400	18839
1.86467	18450
1.86533	18072
1.86600	17705
1.86667	17348
1.86733	17002
1.86800	16666
1.86867	16340
1.86933	16023
1.87000	15716
1.87067	15417
1.87133	15127
1.87200	14845
1.87267	14572
1.87333	14307
1.87400	14049
1.87467	13799
1.87533	13557
1.87600	13321
1.87667	13093
1.87733	12871
1.87800	12655
1.87867	12446
1.87933	12244
1.88000	12047
1.88067	11856
1.88133	11671
1.88200	11491
1.88267	11316
1.88333	11147
1.88400	10983
1.88467	10823
1.88533	10668
1.88600	10518
1.88667	10373
1.88733	10232
1.88800	10095
1.88867	9962
1.88933	9833
1.89000	9707
1.89067	9586
1.89133	9468
1.89200	9354
1.89267	9243
1.89333	9135
1.89400	9031
1.89467	8930
1.89533	8831
1.89600	8736
1.89667	8644
1.89733	8554
1.89800	8467
1.89867	8382
1.89933	8301
1.90000	8221
1.90067	8144
1.90133	8069
1.90200	7997
1.90267	7926
1.90333	7858
1.90400	7791
1.90467	7727
1.90533	7665
1.90600	7604
1.90667	7545
1.90733	7488
1.90800	7433
1.90867	7379
1.90933	7327
1.91000	7276
1.91067	7227
1.91133	7179
1.91200	7133
1.91267	7088
1.91333	7044
1.91400	7001
1.91467	6960
1.91533	6920
1.91600	6880
1.91667	6842
1.91733	6805
1.91800	6769
1.91867	6734
1.91933	6700
1.92000	6666
1.92067	6634
1.92133	6602
1.92200	6571
1.92267	6541
1.92333	6511
1.92400	6483
1.92467	6455
1.92533	6428
1.92600	6401
1.92667	6375
1.92733	6350
1.92800	6325
1.92867	6301
1.92933	6278
1.93000	6255
1.93067	6233
1.93133	6212
1.93200	6191
1.93267	6170
1.93333	6151
1.93400	6131
1.93467	6112
1.93533	6094
1.93600	6076
1.93667	6059
1.93733	6042
1.93800	6025
1.93867	6009
1.93933	5993
1.94000	5978
1.94067	5963
1.94133	5949
1.94200	5935
1.94267	5921
1.94333	5908
1.94400	5895
1.94467	5882
1.94533	5870
1.94600	5858
1.94667	5846
1.94733	5835
1.94800	5824
1.94867	5813
1.94933	5803
1.95000	5792
1.95067	5782
1.95133	5773
1.95200	5763
1.95267	5754
1.95333	5744
1.95400	5735
1.95467	5727
1.95533	5718
1.95600	5710
1.95667	5702
1.95733	5694
1.95800	5686
1.95867	5679
1.95933	5671
1.96000	5664
1.96067	5657
1.96133	5650
1.96200	5643
1.96267	5637
1.96333	5631
1.96400	5624
1.96467	5618
1.96533	5612
1.96600	5606
1.96667	5601
1.96733	5595
1.96800	5589
1.96867	5584
1.96933	5579
1.97000	5573
1.97067	5568
1.97133	5563
1.97200	5558
1.97267	5553
1.97333	5548
1.97400	5544
1.97467	5539
1.97533	5535
1.97600	5530
1.97667	5526
1.97733	5521
1.97800	5517
1.97867	5513
1.97933	5509
1.98000	5504
1.98067	5500
1.98133	5496
1.98200	5492
1.98267	5488
1.98333	5485
1.98400	5481
1.98467	5477
1.98533	5473
1.98600	5470
1.98667	5466
1.98733	5462
1.98800	5459
1.98867	5456
1.98933	5452
1.99000	5449
1.99067	5446
1.99133	5443
1.99200	5440
1.99267	5437
1.99333	5434
1.99400	5431
1.99467	5428
1.99533	5425
1.99600	5422
1.99667	5419
1.99733	5417
1.99800	5414
1.99867	5412
1.99933	5409
2.00000	5406
2.00067	5404
2.00133	5401
2.00200	5399
2.00267	5397
2.00333	5394
2.00400	5392
2.00467	5389
2.00533	5387
2.00600	5384
2.00667	5382
2.00733	5380
2.00800	5377
2.00867	5375
2.00933	5372
2.01000	5370
2.01067	5367
2.01133	5365
2.01200	5362
2.01267	5360
2.01333	5357
2.01400	5355
2.01467	5352
2.01533	5350
2.01600	5347
2.01667	5345
2.01733	5342
2.01800	5339
2.01867	5337
2.01933	5334
2.02000	5332
2.02067	5329
2.02133	5326
2.02200	5324
2.02267	5321
2.02333	5318
2.02400	5316
2.02467	5313
2.02533	5311
2.02600	5308
2.02667	5305
2.02733	5303
2.02800	5300
2.02867	5298
2.02933	5295
2.03000	5293
2.03067	5290
2.03133	5288
2.03200	5285
2.03267	5283
2.03333	5280
2.03400	5278
2.03467	5276
2.03533	5273
2.03600	5271
2.03667	5269
2.03733	5266
2.03800	5264
2.03867	5262
2.03933	5260
2.04000	5257
2.04067	5255
2.04133	5253
2.04200	5251
2.04267	5249
2.04333	5246
2.04400	5244
2.04467	5242
2.04533	5240
2.04600	5238
2.04667	5236
2.04733	5234
2.04800	5232
2.04867	5230
2.04933	5228
2.05000	5226
2.05067	5225
2.05133	5223
2.05200	5221
2.05267	5219
2.05333	5217
2.05400	5216
2.05467	5214
2.05533	5212
2.05600	5211
2.05667	5209
2.05733	5207
2.05800	5205
2.05867	5204
2.05933	5202
2.06000	5200
2.06067	5199
2.06133	5197
2.06200	5195
2.06267	5194
2.06333	5192
2.06400	5190
2.06467	5189
2.06533	5187
2.06600	5185
2.06667	5184
2.06733	5182
2.06800	5181
2.06867	5179
2.06933	5177
2.07000	5176
2.07067	5174
2.07133	5172
2.07200	5171
2.07267	5169
2.07333	5168
2.07400	5166
2.07467	5164
2.07533	5163
2.07600	5161
2.07667	5160
2.07733	5158
2.07800	5157
2.07867	5155
2.07933	5153
2.08000	5152
2.08067	5150
2.08133	5148
2.08200	5147
2.08267	5145
2.08333	5144
2.08400	5142
2.08467	5140
2.08533	5139
2.08600	5137
2.08667	5136
2.08733	5134
2.08800	5133
2.08867	5131
2.08933	5130
2.09000	5128
2.09067	5127
2.09133	5125
2.09200	5124
2.09267	5122
2.09333	5121
2.09400	5119
2.09467	5117
2.09533	5116
2.09600	5114
2.09667	5113
2.09733	5111
2.09800	5109
2.09867	5108
2.09933	5106
2.10000	5105
2.10067	5103
2.10133	5101
2.10200	5100
2.10267	5098
2.10333	5097
2.10400	5095
2.10467	5094
2.10533	5092
2.10600	5091
2.10667	5089
2.10733	5088
2.10800	5086
2.10867	5085
2.10933	5083
2.11000	5082
2.11067	5081
2.11133	5079
2.11200	5078
2.11267	5076
2.11333	5075
2.11400	5073
2.11467	5072
2.11533	5070
2.11600	5069
2.11667	5067
2.11733	5066
2.11800	5065
2.11867	5063
2.11933	5062
2.12000	5061
2.12067	5059
2.12133	5058
2.12200	5057
2.12267	5056
2.12333	5054
2.12400	5053
2.12467	5052
2.12533	5051
2.12600	5049
2.12667	5048
2.12733	5047
2.12800	5045
2.12867	5044
2.12933	5042
2.13000	5041
2.13067	5040
2.13133	5038
2.13200	5037
2.13267	5035
2.13333	5034
2.13400	5032
2.13467	5031
2.13533	5029
2.13600	5028
2.13667	5026
2.13733	5025
2.13800	5023
2.13867	5022
2.13933	5020
2.14000	5019
2.14067	5017
2.14133	5016
2.14200	5015
2.14267	5013
2.14333	5012
2.14400	5010
2.14467	5009
2.14533	5007
2.14600	5006
2.14667	5004
2.14733	5003
2.14800	5001
2.14867	5000
2.14933	4998
2.15000	4997
2.15067	4996
2.15133	4994
2.15200	4993
2.15267	4991
2.15333	4990
2.15400	4988
2.15467	4987
2.15533	4985
2.15600	4984
2.15667	4983
2.15733	4981
2.15800	4980
2.15867	4979
2.15933	4977
2.16000	4976
2.16067	4974
2.16133	4973
2.16200	4972
2.16267	4970
2.16333	4969
2.16400	4967
2.16467	4966
2.16533	4965
2.16600	4963
2.16667	4962
2.16733	4960
2.16800	4959
2.16867	4958
2.16933	4956
2.17000	4955
2.17067	4954
2.17133	4953
2.17200	4951
2.17267	4950
2.17333	4949
2.17400	4948
2.17467	4946
2.17533	4945
2.17600	4944
2.17667	4943
2.17733	4941
2.17800	4940
2.17867	4939
2.17933	4938
2.18000	4936
2.18067	4935
2.18133	4934
2.18200	4933
2.18267	4931
2.18333	4930
2.18400	4929
2.18467	4928
2.18533	4927
2.18600	4926
2.18667	4924
2.18733	4923
2.18800	4922
2.18867	4921
2.18933	4920
2.19000	4918
2.19067	4917
2.19133	4916
2.19200	4915
2.19267	4913
2.19333	4912
2.19400	4911
2.19467	4910
2.19533	4909
2.19600	4907
2.19667	4906
2.19733	4905
2.19800	4904
2.19867	4903
2.19933	4902
2.20000	4901
2.20067	4900
2.20133	4899
2.20200	4898
2.20267	4897
2.20333	4896
2.20400	4896
2.20467	4895
2.20533	4894
2.20600	4893
2.20667	4893
2.20733	4892
2.20800	4892
2.20867	4892
2.20933	4891
2.21000	4891
2.21067	4891
2.21133	4891
2.21200	4891
2.21267	4891
2.21333	4891
2.21400	4891
2.21467	4892
2.21533	4892
2.21600	4892
2.21667	4893
2.21733	4893
2.21800	4894
2.21867	4894
2.21933	4895
2.22000	4896
2.22067	4896
2.22133	4897
2.22200	4897
2.22267	4898
2.22333	4899
2.22400	4899
2.22467	4900
2.22533	4901
2.22600	4901
2.22667	4902
2.22733	4902
2.22800	4903
2.22867	4903
2.22933	4904
2.23000	4904
2.23067	4904
2.23133	4904
2.23200	4905
2.23267	4905
2.23333	4905
2.23400	4905
2.23467	4905
2.23533	4905
2.23600	4905
2.23667	4905
2.23733	4904
2.23800	4904
2.23867	4904
2.23933	4903
2.24000	4903
2.24067	4903
2.24133	4902
2.24200	4902
2.24267	4902
2.24333	4901
2.24400	4901
2.24467	4900
2.24533	4900
2.24600	4899
2.24667	4899
2.24733	4898
2.24800	4898
2.24867	4897
2.24933	4897
2.25000	4896
2.25067	4895
2.25133	4895
2.25200	4894
2.25267	4893
2.25333	4893
2.25400	4892
2.25467	4892
2.25533	4891
2.25600	4890
2.25667	4890
2.25733	4889
2.25800	4889
2.25867	4888
2.25933	4888
2.26000	4887
2.26067	4886
2.26133	4886
2.26200	4885
2.26267	4884
2.26333	4884
2.26400	4883
2.26467	4882
2.26533	4881
2.26600	4881
2.26667	4880
2.26733	4879
2.26800	4878
2.26867	4877
2.26933	4876
2.27000	4875
2.27067	4874
2.27133	4873
2.27200	4872
2.27267	4871
2.27333	4870
2.27400	4869
2.27467	4868
2.27533	4867
2.27600	4866
2.27667	4865
2.27733	4864
2.27800	4863
2.27867	4862
2.27933	4861
2.28000	4860
2.28067	4859
2.28133	4858
2.28200	4857
2.28267	4857
2.28333	4856
2.28400	4855
2.28467	4854
2.28533	4853
2.28600	4852
2.28667	4851
2.28733	4850
2.28800	4850
2.28867	4849
2.28933	4848
2.29000	4847
2.29067	4846
2.29133	4846
2.29200	4845
2.29267	4844
2.29333	4843
2.29400	4842
2.29467	4842
2.29533	4841
2.29600	4840
2.29667	4839
2.29733	4839
2.29800	4838
2.29867	4837
2.29933	4836
2.30000	4836
2.30067	4835
2.30133	4834
2.30200	4834
2.30267	4833
2.30333	4832
2.30400	4832
2.30467	4831
2.30533	4830
2.30600	4830
2.30667	4829
2.30733	4829
2.30800	4828
2.30867	4827
2.30933	4827
2.31000	4826
2.31067	4826
2.31133	4826
2.31200	4825
2.31267	4825
2.31333	4825
2.31400	4825
2.31467	4824
2.31533	4824
2.31600	4824
2.31667	4824
2.31733	4824
2.31800	4823
2.31867	4823
2.31933	4823
2.32000	4823
2.32067	4823
2.32133	4823
2.32200	4823
2.32267	4823
2.32333	4823
2.32400	4823
2.32467	4823
2.32533	4823
2.32600	4823
2.32667	4823
2.32733	4823
2.32800	4823
2.32867	4823
2.32933	4823
2.33000	4823
2.33067	4823
2.33133	4823
2.33200	4823
2.33267	4823
2.33333	4823
2.33400	4823
2.33467	4823
2.33533	4823
2.33600	4823
2.33667	4823
2.33733	4823
2.33800	4823
2.33867	4823
2.33933	4824
2.34000	4824
2.34067	4824
2.34133	4824
2.34200	4824
2.34267	4824
2.34333	4825
2.34400	4825
2.34467	4825
2.34533	4825
2.34600	4825
2.34667	4826
2.34733	4826
2.34800	4826
2.34867	4827
2.34933	4827
2.35000	4827
2.35067	4828
2.35133	4828
2.35200	4828
2.35267	4829
2.35333	4829
2.35400	4830
2.35467	4830
2.35533	4830
2.35600	4831
2.35667	4831
2.35733	4832
2.35800	4832
2.35867	4833
2.35933	4833
2.36000	4833
2.36067	4834
2.36133	4834
2.36200	4834
2.36267	4835
2.36333	4835
2.36400	4836
2.36467	4836
2.36533	4836
2.36600	4837
2.36667	4837
2.36733	4838
2.36800	4838
2.36867	4839
2.36933	4839
2.37000	4839
2.37067	4840
2.37133	4840
2.37200	4840
2.37267	4840
2.37333	4841
2.37400	4841
2.37467	4841
2.37533	4841
2.37600	4841
2.37667	4842
2.37733	4842
2.37800	4842
2.37867	4842
2.37933	4842
2.38000	4842
2.38067	4842
2.38133	4842
2.38200	4842
2.38267	4842
2.38333	4842
2.38400	4842
2.38467	4842
2.38533	4841
2.38600	4841
2.38667	4841
2.38733	4841
2.38800	4840
2.38867	4840
2.38933	4840
2.39000	4839
2.39067	4839
2.39133	4838
2.39200	4838
2.39267	4837
2.39333	4837
2.39400	4836
2.39467	4836
2.39533	4835
2.39600	4834
2.39667	4834
2.39733	4833
2.39800	4833
2.39867	4832
2.39933	4832
2.40000	4831
2.40067	4830
2.40133	4830
2.40200	4829
2.40267	4829
2.40333	4828
2.40400	4827
2.40467	4827
2.40533	4826
2.40600	4825
2.40667	4825
2.40733	4824
2.40800	4824
2.40867	4823
2.40933	4822
2.41000	4822
2.41067	4821
2.41133	4821
2.41200	4820
2.41267	4820
2.41333	4819
2.41400	4819
2.41467	4818
2.41533	4818
2.41600	4817
2.41667	4817
2.41733	4816
2.41800	4816
2.41867	4815
2.41933	4815
2.42000	4814
2.42067	4814
2.42133	4813
2.42200	4813
2.42267	4812
2.42333	4812
2.42400	4811
2.42467	4810
2.42533	4810
2.42600	4809
2.42667	4809
2.42733	4808
2.42800	4807
2.42867	4807
2.42933	4806
2.43000	4805
2.43067	4804
2.43133	4804
2.43200	4803
2.43267	4802
2.43333	4801
2.43400	4800
2.43467	4799
2.43533	4798
2.43600	4797
2.43667	4796
2.43733	4795
2.43800	4794
2.43867	4793
2.43933	4791
2.44000	4790
2.44067	4789
2.44133	4788
2.44200	4786
2.44267	4785
2.44333	4783
2.44400	4782
2.44467	4781
2.44533	4779
2.44600	4778
2.44667	4776
2.44733	4775
2.44800	4773
2.44867	4772
2.44933	4771
2.45000	4769
2.45067	4768
2.45133	4766
2.45200	4765
2.45267	4764
2.45333	4762
2.45400	4761
2.45467	4759
2.45533	4758
2.45600	4756
2.45667	4755
2.45733	4753
2.45800	4752
2.45867	4751
2.45933	4749
2.46000	4748
2.46067	4746
2.46133	4745
2.46200	4743
2.46267	4742
2.46333	4740
2.46400	4739
2.46467	4737
2.46533	4736
2.46600	4734
2.46667	4733
2.46733	4731
2.46800	4730
2.46867	4728
2.46933	4727
2.47000	4725
2.47067	4724
2.47133	4722
2.47200	4721
2.47267	4719
2.47333	4718
2.47400	4716
2.47467	4715
2.47533	4713
2.47600	4712
2.47667	4710
2.47733	4709
2.47800	4707
2.47867	4706
2.47933	4704
2.48000	4702
2.48067	4701
2.48133	4699
2.48200	4697
2.48267	4696
2.48333	4694
2.48400	4692
2.48467	4691
2.48533	4689
2.48600	4687
2.48667	4686
2.48733	4684
2.48800	4682
2.48867	4680
2.48933	4679
2.49000	4677
2.49067	4675
2.49133	4673
2.49200	4672
2.49267	4670
2.49333	4668
2.49400	4666
2.49467	4664
2.49533	4663
2.49600	4661
2.49667	4659
2.49733	4657
2.49800	4656
2.49867	4654
2.49933	4652
2.50000	4650
2.50067	4648
2.50133	4647
2.50200	4645
2.50267	4643
2.50333	4641
2.50400	4640
2.50467	4638
2.50533	4636
2.50600	4634
2.50667	4633
2.50733	4631
2.50800	4629
2.50867	4627
2.50933	4625
2.51000	4624
2.51067	4622
2.51133	4620
2.51200	4618
2.51267	4617
2.51333	4615
2.51400	4613
2.51467	4611
2.51533	4609
2.51600	4608
2.51667	4606
2.51733	4604
2.51800	4602
2.51867	4601
2.51933	4599
2.52000	4597
2.52067	4595
2.52133	4594
2.52200	4592
2.52267	4590
2.52333	4589
2.52400	4587
2.52467	4585
2.52533	4583
2.52600	4582
2.52667	4580
2.52733	4578
2.52800	4576
2.52867	4575
2.52933	4573
2.53000	4572
2.53067	4570
2.53133	4568
2.53200	4567
2.53267	4565
2.53333	4564
2.53400	4562
2.53467	4561
2.53533	4560
2.53600	4558
2.53667	4557
2.53733	4555
2.53800	4554
2.53867	4552
2.53933	4551
2.54000	4549
2.54067	4548
2.54133	4546
2.54200	4545
2.54267	4543
2.54333	4542
2.54400	4540
2.54467	4539
2.54533	4537
2.54600	4536
2.54667	4534
2.54733	4533
2.54800	4531
2.54867	4530
2.54933	4528
2.55000	4527
2.55067	4526
2.55133	4524
2.55200	4523
2.55267	4521
2.55333	4520
2.55400	4518
2.55467	4517
2.55533	4515
2.55600	4514
2.55667	4512
2.55733	4511
2.55800	4510
2.55867	4508
2.55933	4507
2.56000	4505
2.56067	4504
2.56133	4502
2.56200	4501
2.56267	4499
2.56333	4498
2.56400	4497
2.56467	4495
2.56533	4494
2.56600	4492
2.56667	4491
2.56733	4490
2.56800	4488
2.56867	4487
2.56933	4486
2.57000	4485
2.57067	4483
2.57133	4482
2.57200	4481
2.57267	4480
2.57333	4479
2.57400	4478
2.57467	4477
2.57533	4475
2.57600	4474
2.57667	4473
2.57733	4472
2.57800	4471
2.57867	4470
2.57933	4469
2.58000	4467
2.58067	4466
2.58133	4465
2.58200	4464
2.58267	4463
2.58333	4462
2.58400	4461
2.58467	4460
2.58533	4459
2.58600	4458
2.58667	4457
2.58733	4456
2.58800	4456
2.58867	4455
2.58933	4454
2.59000	4453
2.59067	4452
2.59133	4452
2.59200	4451
2.59267	4450
2.59333	4449
2.59400	4448
2.59467	4447
2.59533	4447
2.59600	4446
2.59667	4445
2.59733	4444
2.59800	4443
2.59867	4443
2.59933	4442
2.60000	4441
2.60067	4440
2.60133	4440
2.60200	4439
2.60267	4438
2.60333	4437
2.60400	4437
2.60467	4436
2.60533	4435
2.60600	4435
2.60667	4434
2.60733	4433
2.60800	4433
2.60867	4432
2.60933	4431
2.61000	4431
2.61067	4430
2.61133	4429
2.61200	4429
2.61267	4428
2.61333	4427
2.61400	4427
2.61467	4426
2.61533	4425
2.61600	4425
2.61667	4424
2.61733	4423
2.61800	4422
2.61867	4422
2.61933	4421
2.62000	4420
2.62067	4419
2.62133	4419
2.62200	4418
2.62267	4417
2.62333	4416
2.62400	4415
2.62467	4415
2.62533	4414
2.62600	4413
2.62667	4412
2.62733	4411
2.62800	4410
2.62867	4409
2.62933	4409
2.63000	4408
2.63067	4407
2.63133	4406
2.63200	4405
2.63267	4405
2.63333	4404
2.63400	4403
2.63467	4402
2.63533	4401
2.63600	4400
2.63667	4399
2.63733	4399
2.63800	4398
2.63867	4397
2.63933	4396
2.64000	4395
2.64067	4394
2.64133	4393
2.64200	4392
2.64267	4391
2.64333	4390
2.64400	4389
2.64467	4388
2.64533	4387
2.64600	4386
2.64667	4385
2.64733	4384
2.64800	4383
2.64867	4382
2.64933	4381
2.65000	4380
2.65067	4379
2.65133	4378
2.65200	4377
2.65267	4376
2.65333	4375
2.65400	4374
2.65467	4373
2.65533	4371
2.65600	4370
2.65667	4369
2.65733	4368
2.65800	4367
2.65867	4365
2.65933	4364
2.66000	4363
2.66067	4362
2.66133	4360
2.66200	4359
2.66267	4358
2.66333	4357
2.66400	4356
2.66467	4354
2.66533	4353
2.66600	4352
2.66667	4351
2.66733	4350
2.66800	4348
2.66867	4347
2.66933	4346
2.67000	4345
2.67067	4344
2.67133	4343
2.67200	4341
2.67267	4340
2.67333	4339
2.67400	4338
2.67467	4337
2.67533	4336
2.67600	4335
2.67667	4334
2.67733	4332
2.67800	4331
2.67867	4330
2.67933	4329
2.68000	4327
2.68067	4326
2.68133	4325
2.68200	4323
2.68267	4322
2.68333	4320
2.68400	4319
2.68467	4318
2.68533	4316
2.68600	4315
2.68667	4313
2.68733	4312
2.68800	4310
2.68867	4309
2.68933	4307
2.69000	4306
2.69067	4304
2.69133	4303
2.69200	4301
2.69267	4300
2.69333	4298
2.69400	4296
2.69467	4295
2.69533	4293
2.69600	4292
2.69667	4290
2.69733	4289
2.69800	4288
2.69867	4286
2.69933	4285
2.70000	4284
2.70067	4282
2.70133	4281
2.70200	4280
2.70267	4278
2.70333	4277
2.70400	4276
2.70467	4275
2.70533	4274
2.70600	4273
2.70667	4272
2.70733	4271
2.70800	4270
2.70867	4269
2.70933	4268
2.71000	4267
2.71067	4266
2.71133	4265
2.71200	4264
2.71267	4263
2.71333	4262
2.71400	4262
2.71467	4261
2.71533	4260
2.71600	4259
2.71667	4258
2.71733	4257
2.71800	4256
2.71867	4255
2.71933	4254
2.72000	4254
2.72067	4253
2.72133	4252
2.72200	4251
2.72267	4250
2.72333	4249
2.72400	4249
2.72467	4248
2.72533	4247
2.72600	4246
2.72667	4246
2.72733	4245
2.72800	4244
2.72867	4244
2.72933	4243
2.73000	4243
2.73067	4242
2.73133	4241
2.73200	4241
2.73267	4240
2.73333	4240
2.73400	4239
2.73467	4239
2.73533	4238
2.73600	4238
2.73667	4238
2.73733	4237
2.73800	4237
2.73867	4237
2.73933	4236
2.74000	4236
2.74067	4236
2.74133	4235
2.74200	4235
2.74267	4235
2.74333	4235
2.74400	4235
2.74467	4234
2.74533	4234
2.74600	4234
2.74667	4234
2.74733	4234
2.74800	4234
2.74867	4234
2.74933	4234
2.75000	4234
2.75067	4234
2.75133	4234
2.75200	4234
2.75267	4234
2.75333	4234
2.75400	4235
2.75467	4235
2.75533	4235
2.75600	4235
2.75667	4236
2.75733	4236
2.75800	4236
2.75867	4237
2.75933	4237
2.76000	4238
2.76067	4238
2.76133	4239
2.76200	4239
2.76267	4240
2.76333	4241
2.76400	4241
2.76467	4242
2.76533	4243
2.76600	4243
2.76667	4244
2.76733	4245
2.76800	4246
2.76867	4246
2.76933	4247
2.77000	4248
2.77067	4249
2.77133	4250
2.77200	4250
2.77267	4251
2.77333	4252
2.77400	4253
2.77467	4254
2.77533	4255
2.77600	4257
2.77667	4258
2.77733	4259
2.77800	4260
2.77867	4261
2.77933	4263
2.78000	4264
2.78067	4265
2.78133	4267
2.78200	4269
2.78267	4270
2.78333	4272
2.78400	4274
2.78467	4275
2.78533	4277
2.78600	4279
2.78667	4281
2.78733	4283
2.78800	4286
2.78867	4288
2.78933	4290
2.79000	4293
2.79067	4295
2.79133	4298
2.79200	4300
2.79267	4303
2.79333	4306
2.79400	4309
2.79467	4312
2.79533	4315
2.79600	4318
2.79667	4321
2.79733	4325
2.79800	4328
2.79867	4332
2.79933	4335
2.80000	4339
2.80067	4343
2.80133	4346
2.80200	4350
2.80267	4354
2.80333	4358
2.80400	4362
2.80467	4366
2.80533	4370
2.80600	4374
2.80667	4379
2.80733	4383
2.80800	4387
2.80867	4391
2.80933	4396
2.81000	4400
2.81067	4404
2.81133	4409
2.81200	4413
2.81267	4417
2.81333	4422
2.81400	4426
2.81467	4430
2.81533	4434
2.81600	4438
2.81667	4442
2.81733	4446
2.81800	4450
2.81867	4453
2.81933	4457
2.82000	4460
2.82067	4464
2.82133	4467
2.82200	4470
2.82267	4473
2.82333	4476
2.82400	4478
2.82467	4481
2.82533	4483
2.82600	4486
2.82667	4488
2.82733	4490
2.82800	4492
2.82867	4493
2.82933	4495
2.83000	4496
2.83067	4498
2.83133	4499
2.83200	4499
2.83267	4500
2.83333	4501
2.83400	4501
2.83467	4501
2.83533	4501
2.83600	4501
2.83667	4501
2.83733	4500
2.83800	4500
2.83867	4499
2.83933	4498
2.84000	4497
2.84067	4496
2.84133	4494
2.84200	4493
2.84267	4491
2.84333	4490
2.84400	4488
2.84467	4486
2.84533	4484
2.84600	4482
2.84667	4480
2.84733	4478
2.84800	4475
2.84867	4473
2.84933	4471
2.85000	4468
2.85067	4465
2.85133	4463
2.85200	4460
2.85267	4458
2.85333	4455
2.85400	4452
2.85467	4449
2.85533	4447
2.85600	4444
2.85667	4441
2.85733	4438
2.85800	4435
2.85867	4432
2.85933	4429
2.86000	4427
2.86067	4424
2.86133	4421
2.86200	4418
2.86267	4415
2.86333	4412
2.86400	4410
2.86467	4407
2.86533	4404
2.86600	4401
2.86667	4399
2.86733	4396
2.86800	4393
2.86867	4391
2.86933	4388
2.87000	4386
2.87067	4384
2.87133	4382
2.87200	4380
2.87267	4378
2.87333	4376
2.87400	4374
2.87467	4373
2.87533	4371
2.87600	4370
2.87667	4369
2.87733	4367
2.87800	4366
2.87867	4365
2.87933	4364
2.88000	4363
2.88067	4363
2.88133	4362
2.88200	4361
2.88267	4361
2.88333	4361
2.88400	4360
2.88467	4360
2.88533	4360
2.88600	4361
2.88667	4361
2.88733	4361
2.88800	4362
2.88867	4362
2.88933	4363
2.89000	4364
2.89067	4365
2.89133	4366
2.89200	4367
2.89267	4369
2.89333	4370
2.89400	4372
2.89467	4373
2.89533	4375
2.89600	4377
2.89667	4378
2.89733	4380
2.89800	4382
2.89867	4384
2.89933	4386
2.90000	4388
2.90067	4391
2.90133	4393
2.90200	4395
2.90267	4397
2.90333	4399
2.90400	4401
2.90467	4403
2.90533	4405
2.90600	4407
2.90667	4408
2.90733	4410
2.90800	4412
2.90867	4413
2.90933	4415
2.91000	4416
2.91067	4417
2.91133	4418
2.91200	4419
2.91267	4420
2.91333	4420
2.91400	4420
2.91467	4421
2.91533	4421
2.91600	4421
2.91667	4420
2.91733	4420
2.91800	4419
2.91867	4418
2.91933	4417
2.92000	4416
2.92067	4414
2.92133	4413
2.92200	4411
2.92267	4409
2.92333	4407
2.92400	4405
2.92467	4402
2.92533	4400
2.92600	4397
2.92667	4394
2.92733	4391
2.92800	4388
2.92867	4385
2.92933	4381
2.93000	4378
2.93067	4374
2.93133	4370
2.93200	4366
2.93267	4361
2.93333	4357
2.93400	4353
2.93467	4348
2.93533	4344
2.93600	4339
2.93667	4334
2.93733	4329
2.93800	4324
2.93867	4320
2.93933	4315
2.94000	4309
2.94067	4304
2.94133	4299
2.94200	4294
2.94267	4289
2.94333	4283
2.94400	4278
2.94467	4273
2.94533	4267
2.94600	4262
2.94667	4256
2.94733	4251
2.94800	4245
2.94867	4240
2.94933	4234
2.95000	4229
2.95067	4224
2.95133	4218
2.95200	4213
2.95267	4208
2.95333	4202
2.95400	4197
2.95467	4192
2.95533	4187
2.95600	4182
2.95667	4177
2.95733	4172
2.95800	4167
2.95867	4162
2.95933	4157
2.96000	4152
2.96067	4148
2.96133	4143
2.96200	4139
2.96267	4134
2.96333	4130
2.96400	4125
2.96467	4121
2.96533	4117
2.96600	4113
2.96667	4108
2.96733	4104
2.96800	4100
2.96867	4096
2.96933	4092
2.97000	4088
2.97067	4085
2.97133	4081
2.97200	4077
2.97267	4074
2.97333	4070
2.97400	4067
2.97467	4063
2.97533	4060
2.97600	4056
2.97667	4053
2.97733	4050
2.97800	4047
2.97867	4043
2.97933	4040
2.98000	4037
2.98067	4034
2.98133	4031
2.98200	4028
2.98267	4026
2.98333	4023
2.98400	4020
2.98467	4017
2.98533	4014
2.98600	4012
2.98667	4009
2.98733	4006
2.98800	4003
2.98867	4001
2.98933	3998
2.99000	3996
2.99067	3993
2.99133	3991
2.99200	3988
2.99267	3986
2.99333	3984
2.99400	3981
2.99467	3979
2.99533	3977
2.99600	3974
2.99667	3972
2.99733	3970
2.99800	3968
2.99867	3965
2.99933	3963
3.00000	3961
3.00067	3959
3.00133	3956
3.00200	3954
3.00267	3952
3.00333	3950
3.00400	3948
3.00467	3946
3.00533	3943
3.00600	3941
3.00667	3939
3.00733	3937
3.00800	3935
3.00867	3933
3.00933	3931
3.01000	3929
3.01067	3928
3.01133	3926
3.01200	3924
3.01267	3922
3.01333	3920
3.01400	3918
3.01467	3917
3.01533	3915
3.01600	3913
3.01667	3911
3.01733	3910
3.01800	3908
3.01867	3906
3.01933	3905
3.02000	3903
3.02067	3901
3.02133	3899
3.02200	3898
3.02267	3896
3.02333	3894
3.02400	3893
3.02467	3891
3.02533	3889
3.02600	3888
3.02667	3886
3.02733	3884
3.02800	3883
3.02867	3881
3.02933	3879
3.03000	3878
3.03067	3876
3.03133	3875
3.03200	3873
3.03267	3872
3.03333	3870
3.03400	3869
3.03467	3867
3.03533	3866
3.03600	3864
3.03667	3863
3.03733	3862
3.03800	3860
3.03867	3859
3.03933	3858
3.04000	3856
3.04067	3855
3.04133	3854
3.04200	3852
3.04267	3851
3.04333	3850
3.04400	3849
3.04467	3848
3.04533	3847
3.04600	3845
3.04667	3844
3.04733	3843
3.04800	3842
3.04867	3841
3.04933	3840
3.05000	3839
3.05067	3838
3.05133	3837
3.05200	3836
3.05267	3836
3.05333	3835
3.05400	3834
3.05467	3833
3.05533	3832
3.05600	3831
3.05667	3830
3.05733	3830
3.05800	3829
3.05867	3828
3.05933	3827
3.06000	3827
3.06067	3826
3.06133	3826
3.06200	3825
3.06267	3825
3.06333	3824
3.06400	3824
3.06467	3823
3.06533	3823
3.06600	3823
3.06667	3822
3.06733	3822
3.06800	3822
3.06867	3821
3.06933	3821
3.07000	3821
3.07067	3821
3.07133	3820
3.07200	3820
3.07267	3820
3.07333	3820
3.07400	3820
3.07467	3819
3.07533	3819
3.07600	3819
3.07667	3819
3.07733	3818
3.07800	3818
3.07867	3818
3.07933	3818
3.08000	3817
3.08067	3817
3.08133	3817
3.08200	3817
3.08267	3816
3.08333	3816
3.08400	3816
3.08467	3815
3.08533	3815
3.08600	3815
3.08667	3814
3.08733	3814
3.08800	3814
3.08867	3814
3.08933	3813
3.09000	3813
3.09067	3813
3.09133	3812
3.09200	3812
3.09267	3812
3.09333	3811
3.09400	3811
3.09467	3811
3.09533	3811
3.09600	3810
3.09667	3810
3.09733	3810
3.09800	3809
3.09867	3809
3.09933	3809
3.10000	3808
3.10067	3808
3.10133	3807
3.10200	3807
3.10267	3806
3.10333	3806
3.10400	3805
3.10467	3804
3.10533	3804
3.10600	3803
3.10667	3802
3.10733	3802
3.10800	3801
3.10867	3800
3.10933	3799
3.11000	3799
3.11067	3798
3.11133	3797
3.11200	3796
3.11267	3795
3.11333	3795
3.11400	3794
3.11467	3793
3.11533	3792
3.11600	3791
3.11667	3790
3.11733	3790
3.11800	3789
3.11867	3788
3.11933	3787
3.12000	3786
3.12067	3786
3.12133	3785
3.12200	3784
3.12267	3783
3.12333	3782
3.12400	3781
3.12467	3780
3.12533	3779
3.12600	3779
3.12667	3778
3.12733	3777
3.12800	3776
3.12867	3775
3.12933	3774
3.13000	3773
3.13067	3772
3.13133	3772
3.13200	3771
3.13267	3770
3.13333	3769
3.13400	3768
3.13467	3767
3.13533	3767
3.13600	3766
3.13667	3765
3.13733	3764
3.13800	3764
3.13867	3763
3.13933	3762
3.14000	3761
3.14067	3761
3.14133	3760
3.14200	3759
3.14267	3759
3.14333	3758
3.14400	3757
3.14467	3757
3.14533	3756
3.14600	3755
3.14667	3755
3.14733	3754
3.14800	3754
3.14867	3753
3.14933	3752
3.15000	3752
3.15067	3751
3.15133	3751
3.15200	3750
3.15267	3749
3.15333	3749
3.15400	3748
3.15467	3747
3.15533	3747
3.15600	3746
3.15667	3745
3.15733	3745
3.15800	3744
3.15867	3743
3.15933	3743
3.16000	3742
3.16067	3741
3.16133	3741
3.16200	3740
3.16267	3739
3.16333	3739
3.16400	3738
3.16467	3737
3.16533	3737
3.16600	3736
3.16667	3735
3.16733	3735
3.16800	3734
3.16867	3733
3.16933	3733
3.17000	3732
3.17067	3732
3.17133	3731
3.17200	3730
3.17267	3730
3.17333	3729
3.17400	3729
3.17467	3728
3.17533	3728
3.17600	3727
3.17667	3726
3.17733	3726
3.17800	3725
3.17867	3725
3.17933	3724
3.18000	3723
3.18067	3723
3.18133	3722
3.18200	3721
3.18267	3721
3.18333	3720
3.18400	3720
3.18467	3719
3.18533	3718
3.18600	3718
3.18667	3717
3.18733	3716
3.18800	3716
3.18867	3715
3.18933	3714
3.19000	3714
3.19067	3713
3.19133	3713
3.19200	3712
3.19267	3711
3.19333	3711
3.19400	3710
3.19467	3710
3.19533	3709
3.19600	3709
3.19667	3708
3.19733	3708
3.19800	3707
3.19867	3707
3.19933	3706
3.20000	3706
3.20067	3705
3.20133	3705
3.20200	3705
3.20267	3704
3.20333	3704
3.20400	3704
3.20467	3703
3.20533	3703
3.20600	3702
3.20667	3702
3.20733	3702
3.20800	3701
3.20867	3701
3.20933	3701
3.21000	3700
3.21067	3700
3.21133	3699
3.21200	3699
3.21267	3699
3.21333	3698
3.21400	3698
3.21467	3698
3.21533	3697
3.21600	3697
3.21667	3697
3.21733	3696
3.21800	3696
3.21867	3696
3.21933	3695
3.22000	3695
3.22067	3695
3.22133	3695
3.22200	3694
3.22267	3694
3.22333	3694
3.22400	3694
3.22467	3694
3.22533	3693
3.22600	3693
3.22667	3693
3.22733	3693
3.22800	3693
3.22867	3693
3.22933	3693
3.23000	3692
3.23067	3692
3.23133	3692
3.23200	3692
3.23267	3692
3.23333	3692
3.23400	3692
3.23467	3692
3.23533	3692
3.23600	3692
3.23667	3692
3.23733	3691
3.23800	3691
3.23867	3691
3.23933	3691
3.24000	3691
3.24067	3691
3.24133	3691
3.24200	3690
3.24267	3690
3.24333	3690
3.24400	3690
3.24467	3690
3.24533	3690
3.24600	3689
3.24667	3689
3.24733	3689
3.24800	3689
3.24867	3689
3.24933	3689
3.25000	3689
3.25067	3688
3.25133	3688
3.25200	3688
3.25267	3688
3.25333	3688
3.25400	3687
3.25467	3687
3.25533	3687
3.25600	3687
3.25667	3686
3.25733	3686
3.25800	3686
3.25867	3686
3.25933	3685
3.26000	3685
3.26067	3685
3.26133	3685
3.26200	3685
3.26267	3684
3.26333	3684
3.26400	3684
3.26467	3684
3.26533	3684
3.26600	3684
3.26667	3684
3.26733	3684
3.26800	3684
3.26867	3684
3.26933	3684
3.27000	3684
3.27067	3684
3.27133	3684
3.27200	3684
3.27267	3684
3.27333	3684
3.27400	3684
3.27467	3684
3.27533	3684
3.27600	3684
3.27667	3684
3.27733	3684
3.27800	3684
3.27867	3684
3.27933	3684
3.28000	3684
3.28067	3684
3.28133	3684
3.28200	3684
3.28267	3684
3.28333	3684
3.28400	3684
3.28467	3684
3.28533	3684
3.28600	3684
3.28667	3684
3.28733	3684
3.28800	3684
3.28867	3684
3.28933	3684
3.29000	3684
3.29067	3684
3.29133	3684
3.29200	3684
3.29267	3684
3.29333	3684
3.29400	3684
3.29467	3683
3.29533	3683
3.29600	3683
3.29667	3683
3.29733	3683
3.29800	3683
3.29867	3683
3.29933	3683
3.30000	3682
3.30067	3682
3.30133	3682
3.30200	3682
3.30267	3682
3.30333	3681
3.30400	3681
3.30467	3681
3.30533	3681
3.30600	3680
3.30667	3680
3.30733	3680
3.30800	3679
3.30867	3679
3.30933	3679
3.31000	3679
3.31067	3678
3.31133	3678
3.31200	3678
3.31267	3677
3.31333	3677
3.31400	3676
3.31467	3676
3.31533	3676
3.31600	3675
3.31667	3675
3.31733	3675
3.31800	3674
3.31867	3674
3.31933	3673
3.32000	3673
3.32067	3673
3.32133	3672
3.32200	3672
3.32267	3672
3.32333	3671
3.32400	3671
3.32467	3671
3.32533	3670
3.32600	3670
3.32667	3670
3.32733	3669
3.32800	3669
3.32867	3669
3.32933	3668
3.33000	3668
3.33067	3667
3.33133	3667
3.33200	3667
3.33267	3666
3.33333	3666
3.33400	3665
3.33467	3665
3.33533	3664
3.33600	3664
3.33667	3664
3.33733	3663
3.33800	3663
3.33867	3662
3.33933	3662
3.34000	3661
3.34067	3661
3.34133	3660
3.34200	3660
3.34267	3659
3.34333	3659
3.34400	3658
3.34467	3658
3.34533	3657
3.34600	3657
3.34667	3656
3.34733	3656
3.34800	3655
3.34867	3655
3.34933	3655
3.35000	3654
3.35067	3654
3.35133	3653
3.35200	3653
3.35267	3652
3.35333	3652
3.35400	3651
3.35467	3651
3.35533	3651
3.35600	3650
3.35667	3650
3.35733	3649
3.35800	3649
3.35867	3649
3.35933	3649
3.36000	3649
3.36067	3648
3.36133	3648
3.36200	3648
3.36267	3648
3.36333	3648
3.36400	3648
3.36467	3648
3.36533	3648
3.36600	3648
3.36667	3648
3.36733	3648
3.36800	3648
3.36867	3647
3.36933	3648
3.37000	3648
3.37067	3648
3.37133	3648
3.37200	3648
3.37267	3648
3.37333	3648
3.37400	3648
3.37467	3648
3.37533	3649
3.37600	3649
3.37667	3649
3.37733	3649
3.37800	3649
3.37867	3649
3.37933	3650
3.38000	3650
3.38067	3650
3.38133	3651
3.38200	3651
3.38267	3651
3.38333	3652
3.38400	3652
3.38467	3653
3.38533	3653
3.38600	3654
3.38667	3654
3.38733	3655
3.38800	3655
3.38867	3656
3.38933	3656
3.39000	3657
3.39067	3657
3.39133	3658
3.39200	3658
3.39267	3659
3.39333	3659
3.39400	3660
3.39467	3660
3.39533	3661
3.39600	3662
3.39667	3662
3.39733	3663
3.39800	3664
3.39867	3664
3.39933	3665
3.40000	3666
3.40067	3667
3.40133	3667
3.40200	3668
3.40267	3669
3.40333	3670
3.40400	3670
3.40467	3671
3.40533	3672
3.40600	3672
3.40667	3673
3.40733	3674
3.40800	3674
3.40867	3675
3.40933	3676
3.41000	3676
3.41067	3677
3.41133	3678
3.41200	3679
3.41267	3679
3.41333	3680
3.41400	3681
3.41467	3681
3.41533	3682
3.41600	3683
3.41667	3684
3.41733	3684
3.41800	3685
3.41867	3686
3.41933	3686
3.42000	3687
3.42067	3688
3.42133	3689
3.42200	3689
3.42267	3690
3.42333	3691
3.42400	3692
3.42467	3693
3.42533	3694
3.42600	3695
3.42667	3696
3.42733	3697
3.42800	3698
3.42867	3699
3.42933	3700
3.43000	3701
3.43067	3702
3.43133	3704
3.43200	3705
3.43267	3706
3.43333	3707
3.43400	3709
3.43467	3710
3.43533	3711
3.43600	3713
3.43667	3714
3.43733	3716
3.43800	3717
3.43867	3719
3.43933	3720
3.44000	3722
3.44067	3723
3.44133	3725
3.44200	3727
3.44267	3728
3.44333	3730
3.44400	3732
3.44467	3734
3.44533	3736
3.44600	3738
3.44667	3740
3.44733	3742
3.44800	3744
3.44867	3746
3.44933	3748
3.45000	3751
3.45067	3753
3.45133	3755
3.45200	3758
3.45267	3760
3.45333	3762
3.45400	3765
3.45467	3767
3.45533	3770
3.45600	3773
3.45667	3775
3.45733	3778
3.45800	3781
3.45867	3784
3.45933	3786
3.46000	3789
3.46067	3792
3.46133	3795
3.46200	3798
3.46267	3802
3.46333	3805
3.46400	3808
3.46467	3811
3.46533	3814
3.46600	3818
3.46667	3821
3.46733	3824
3.46800	3828
3.46867	3831
3.46933	3835
3.47000	3838
3.47067	3842
3.47133	3845
3.47200	3849
3.47267	3853
3.47333	3856
3.47400	3860
3.47467	3864
3.47533	3868
3.47600	3871
3.47667	3875
3.47733	3879
3.47800	3883
3.47867	3887
3.47933	3891
3.48000	3895
3.48067	3899
3.48133	3903
3.48200	3907
3.48267	3912
3.48333	3916
3.48400	3920
3.48467	3924
3.48533	3929
3.48600	3933
3.48667	3938
3.48733	3942
3.48800	3947
3.48867	3952
3.48933	3957
3.49000	3962
3.49067	3967
3.49133	3972
3.49200	3977
3.49267	3982
3.49333	3988
3.49400	3994
3.49467	4000
3.49533	4006
3.49600	4012
3.49667	4018
3.49733	4025
3.49800	4031
3.49867	4038
3.49933	4046
3.50000	4053
3.50067	4061
3.50133	4068
3.50200	4077
3.50267	4085
3.50333	4094
3.50400	4103
3.50467	4112
3.50533	4122
3.50600	4132
3.50667	4142
3.50733	4153
3.50800	4164
3.50867	4175
3.50933	4187
3.51000	4199
3.51067	4212
3.51133	4225
3.51200	4239
3.51267	4253
3.51333	4267
3.51400	4283
3.51467	4298
3.51533	4314
3.51600	4331
3.51667	4348
3.51733	4366
3.51800	4385
3.51867	4404
3.51933	4423
3.52000	4444
3.52067	4464
3.52133	4486
3.52200	4508
3.52267	4531
3.52333	4554
3.52400	4578
3.52467	4603
3.52533	4628
3.52600	4654
3.52667	4680
3.52733	4707
3.52800	4735
3.52867	4763
3.52933	4792
3.53000	4821
3.53067	4851
3.53133	4881
3.53200	4912
3.53267	4944
3.53333	4976
3.53400	5009
3.53467	5042
3.53533	5075
3.53600	5109
3.53667	5143
3.53733	5178
3.53800	5213
3.53867	5248
3.53933	5283
3.54000	5319
3.54067	5355
3.54133	5391
3.54200	5428
3.54267	5464
3.54333	5500
3.54400	5537
3.54467	5573
3.54533	5609
3.54600	5646
3.54667	5682
3.54733	5717
3.54800	5753
3.54867	5788
3.54933	5823
3.55000	5858
3.55067	5892
3.55133	5926
3.55200	5960
3.55267	5993
3.55333	6025
3.55400	6057
3.55467	6089
3.55533	6119
3.55600	6150
3.55667	6179
3.55733	6208
3.55800	6236
3.55867	6263
3.55933	6290
3.56000	6316
3.56067	6340
3.56133	6365
3.56200	6388
3.56267	6410
3.56333	6432
3.56400	6452
3.56467	6472
3.56533	6490
3.56600	6508
3.56667	6525
3.56733	6541
3.56800	6556
3.56867	6570
3.56933	6584
3.57000	6596
3.57067	6607
3.57133	6618
3.57200	6627
3.57267	6636
3.57333	6643
3.57400	6650
3.57467	6656
3.57533	6661
3.57600	6665
3.57667	6668
3.57733	6670
3.57800	6671
3.57867	6672
3.57933	6671
3.58000	6670
3.58067	6669
3.58133	6666
3.58200	6663
3.58267	6659
3.58333	6654
3.58400	6649
3.58467	6643
3.58533	6637
3.58600	6630
3.58667	6622
3.58733	6614
3.58800	6605
3.58867	6596
3.58933	6587
3.59000	6577
3.59067	6566
3.59133	6555
3.59200	6544
3.59267	6533
3.59333	6521
3.59400	6508
3.59467	6496
3.59533	6483
3.59600	6470
3.59667	6457
3.59733	6443
3.59800	6429
3.59867	6415
3.59933	6401
3.60000	6386
3.60067	6372
3.60133	6357
3.60200	6342
3.60267	6327
3.60333	6312
3.60400	6296
3.60467	6280
3.60533	6265
3.60600	6249
3.60667	6233
3.60733	6217
3.60800	6200
3.60867	6184
3.60933	6168
3.61000	6151
3.61067	6135
3.61133	6118
3.61200	6101
3.61267	6085
3.61333	6068
3.61400	6051
3.61467	6034
3.61533	6017
3.61600	6000
3.61667	5983
3.61733	5966
3.61800	5949
3.61867	5931
3.61933	5914
3.62000	5897
3.62067	5879
3.62133	5861
3.62200	5844
3.62267	5826
3.62333	5808
3.62400	5790
3.62467	5772
3.62533	5754
3.62600	5736
3.62667	5718
3.62733	5699
3.62800	5681
3.62867	5662
3.62933	5644
3.63000	5625
3.63067	5606
3.63133	5588
3.63200	5569
3.63267	5550
3.63333	5531
3.63400	5512
3.63467	5492
3.63533	5473
3.63600	5454
3.63667	5434
3.63733	5415
3.63800	5396
3.63867	5376
3.63933	5356
3.64000	5337
3.64067	5317
3.64133	5297
3.64200	5278
3.64267	5258
3.64333	5238
3.64400	5219
3.64467	5199
3.64533	5179
3.64600	5160
3.64667	5140
3.64733	5121
3.64800	5101
3.64867	5082
3.64933	5062
3.65000	5043
3.65067	5024
3.65133	5004
3.65200	4985
3.65267	4966
3.65333	4947
3.65400	4928
3.65467	4909
3.65533	4891
3.65600	4872
3.65667	4854
3.65733	4835
3.65800	4817
3.65867	4799
3.65933	4781
3.66000	4763
3.66067	4745
3.66133	4727
3.66200	4710
3.66267	4693
3.66333	4676
3.66400	4659
3.66467	4642
3.66533	4625
3.66600	4609
3.66667	4592
3.66733	4576
3.66800	4560
3.66867	4544
3.66933	4528
3.67000	4513
3.67067	4497
3.67133	4482
3.67200	4467
3.67267	4452
3.67333	4438
3.67400	4423
3.67467	4409
3.67533	4395
3.67600	4381
3.67667	4367
3.67733	4354
3.67800	4340
3.67867	4327
3.67933	4314
3.68000	4301
3.68067	4289
3.68133	4276
3.68200	4264
3.68267	4252
3.68333	4240
3.68400	4228
3.68467	4216
3.68533	4205
3.68600	4193
3.68667	4182
3.68733	4171
3.68800	4160
3.68867	4150
3.68933	4139
3.69000	4129
3.69067	4118
3.69133	4108
3.69200	4098
3.69267	4089
3.69333	4079
3.69400	4069
3.69467	4060
3.69533	4051
3.69600	4042
3.69667	4033
3.69733	4024
3.69800	4016
3.69867	4007
3.69933	3999
3.70000	3990
3.70067	3982
3.70133	3974
3.70200	3966
3.70267	3958
3.70333	3951
3.70400	3943
3.70467	3936
3.70533	3929
3.70600	3922
3.70667	3915
3.70733	3908
3.70800	3901
3.70867	3894
3.70933	3888
3.71000	3882
3.71067	3875
3.71133	3869
3.71200	3863
3.71267	3857
3.71333	3851
3.71400	3845
3.71467	3840
3.71533	3834
3.71600	3829
3.71667	3823
3.71733	3818
3.71800	3812
3.71867	3807
3.71933	3802
3.72000	3797
3.72067	3792
3.72133	3787
3.72200	3782
3.72267	3777
3.72333	3773
3.72400	3768
3.72467	3763
3.72533	3759
3.72600	3755
3.72667	3750
3.72733	3746
3.72800	3742
3.72867	3737
3.72933	3733
3.73000	3729
3.73067	3725
3.73133	3721
3.73200	3717
3.73267	3714
3.73333	3710
3.73400	3706
3.73467	3703
3.73533	3699
3.73600	3696
3.73667	3692
3.73733	3689
3.73800	3686
3.73867	3683
3.73933	3680
3.74000	3677
3.74067	3674
3.74133	3671
3.74200	3668
3.74267	3665
3.74333	3662
3.74400	3659
3.74467	3656
3.74533	3654
3.74600	3651
3.74667	3648
3.74733	3646
3.74800	3643
3.74867	3641
3.74933	3638
3.75000	3635
3.75067	3633
3.75133	3631
3.75200	3628
3.75267	3626
3.75333	3623
3.75400	3621
3.75467	3618
3.75533	3616
3.75600	3614
3.75667	3611
3.75733	3609
3.75800	3607
3.75867	3605
3.75933	3602
3.76000	3600
3.76067	3598
3.76133	3596
3.76200	3593
3.76267	3591
3.76333	3589
3.76400	3587
3.76467	3585
3.76533	3583
3.76600	3581
3.76667	3579
3.76733	3577
3.76800	3575
3.76867	3573
3.76933	3571
3.77000	3569
3.77067	3567
3.77133	3565
3.77200	3563
3.77267	3561
3.77333	3559
3.77400	3557
3.77467	3556
3.77533	3554
3.77600	3552
3.77667	3550
3.77733	3548
3.77800	3546
3.77867	3545
3.77933	3543
3.78000	3541
3.78067	3539
3.78133	3538
3.78200	3536
3.78267	3534
3.78333	3533
3.78400	3531
3.78467	3530
3.78533	3528
3.78600	3526
3.78667	3525
3.78733	3523
3.78800	3522
3.78867	3520
3.78933	3519
3.79000	3518
3.79067	3516
3.79133	3515
3.79200	3514
3.79267	3512
3.79333	3511
3.79400	3510
3.79467	3509
3.79533	3507
3.79600	3506
3.79667	3505
3.79733	3504
3.79800	3502
3.79867	3501
3.79933	3500
3.80000	3499
3.80067	3497
3.80133	3496
3.80200	3495
3.80267	3494
3.80333	3493
3.80400	3491
3.80467	3490
3.80533	3489
3.80600	3488
3.80667	3486
3.80733	3485
3.80800	3484
3.80867	3483
3.80933	3482
3.81000	3481
3.81067	3479
3.81133	3478
3.81200	3477
3.81267	3476
3.81333	3475
3.81400	3474
3.81467	3473
3.81533	3472
3.81600	3471
3.81667	3470
3.81733	3469
3.81800	3468
3.81867	3467
3.81933	3466
3.82000	3465
3.82067	3464
3.82133	3463
3.82200	3462
3.82267	3461
3.82333	3460
3.82400	3459
3.82467	3458
3.82533	3457
3.82600	3456
3.82667	3456
3.82733	3455
3.82800	3454
3.82867	3453
3.82933	3452
3.83000	3451
3.83067	3450
3.83133	3449
3.83200	3448
3.83267	3447
3.83333	3446
3.83400	3445
3.83467	3444
3.83533	3443
3.83600	3442
3.83667	3442
3.83733	3441
3.83800	3440
3.83867	3439
3.83933	3438
3.84000	3437
3.84067	3436
3.84133	3435
3.84200	3434
3.84267	3433
3.84333	3433
3.84400	3432
3.84467	3431
3.84533	3430
3.84600	3429
3.84667	3428
3.84733	3427
3.84800	3426
3.84867	3425
3.84933	3424
3.85000	3424
3.85067	3423
3.85133	3422
3.85200	3421
3.85267	3420
3.85333	3419
3.85400	3419
3.85467	3418
3.85533	3417
3.85600	3416
3.85667	3415
3.85733	3415
3.85800	3414
3.85867	3413
3.85933	3412
3.86000	3412
3.86067	3411
3.86133	3410
3.86200	3409
3.86267	3409
3.86333	3408
3.86400	3407
3.86467	3407
3.86533	3406
3.86600	3405
3.86667	3405
3.86733	3404
3.86800	3403
3.86867	3402
3.86933	3402
3.87000	3401
3.87067	3400
3.87133	3400
3.87200	3399
3.87267	3399
3.87333	3398
3.87400	3398
3.87467	3397
3.87533	3396
3.87600	3396
3.87667	3395
3.87733	3395
3.87800	3394
3.87867	3394
3.87933	3393
3.88000	3393
3.88067	3392
3.88133	3392
3.88200	3392
3.88267	3391
3.88333	3391
3.88400	3390
3.88467	3390
3.88533	3390
3.88600	3389
3.88667	3389
3.88733	3388
3.88800	3388
3.88867	3387
3.88933	3387
3.89000	3386
3.89067	3386
3.89133	3385
3.89200	3385
3.89267	3384
3.89333	3384
3.89400	3383
3.89467	3383
3.89533	3382
3.89600	3382
3.89667	3381
3.89733	3381
3.89800	3381
3.89867	3380
3.89933	3380
3.90000	3379
3.90067	3379
3.90133	3378
3.90200	3378
3.90267	3377
3.90333	3377
3.90400	3377
3.90467	3376
3.90533	3376
3.90600	3375
3.90667	3375
3.90733	3374
3.90800	3374
3.90867	3374
3.90933	3373
3.91000	3373
3.91067	3372
3.91133	3372
3.91200	3371
3.91267	3371
3.91333	3371
3.91400	3370
3.91467	3370
3.91533	3369
3.91600	3369
3.91667	3368
3.91733	3368
3.91800	3367
3.91867	3367
3.91933	3367
3.92000	3366
3.92067	3366
3.92133	3365
3.92200	3365
3.92267	3364
3.92333	3364
3.92400	3363
3.92467	3363
3.92533	3362
3.92600	3362
3.92667	3361
3.92733	3361
3.92800	3360
3.92867	3360
3.92933	3359
3.93000	3359
3.93067	3358
3.93133	3358
3.93200	3357
3.93267	3357
3.93333	3356
3.93400	3356
3.93467	3355
3.93533	3355
3.93600	3354
3.93667	3354
3.93733	3353
3.93800	3353
3.93867	3352
3.93933	3352
3.94000	3351
3.94067	3351
3.94133	3351
3.94200	3350
3.94267	3350
3.94333	3349
3.94400	3349
3.94467	3349
3.94533	3348
3.94600	3348
3.94667	3348
3.94733	3347
3.94800	3347
3.94867	3347
3.94933	3347
3.95000	3346
3.95067	3346
3.95133	3346
3.95200	3346
3.95267	3346
3.95333	3346
3.95400	3345
3.95467	3345
3.95533	3345
3.95600	3345
3.95667	3345
3.95733	3344
3.95800	3344
3.95867	3344
3.95933	3344
3.96000	3344
3.96067	3343
3.96133	3343
3.96200	3343
3.96267	3343
3.96333	3342
3.96400	3342
3.96467	3342
3.96533	3342
3.96600	3342
3.96667	3342
3.96733	3341
3.96800	3341
3.96867	3341
3.96933	3341
3.97000	3341
3.97067	3341
3.97133	3340
3.97200	3340
3.97267	3340
3.97333	3340
3.97400	3340
3.97467	3340
3.97533	3340
3.97600	3340
3.97667	3340
3.97733	3341
3.97800	3341
3.97867	3341
3.97933	3341
3.98000	3341
3.98067	3342
3.98133	3342
3.98200	3342
3.98267	3342
3.98333	3343
3.98400	3343
3.98467	3343
3.98533	3344
3.98600	3344
3.98667	3344
3.98733	3345
3.98800	3345
3.98867	3346
3.98933	3346
3.99000	3347
3.99067	3347
3.99133	3348
3.99200	3348
3.99267	3349
3.99333	3349
3.99400	3350
3.99467	3351
3.99533	3351
3.99600	3352
3.99667	3353
3.99733	3354
3.99800	3355
3.99867	3356
3.99933	3357
4.00000	3358
4.00067	3359
4.00133	3360
4.00200	3361
4.00267	3363
4.00333	3364
4.00400	3365
4.00467	3367
4.00533	3368
4.00600	3369
4.00667	3371
4.00733	3373
4.00800	3374
4.00867	3376
4.00933	3378
4.01000	3380
4.01067	3382
4.01133	3384
4.01200	3386
4.01267	3388
4.01333	3390
4.01400	3393
4.01467	3395
4.01533	3397
4.01600	3400
4.01667	3402
4.01733	3405
4.01800	3408
4.01867	3411
4.01933	3413
4.02000	3416
4.02067	3419
4.02133	3422
4.02200	3425
4.02267	3428
4.02333	3432
4.02400	3435
4.02467	3438
4.02533	3442
4.02600	3445
4.02667	3449
4.02733	3453
4.02800	3456
4.02867	3460
4.02933	3464
4.03000	3468
4.03067	3472
4.03133	3477
4.03200	3481
4.03267	3485
4.03333	3490
4.03400	3494
4.03467	3499
4.03533	3504
4.03600	3509
4.03667	3513
4.03733	3518
4.03800	3523
4.03867	3529
4.03933	3534
4.04000	3539
4.04067	3544
4.04133	3550
4.04200	3555
4.04267	3561
4.04333	3567
4.04400	3572
4.04467	3578
4.04533	3584
4.04600	3590
4.04667	3596
4.04733	3601
4.04800	3607
4.04867	3613
4.04933	3619
4.05000	3625
4.05067	3631
4.05133	3637
4.05200	3644
4.05267	3650
4.05333	3656
4.05400	3662
4.05467	3668
4.05533	3675
4.05600	3681
4.05667	3687
4.05733	3693
4.05800	3700
4.05867	3706
4.05933	3712
4.06000	3718
4.06067	3724
4.06133	3730
4.06200	3736
4.06267	3742
4.06333	3748
4.06400	3754
4.06467	3760
4.06533	3766
4.06600	3771
4.06667	3777
4.06733	3783
4.06800	3788
4.06867	3794
4.06933	3799
4.07000	3804
4.07067	3810
4.07133	3815
4.07200	3820
4.07267	3825
4.07333	3830
4.07400	3835
4.07467	3840
4.07533	3845
4.07600	3850
4.07667	3854
4.07733	3859
4.07800	3863
4.07867	3868
4.07933	3872
4.08000	3876
4.08067	3881
4.08133	3885
4.08200	3889
4.08267	3893
4.08333	3896
4.08400	3900
4.08467	3904
4.08533	3907
4.08600	3911
4.08667	3914
4.08733	3918
4.08800	3921
4.08867	3924
4.08933	3927
4.09000	3930
4.09067	3932
4.09133	3935
4.09200	3938
4.09267	3940
4.09333	3943
4.09400	3945
4.09467	3947
4.09533	3950
4.09600	3952
4.09667	3954
4.09733	3956
4.09800	3958
4.09867	3960
4.09933	3961
4.10000	3963
4.10067	3964
4.10133	3966
4.10200	3967
4.10267	3969
4.10333	3970
4.10400	3971
4.10467	3972
4.10533	3973
4.10600	3974
4.10667	3975
4.10733	3976
4.10800	3977
4.10867	3978
4.10933	3979
4.11000	3979
4.11067	3980
4.11133	3980
4.11200	3981
4.11267	3981
4.11333	3981
4.11400	3982
4.11467	3982
4.11533	3982
4.11600	3982
4.11667	3982
4.11733	3982
4.11800	3982
4.11867	3982
4.11933	3982
4.12000	3982
4.12067	3982
4.12133	3982
4.12200	3982
4.12267	3982
4.12333	3982
4.12400	3982
4.12467	3982
4.12533	3982
4.12600	3982
4.12667	3982
4.12733	3981
4.12800	3981
4.12867	3981
4.12933	3981
4.13000	3981
4.13067	3981
4.13133	3981
4.13200	3981
4.13267	3981
4.13333	3981
4.13400	3981
4.13467	3981
4.13533	3981
4.13600	3981
4.13667	3981
4.13733	3981
4.13800	3981
4.13867	3980
4.13933	3980
4.14000	3980
4.14067	3980
4.14133	3980
4.14200	3980
4.14267	3980
4.14333	3980
4.14400	3980
4.14467	3980
4.14533	3980
4.14600	3980
4.14667	3980
4.14733	3980
4.14800	3981
4.14867	3981
4.14933	3981
4.15000	3981
4.15067	3981
4.15133	3981
4.15200	3981
4.15267	3982
4.15333	3982
4.15400	3982
4.15467	3982
4.15533	3982
4.15600	3982
4.15667	3983
4.15733	3983
4.15800	3983
4.15867	3983
4.15933	3983
4.16000	3983
4.16067	3983
4.16133	3983
4.16200	3983
4.16267	3983
4.16333	3983
4.16400	3983
4.16467	3983
4.16533	3983
4.16600	3983
4.16667	3983
4.16733	3983
4.16800	3983
4.16867	3983
4.16933	3982
4.17000	3982
4.17067	3982
4.17133	3982
4.17200	3982
4.17267	3982
4.17333	3982
4.17400	3982
4.17467	3982
4.17533	3982
4.17600	3981
4.17667	3981
4.17733	3981
4.17800	3981
4.17867	3981
4.17933	3980
4.18000	3980
4.18067	3980
4.18133	3980
4.18200	3980
4.18267	3979
4.18333	3979
4.18400	3979
4.18467	3979
4.18533	3979
4.18600	3979
4.18667	3979
4.18733	3979
4.18800	3979
4.18867	3979
4.18933	3979
4.19000	3979
4.19067	3979
4.19133	3980
4.19200	3980
4.19267	3980
4.19333	3981
4.19400	3981
4.19467	3982
4.19533	3983
4.19600	3984
4.19667	3984
4.19733	3985
4.19800	3986
4.19867	3987
4.19933	3989
4.20000	3990
4.20067	3991
4.20133	3993
4.20200	3994
4.20267	3996
4.20333	3997
4.20400	3999
4.20467	4001
4.20533	4003
4.20600	4006
4.20667	4008
4.20733	4011
4.20800	4013
4.20867	4016
4.20933	4019
4.21000	4022
4.21067	4025
4.21133	4029
4.21200	4032
4.21267	4036
4.21333	4040
4.21400	4044
4.21467	4048
4.21533	4053
4.21600	4057
4.21667	4062
4.21733	4067
4.21800	4073
4.21867	4078
4.21933	4084
4.22000	4090
4.22067	4096
4.22133	4103
4.22200	4110
4.22267	4117
4.22333	4124
4.22400	4132
4.22467	4140
4.22533	4148
4.22600	4156
4.22667	4165
4.22733	4174
4.22800	4184
4.22867	4194
4.22933	4204
4.23000	4214
4.23067	4225
4.23133	4236
4.23200	4247
4.23267	4259
4.23333	4271
4.23400	4284
4.23467	4296
4.23533	4309
4.23600	4323
4.23667	4336
4.23733	4351
4.23800	4365
4.23867	4380
4.23933	4395
4.24000	4411
4.24067	4427
4.24133	4443
4.24200	4460
4.24267	4477
4.24333	4495
4.24400	4512
4.24467	4531
4.24533	4549
4.24600	4569
4.24667	4588
4.24733	4608
4.24800	4628
4.24867	4649
4.24933	4670
4.25000	4692
4.25067	4714
4.25133	4737
4.25200	4760
4.25267	4783
4.25333	4807
4.25400	4831
4.25467	4856
4.25533	4881
4.25600	4907
4.25667	4933
4.25733	4960
4.25800	4987
4.25867	5015
4.25933	5043
4.26000	5072
4.26067	5101
4.26133	5130
4.26200	5160
4.26267	5191
4.26333	5221
4.26400	5253
4.26467	5285
4.26533	5317
4.26600	5349
4.26667	5383
4.26733	5416
4.26800	5450
4.26867	5485
4.26933	5520
4.27000	5555
4.27067	5591
4.27133	5627
4.27200	5664
4.27267	5701
4.27333	5739
4.27400	5777
4.27467	5816
4.27533	5855
4.27600	5895
4.27667	5935
4.27733	5976
4.27800	6017
4.27867	6058
4.27933	6101
4.28000	6143
4.28067	6186
4.28133	6230
4.28200	6274
4.28267	6319
4.28333	6364
4.28400	6409
4.28467	6455
4.28533	6502
4.28600	6549
4.28667	6596
4.28733	6644
4.28800	6692
4.28867	6741
4.28933	6790
4.29000	6840
4.29067	6890
4.29133	6940
4.29200	6991
4.29267	7042
4.29333	7094
4.29400	7145
4.29467	7197
4.29533	7250
4.29600	7302
4.29667	7355
4.29733	7408
4.29800	7462
4.29867	7515
4.29933	7569
4.30000	7623
4.30067	7677
4.30133	7731
4.30200	7785
4.30267	7840
4.30333	7894
4.30400	7949
4.30467	8003
4.30533	8058
4.30600	8113
4.30667	8167
4.30733	8222
4.30800	8276
4.30867	8330
4.30933	8384
4.31000	8438
4.31067	8491
4.31133	8545
4.31200	8598
4.31267	8650
4.31333	8703
4.31400	8755
4.31467	8806
4.31533	8857
4.31600	8908
4.31667	8958
4.31733	9007
4.31800	9056
4.31867	9104
4.31933	9151
4.32000	9198
4.32067	9244
4.32133	9289
4.32200	9333
4.32267	9377
4.32333	9420
4.32400	9462
4.32467	9504
4.32533	9544
4.32600	9584
4.32667	9622
4.32733	9660
4.32800	9697
4.32867	9733
4.32933	9767
4.33000	9801
4.33067	9834
4.33133	9866
4.33200	9896
4.33267	9926
4.33333	9954
4.33400	9982
4.33467	10008
4.33533	10033
4.33600	10058
4.33667	10081
4.33733	10103
4.33800	10124
4.33867	10145
4.33933	10164
4.34000	10182
4.34067	10199
4.34133	10215
4.34200	10231
4.34267	10245
4.34333	10258
4.34400	10270
4.34467	10281
4.34533	10291
4.34600	10301
4.34667	10309
4.34733	10316
4.34800	10322
4.34867	10327
4.34933	10332
4.35000	10335
4.35067	10338
4.35133	10339
4.35200	10340
4.35267	10340
4.35333	10339
4.35400	10337
4.35467	10335
4.35533	10332
4.35600	10328
4.35667	10324
4.35733	10319
4.35800	10314
4.35867	10308
4.35933	10302
4.36000	10296
4.36067	10289
4.36133	10283
4.36200	10276
4.36267	10269
4.36333	10261
4.36400	10254
4.36467	10247
4.36533	10240
4.36600	10233
4.36667	10226
4.36733	10220
4.36800	10213
4.36867	10207
4.36933	10201
4.37000	10196
4.37067	10190
4.37133	10186
4.37200	10182
4.37267	10178
4.37333	10175
4.37400	10173
4.37467	10171
4.37533	10170
4.37600	10170
4.37667	10171
4.37733	10173
4.37800	10176
4.37867	10180
4.37933	10185
4.38000	10191
4.38067	10198
4.38133	10207
4.38200	10217
4.38267	10228
4.38333	10241
4.38400	10254
4.38467	10270
4.38533	10287
4.38600	10305
4.38667	10325
4.38733	10346
4.38800	10369
4.38867	10394
4.38933	10420
4.39000	10448
4.39067	10478
4.39133	10509
4.39200	10543
4.39267	10577
4.39333	10614
4.39400	10653
4.39467	10693
4.39533	10735
4.39600	10780
4.39667	10825
4.39733	10873
4.39800	10923
4.39867	10974
4.39933	11027
4.40000	11082
4.40067	11139
4.40133	11197
4.40200	11257
4.40267	11319
4.40333	11383
4.40400	11448
4.40467	11515
4.40533	11583
4.40600	11654
4.40667	11726
4.40733	11799
4.40800	11875
4.40867	11951
4.40933	12030
4.41000	12110
4.41067	12191
4.41133	12274
4.41200	12358
4.41267	12444
4.41333	12531
4.41400	12619
4.41467	12708
4.41533	12798
4.41600	12890
4.41667	12982
4.41733	13075
4.41800	13169
4.41867	13264
4.41933	13360
4.42000	13456
4.42067	13552
4.42133	13649
4.42200	13747
4.42267	13845
4.42333	13943
4.42400	14041
4.42467	14140
4.42533	14238
4.42600	14337
4.42667	14435
4.42733	14533
4.42800	14631
4.42867	14729
4.42933	14826
4.43000	14923
4.43067	15019
4.43133	15114
4.43200	15209
4.43267	15303
4.43333	15397
4.43400	15489
4.43467	15580
4.43533	15671
4.43600	15760
4.43667	15848
4.43733	15935
4.43800	16020
4.43867	16105
4.43933	16187
4.44000	16268
4.44067	16348
4.44133	16425
4.44200	16501
4.44267	16575
4.44333	16647
4.44400	16717
4.44467	16785
4.44533	16851
4.44600	16915
4.44667	16977
4.44733	17036
4.44800	17093
4.44867	17148
4.44933	17201
4.45000	17251
4.45067	17299
4.45133	17344
4.45200	17387
4.45267	17427
4.45333	17465
4.45400	17500
4.45467	17532
4.45533	17561
4.45600	17587
4.45667	17611
4.45733	17632
4.45800	17649
4.45867	17664
4.45933	17676
4.46000	17685
4.46067	17692
4.46133	17695
4.46200	17695
4.46267	17693
4.46333	17688
4.46400	17680
4.46467	17669
4.46533	17655
4.46600	17638
4.46667	17619
4.46733	17597
4.46800	17572
4.46867	17545
4.46933	17515
4.47000	17482
4.47067	17447
4.47133	17409
4.47200	17369
4.47267	17326
4.47333	17281
4.47400	17234
4.47467	17184
4.47533	17132
4.47600	17078
4.47667	17021
4.47733	16963
4.47800	16902
4.47867	16839
4.47933	16775
4.48000	16708
4.48067	16640
4.48133	16570
4.48200	16498
4.48267	16424
4.48333	16349
4.48400	16273
4.48467	16195
4.48533	16116
4.48600	16035
4.48667	15954
4.48733	15871
4.48800	15787
4.48867	15702
4.48933	15617
4.49000	15530
4.49067	15443
4.49133	15355
4.49200	15266
4.49267	15178
4.49333	15088
4.49400	14999
4.49467	14909
4.49533	14818
4.49600	14728
4.49667	14638
4.49733	14547
4.49800	14457
4.49867	14367
4.49933	14277
4.50000	14188
4.50067	14098
4.50133	14010
4.50200	13921
4.50267	13834
4.50333	13747
4.50400	13661
4.50467	13576
4.50533	13492
4.50600	13408
4.50667	13326
4.50733	13245
4.50800	13166
4.50867	13088
4.50933	13011
4.51000	12935
4.51067	12862
4.51133	12789
4.51200	12719
4.51267	12650
4.51333	12583
4.51400	12518
4.51467	12455
4.51533	12394
4.51600	12336
4.51667	12279
4.51733	12225
4.51800	12173
4.51867	12123
4.51933	12076
4.52000	12031
4.52067	11989
4.52133	11950
4.52200	11913
4.52267	11880
4.52333	11849
4.52400	11821
4.52467	11796
4.52533	11775
4.52600	11756
4.52667	11741
4.52733	11728
4.52800	11719
4.52867	11714
4.52933	11712
4.53000	11713
4.53067	11717
4.53133	11726
4.53200	11737
4.53267	11753
4.53333	11771
4.53400	11794
4.53467	11820
4.53533	11850
4.53600	11884
4.53667	11922
4.53733	11963
4.53800	12009
4.53867	12058
4.53933	12111
4.54000	12169
4.54067	12230
4.54133	12295
4.54200	12365
4.54267	12438
4.54333	12515
4.54400	12597
4.54467	12682
4.54533	12772
4.54600	12865
4.54667	12963
4.54733	13064
4.54800	13170
4.54867	13280
4.54933	13393
4.55000	13511
4.55067	13633
4.55133	13758
4.55200	13887
4.55267	14021
4.55333	14158
4.55400	14299
4.55467	14444
4.55533	14592
4.55600	14744
4.55667	14901
4.55733	15060
4.55800	15224
4.55867	15391
4.55933	15561
4.56000	15735
4.56067	15912
4.56133	16092
4.56200	16276
4.56267	16463
4.56333	16652
4.56400	16844
4.56467	17039
4.56533	17237
4.56600	17437
4.56667	17640
4.56733	17845
4.56800	18052
4.56867	18261
4.56933	18473
4.57000	18686
4.57067	18900
4.57133	19117
4.57200	19334
4.57267	19553
4.57333	19774
4.57400	19995
4.57467	20218
4.57533	20441
4.57600	20665
4.57667	20890
4.57733	21115
4.57800	21341
4.57867	21567
4.57933	21793
4.58000	22020
4.58067	22246
4.58133	22472
4.58200	22698
4.58267	22923
4.58333	23148
4.58400	23371
4.58467	23594
4.58533	23816
4.58600	24037
4.58667	24256
4.58733	24474
4.58800	24691
4.58867	24905
4.58933	25118
4.59000	25329
4.59067	25538
4.59133	25744
4.59200	25949
4.59267	26150
4.59333	26350
4.59400	26546
4.59467	26740
4.59533	26931
4.59600	27119
4.59667	27304
4.59733	27485
4.59800	27664
4.59867	27839
4.59933	28011
4.60000	28179
4.60067	28344
4.60133	28505
4.60200	28663
4.60267	28817
4.60333	28966
4.60400	29113
4.60467	29255
4.60533	29393
4.60600	29527
4.60667	29657
4.60733	29783
4.60800	29905
4.60867	30023
4.60933	30137
4.61000	30246
4.61067	30351
4.61133	30451
4.61200	30547
4.61267	30639
4.61333	30725
4.61400	30808
4.61467	30885
4.61533	30958
4.61600	31026
4.61667	31090
4.61733	31149
4.61800	31204
4.61867	31254
4.61933	31299
4.62000	31340
4.62067	31377
4.62133	31409
4.62200	31437
4.62267	31460
4.62333	31480
4.62400	31495
4.62467	31506
4.62533	31514
4.62600	31517
4.62667	31517
4.62733	31513
4.62800	31506
4.62867	31495
4.62933	31481
4.63000	31463
4.63067	31442
4.63133	31417
4.63200	31389
4.63267	31358
4.63333	31324
4.63400	31286
4.63467	31246
4.63533	31202
4.63600	31155
4.63667	31105
4.63733	31053
4.63800	30997
4.63867	30939
4.63933	30878
4.64000	30815
4.64067	30750
4.64133	30682
4.64200	30612
4.64267	30540
4.64333	30466
4.64400	30390
4.64467	30313
4.64533	30234
4.64600	30153
4.64667	30071
4.64733	29987
4.64800	29902
4.64867	29815
4.64933	29727
4.65000	29637
4.65067	29546
4.65133	29454
4.65200	29360
4.65267	29265
4.65333	29169
4.65400	29073
4.65467	28975
4.65533	28876
4.65600	28777
4.65667	28677
4.65733	28577
4.65800	28477
4.65867	28376
4.65933	28274
4.66000	28173
4.66067	28071
4.66133	27969
4.66200	27867
4.66267	27765
4.66333	27664
4.66400	27562
4.66467	27460
4.66533	27359
4.66600	27258
4.66667	27157
4.66733	27057
4.66800	26957
4.66867	26858
4.66933	26759
4.67000	26660
4.67067	26562
4.67133	26465
4.67200	26368
4.67267	26271
4.67333	26175
4.67400	26080
4.67467	25985
4.67533	25890
4.67600	25796
4.67667	25703
4.67733	25610
4.67800	25517
4.67867	25425
4.67933	25334
4.68000	25243
4.68067	25153
4.68133	25063
4.68200	24974
4.68267	24886
4.68333	24798
4.68400	24711
4.68467	24625
4.68533	24539
4.68600	24454
4.68667	24369
4.68733	24286
4.68800	24203
4.68867	24120
4.68933	24039
4.69000	23958
4.69067	23877
4.69133	23798
4.69200	23719
4.69267	23640
4.69333	23563
4.69400	23486
4.69467	23410
4.69533	23335
4.69600	23260
4.69667	23186
4.69733	23113
4.69800	23041
4.69867	22969
4.69933	22899
4.70000	22829
4.70067	22759
4.70133	22691
4.70200	22623
4.70267	22556
4.70333	22490
4.70400	22424
4.70467	22359
4.70533	22295
4.70600	22232
4.70667	22170
4.70733	22108
4.70800	22047
4.70867	21987
4.70933	21927
4.71000	21868
4.71067	21810
4.71133	21752
4.71200	21695
4.71267	21639
4.71333	21584
4.71400	21529
4.71467	21474
4.71533	21420
4.71600	21367
4.71667	21315
4.71733	21263
4.71800	21211
4.71867	21160
4.71933	21110
4.72000	21060
4.72067	21010
4.72133	20961
4.72200	20912
4.72267	20863
4.72333	20815
4.72400	20767
4.72467	20719
4.72533	20672
4.72600	20624
4.72667	20577
4.72733	20531
4.72800	20484
4.72867	20438
4.72933	20392
4.73000	20346
4.73067	20300
4.73133	20255
4.73200	20210
4.73267	20165
4.73333	20120
4.73400	20076
4.73467	20032
4.73533	19988
4.73600	19945
4.73667	19902
4.73733	19859
4.73800	19816
4.73867	19774
4.73933	19732
4.74000	19690
4.74067	19649
4.74133	19608
4.74200	19567
4.74267	19526
4.74333	19486
4.74400	19447
4.74467	19407
4.74533	19368
4.74600	19330
4.74667	19291
4.74733	19253
4.74800	19216
4.74867	19178
4.74933	19141
4.75000	19105
4.75067	19068
4.75133	19032
4.75200	18997
4.75267	18961
4.75333	18927
4.75400	18892
4.75467	18858
4.75533	18824
4.75600	18791
4.75667	18758
4.75733	18725
4.75800	18693
4.75867	18661
4.75933	18629
4.76000	18598
4.76067	18567
4.76133	18537
4.76200	18506
4.76267	18476
4.76333	18447
4.76400	18417
4.76467	18388
4.76533	18360
4.76600	18331
4.76667	18303
4.76733	18275
4.76800	18248
4.76867	18221
4.76933	18194
4.77000	18168
4.77067	18141
4.77133	18115
4.77200	18090
4.77267	18064
4.77333	18039
4.77400	18014
4.77467	17989
4.77533	17965
4.77600	17941
4.77667	17917
4.77733	17893
4.77800	17870
4.77867	17846
4.77933	17824
4.78000	17801
4.78067	17778
4.78133	17756
4.78200	17734
4.78267	17712
4.78333	17690
4.78400	17668
4.78467	17646
4.78533	17625
4.78600	17603
4.78667	17582
4.78733	17560
4.78800	17539
4.78867	17518
4.78933	17496
4.79000	17475
4.79067	17454
4.79133	17432
4.79200	17411
4.79267	17389
4.79333	17368
4.79400	17347
4.79467	17326
4.79533	17305
4.79600	17284
4.79667	17263
4.79733	17242
4.79800	17222
4.79867	17201
4.79933	17181
4.80000	17160
4.80067	17140
4.80133	17120
4.80200	17099
4.80267	17079
4.80333	17059
4.80400	17039
4.80467	17019
4.80533	16998
4.80600	16978
4.80667	16958
4.80733	16937
4.80800	16917
4.80867	16896
4.80933	16876
4.81000	16855
4.81067	16835
4.81133	16814
4.81200	16794
4.81267	16773
4.81333	16752
4.81400	16732
4.81467	16711
4.81533	16691
4.81600	16670
4.81667	16649
4.81733	16629
4.81800	16608
4.81867	16587
4.81933	16566
4.82000	16546
4.82067	16525
4.82133	16504
4.82200	16483
4.82267	16462
4.82333	16442
4.82400	16421
4.82467	16401
4.82533	16380
4.82600	16360
4.82667	16339
4.82733	16319
4.82800	16298
4.82867	16278
4.82933	16257
4.83000	16237
4.83067	16216
4.83133	16196
4.83200	16175
4.83267	16155
4.83333	16135
4.83400	16115
4.83467	16095
4.83533	16075
4.83600	16055
4.83667	16036
4.83733	16017
4.83800	15998
4.83867	15979
4.83933	15960
4.84000	15941
4.84067	15923
4.84133	15904
4.84200	15886
4.84267	15868
4.84333	15851
4.84400	15833
4.84467	15815
4.84533	15798
4.84600	15780
4.84667	15763
4.84733	15746
4.84800	15729
4.84867	15712
4.84933	15695
4.85000	15678
4.85067	15661
4.85133	15644
4.85200	15628
4.85267	15611
4.85333	15595
4.85400	15578
4.85467	15562
4.85533	15546
4.85600	15530
4.85667	15514
4.85733	15499
4.85800	15483
4.85867	15467
4.85933	15452
4.86000	15437
4.86067	15421
4.86133	15406
4.86200	15391
4.86267	15376
4.86333	15360
4.86400	15345
4.86467	15330
4.86533	15316
4.86600	15301
4.86667	15286
4.86733	15271
4.86800	15256
4.86867	15242
4.86933	15227
4.87000	15213
4.87067	15198
4.87133	15184
4.87200	15169
4.87267	15155
4.87333	15141
4.87400	15126
4.87467	15112
4.87533	15098
4.87600	15084
4.87667	15070
4.87733	15057
4.87800	15043
4.87867	15029
4.87933	15016
4.88000	15003
4.88067	14989
4.88133	14976
4.88200	14963
4.88267	14950
4.88333	14938
4.88400	14925
4.88467	14912
4.88533	14900
4.88600	14887
4.88667	14875
4.88733	14862
4.88800	14850
4.88867	14837
4.88933	14825
4.89000	14812
4.89067	14800
4.89133	14787
4.89200	14774
4.89267	14761
4.89333	14749
4.89400	14735
4.89467	14722
4.89533	14709
4.89600	14696
4.89667	14682
4.89733	14669
4.89800	14655
4.89867	14641
4.89933	14627
4.90000	14613
4.90067	14599
4.90133	14585
4.90200	14571
4.90267	14557
4.90333	14542
4.90400	14528
4.90467	14513
4.90533	14499
4.90600	14484
4.90667	14470
4.90733	14455
4.90800	14441
4.90867	14426
4.90933	14411
4.91000	14397
4.91067	14382
4.91133	14367
4.91200	14352
4.91267	14337
4.91333	14322
4.91400	14307
4.91467	14292
4.91533	14277
4.91600	14263
4.91667	14248
4.91733	14233
4.91800	14218
4.91867	14203
4.91933	14189
4.92000	14174
4.92067	14160
4.92133	14145
4.92200	14131
4.92267	14117
4.92333	14103
4.92400	14089
4.92467	14075
4.92533	14061
4.92600	14047
4.92667	14033
4.92733	14019
4.92800	14006
4.92867	13992
4.92933	13978
4.93000	13965
4.93067	13951
4.93133	13938
4.93200	13924
4.93267	13911
4.93333	13897
4.93400	13884
4.93467	13870
4.93533	13857
4.93600	13844
4.93667	13830
4.93733	13817
4.93800	13804
4.93867	13791
4.93933	13778
4.94000	13764
4.94067	13751
4.94133	13738
4.94200	13725
4.94267	13712
4.94333	13699
4.94400	13687
4.94467	13674
4.94533	13661
4.94600	13649
4.94667	13636
4.94733	13624
4.94800	13611
4.94867	13599
4.94933	13586
4.95000	13574
4.95067	13562
4.95133	13549
4.95200	13537
4.95267	13525
4.95333	13513
4.95400	13501
4.95467	13489
4.95533	13478
4.95600	13466
4.95667	13454
4.95733	13443
4.95800	13431
4.95867	13420
4.95933	13408
4.96000	13397
4.96067	13386
4.96133	13375
4.96200	13363
4.96267	13352
4.96333	13341
4.96400	13330
4.96467	13319
4.96533	13308
4.96600	13297
4.96667	13286
4.96733	13275
4.96800	13264
4.96867	13253
4.96933	13242
4.97000	13232
4.97067	13221
4.97133	13210
4.97200	13199
4.97267	13188
4.97333	13178
4.97400	13167
4.97467	13156
4.97533	13145
4.97600	13134
4.97667	13124
4.97733	13113
4.97800	13102
4.97867	13092
4.97933	13081
4.98000	13070
4.98067	13060
4.98133	13049
4.98200	13039
4.98267	13028
4.98333	13018
4.98400	13008
4.98467	12997
4.98533	12987
4.98600	12976
4.98667	12966
4.98733	12956
4.98800	12945
4.98867	12935
4.98933	12925
4.99000	12914
4.99067	12904
4.99133	12894
4.99200	12884
4.99267	12873
4.99333	12863
4.99400	12853
4.99467	12843
4.99533	12833
4.99600	12823
4.99667	12813
4.99733	12804
4.99800	12794
4.99867	12784
4.99933	12775
5.00000	12765
5.00067	12755
5.00133	12746
5.00200	12736
5.00267	12727
5.00333	12717
5.00400	12708
5.00467	12699
5.00533	12689
5.00600	12680
5.00667	12671
5.00733	12661
5.00800	12652
5.00867	12643
5.00933	12633
5.01000	12624
5.01067	12615
5.01133	12606
5.01200	12596
5.01267	12587
5.01333	12578
5.01400	12569
5.01467	12560
5.01533	12550
5.01600	12541
5.01667	12532
5.01733	12523
5.01800	12513
5.01867	12504
5.01933	12494
5.02000	12485
5.02067	12476
5.02133	12466
5.02200	12456
5.02267	12447
5.02333	12437
5.02400	12428
5.02467	12418
5.02533	12408
5.02600	12398
5.02667	12388
5.02733	12379
5.02800	12369
5.02867	12359
5.02933	12349
5.03000	12339
5.03067	12329
5.03133	12320
5.03200	12310
5.03267	12300
5.03333	12290
5.03400	12280
5.03467	12271
5.03533	12261
5.03600	12252
5.03667	12242
5.03733	12233
5.03800	12223
5.03867	12214
5.03933	12204
5.04000	12195
5.04067	12186
5.04133	12177
5.04200	12168
5.04267	12159
5.04333	12150
5.04400	12141
5.04467	12133
5.04533	12124
5.04600	12116
5.04667	12107
5.04733	12099
5.04800	12090
5.04867	12082
5.04933	12074
5.05000	12066
5.05067	12057
5.05133	12049
5.05200	12041
5.05267	12032
5.05333	12024
5.05400	12016
5.05467	12007
5.05533	11999
5.05600	11991
5.05667	11982
5.05733	11974
5.05800	11966
5.05867	11958
5.05933	11950
5.06000	11942
5.06067	11934
5.06133	11926
5.06200	11918
5.06267	11910
5.06333	11902
5.06400	11895
5.06467	11887
5.06533	11879
5.06600	11871
5.06667	11864
5.06733	11856
5.06800	11848
5.06867	11841
5.06933	11833
5.07000	11826
5.07067	11818
5.07133	11811
5.07200	11803
5.07267	11796
5.07333	11789
5.07400	11782
5.07467	11775
5.07533	11768
5.07600	11761
5.07667	11754
5.07733	11747
5.07800	11741
5.07867	11734
5.07933	11727
5.08000	11720
5.08067	11713
5.08133	11707
5.08200	11700
5.08267	11693
5.08333	11686
5.08400	11680
5.08467	11673
5.08533	11666
5.08600	11660
5.08667	11653
5.08733	11647
5.08800	11640
5.08867	11634
5.08933	11628
5.09000	11621
5.09067	11615
5.09133	11609
5.09200	11603
5.09267	11596
5.09333	11590
5.09400	11584
5.09467	11578
5.09533	11572
5.09600	11566
5.09667	11559
5.09733	11553
5.09800	11547
5.09867	11541
5.09933	11535
5.10000	11529
5.10067	11523
5.10133	11517
5.10200	11510
5.10267	11504
5.10333	11498
5.10400	11492
5.10467	11486
5.10533	11480
5.10600	11474
5.10667	11468
5.10733	11462
5.10800	11456
5.10867	11450
5.10933	11444
5.11000	11438
5.11067	11432
5.11133	11426
5.11200	11420
5.11267	11414
5.11333	11407
5.11400	11401
5.11467	11395
5.11533	11389
5.11600	11382
5.11667	11376
5.11733	11370
5.11800	11364
5.11867	11358
5.11933	11352
5.12000	11346
5.12067	11340
5.12133	11334
5.12200	11329
5.12267	11323
5.12333	11317
5.12400	11312
5.12467	11306
5.12533	11301
5.12600	11295
5.12667	11290
5.12733	11284
5.12800	11279
5.12867	11274
5.12933	11268
5.13000	11263
5.13067	11258
5.13133	11253
5.13200	11248
5.13267	11243
5.13333	11239
5.13400	11234
5.13467	11229
5.13533	11225
5.13600	11221
5.13667	11217
5.13733	11213
5.13800	11209
5.13867	11205
5.13933	11202
5.14000	11198
5.14067	11195
5.14133	11192
5.14200	11189
5.14267	11186
5.14333	11183
5.14400	11181
5.14467	11179
5.14533	11176
5.14600	11174
5.14667	11172
5.14733	11170
5.14800	11169
5.14867	11167
5.14933	11166
5.15000	11164
5.15067	11163
5.15133	11162
5.15200	11161
5.15267	11160
5.15333	11159
5.15400	11159
5.15467	11158
5.15533	11158
5.15600	11157
5.15667	11157
5.15733	11157
5.15800	11157
5.15867	11157
5.15933	11158
5.16000	11158
5.16067	11159
5.16133	11160
5.16200	11161
5.16267	11162
5.16333	11163
5.16400	11164
5.16467	11165
5.16533	11167
5.16600	11168
5.16667	11170
5.16733	11172
5.16800	11174
5.16867	11176
5.16933	11178
5.17000	11180
5.17067	11182
5.17133	11184
5.17200	11187
5.17267	11189
5.17333	11192
5.17400	11194
5.17467	11197
5.17533	11200
5.17600	11202
5.17667	11205
5.17733	11208
5.17800	11211
5.17867	11214
5.17933	11216
5.18000	11219
5.18067	11222
5.18133	11225
5.18200	11228
5.18267	11231
5.18333	11234
5.18400	11237
5.18467	11240
5.18533	11243
5.18600	11246
5.18667	11250
5.18733	11253
5.18800	11256
5.18867	11259
5.18933	11262
5.19000	11266
5.19067	11269
5.19133	11272
5.19200	11275
5.19267	11278
5.19333	11282
5.19400	11285
5.19467	11288
5.19533	11291
5.19600	11295
5.19667	11298
5.19733	11302
5.19800	11305
5.19867	11309
5.19933	11312
5.20000	11316
5.20067	11319
5.20133	11322
5.20200	11326
5.20267	11329
5.20333	11332
5.20400	11334
5.20467	11337
5.20533	11340
5.20600	11343
5.20667	11345
5.20733	11348
5.20800	11350
5.20867	11352
5.20933	11354
5.21000	11356
5.21067	11358
5.21133	11360
5.21200	11362
5.21267	11363
5.21333	11365
5.21400	11366
5.21467	11367
5.21533	11368
5.21600	11369
5.21667	11370
5.21733	11370
5.21800	11371
5.21867	11371
5.21933	11371
5.22000	11372
5.22067	11372
5.22133	11371
5.22200	11371
5.22267	11371
5.22333	11371
5.22400	11370
5.22467	11370
5.22533	11369
5.22600	11368
5.22667	11367
5.22733	11366
5.22800	11365
5.22867	11364
5.22933	11362
5.23000	11360
5.23067	11358
5.23133	11356
5.23200	11353
5.23267	11350
5.23333	11347
5.23400	11344
5.23467	11341
5.23533	11337
5.23600	11333
5.23667	11329
5.23733	11325
5.23800	11321
5.23867	11316
5.23933	11311
5.24000	11307
5.24067	11302
5.24133	11297
5.24200	11291
5.24267	11286
5.24333	11280
5.24400	11274
5.24467	11268
5.24533	11262
5.24600	11256
5.24667	11250
5.24733	11243
5.24800	11236
5.24867	11229
5.24933	11222
5.25000	11214
5.25067	11206
5.25133	11198
5.25200	11190
5.25267	11182
5.25333	11174
5.25400	11165
5.25467	11157
5.25533	11148
5.25600	11139
5.25667	11130
5.25733	11121
5.25800	11111
5.25867	11102
5.25933	11092
5.26000	11083
5.26067	11073
5.26133	11063
5.26200	11053
5.26267	11043
5.26333	11033
5.26400	11022
5.26467	11012
5.26533	11001
5.26600	10990
5.26667	10980
5.26733	10969
5.26800	10958
5.26867	10947
5.26933	10936
5.27000	10925
5.27067	10914
5.27133	10903
5.27200	10891
5.27267	10880
5.27333	10868
5.27400	10857
5.27467	10845
5.27533	10834
5.27600	10822
5.27667	10811
5.27733	10799
5.27800	10787
5.27867	10775
5.27933	10763
5.28000	10752
5.28067	10740
5.28133	10728
5.28200	10716
5.28267	10704
5.28333	10692
5.28400	10680
5.28467	10668
5.28533	10656
5.28600	10644
5.28667	10633
5.28733	10621
5.28800	10609
5.28867	10598
5.28933	10586
5.29000	10575
5.29067	10563
5.29133	10552
5.29200	10540
5.29267	10529
5.29333	10517
5.29400	10506
5.29467	10495
5.29533	10483
5.29600	10472
5.29667	10461
5.29733	10449
5.29800	10438
5.29867	10427
5.29933	10415
5.30000	10404
5.30067	10393
5.30133	10382
5.30200	10371
5.30267	10360
5.30333	10349
5.30400	10338
5.30467	10327
5.30533	10316
5.30600	10305
5.30667	10294
5.30733	10283
5.30800	10272
5.30867	10262
5.30933	10251
5.31000	10240
5.31067	10229
5.31133	10219
5.31200	10208
5.31267	10197
5.31333	10187
5.31400	10176
5.31467	10166
5.31533	10155
5.31600	10145
5.31667	10134
5.31733	10124
5.31800	10114
5.31867	10103
5.31933	10093
5.32000	10083
5.32067	10073
5.32133	10063
5.32200	10053
5.32267	10043
5.32333	10034
5.32400	10024
5.32467	10014
5.32533	10005
5.32600	9995
5.32667	9986
5.32733	9976
5.32800	9967
5.32867	9957
5.32933	9948
5.33000	9939
5.33067	9929
5.33133	9920
5.33200	9911
5.33267	9901
5.33333	9892
5.33400	9883
5.33467	9874
5.33533	9865
5.33600	9856
5.33667	9847
5.33733	9838
5.33800	9828
5.33867	9819
5.33933	9810
5.34000	9801
5.34067	9792
5.34133	9783
5.34200	9775
5.34267	9766
5.34333	9757
5.34400	9748
5.34467	9739
5.34533	9730
5.34600	9722
5.34667	9713
5.34733	9705
5.34800	9696
5.34867	9687
5.34933	9679
5.35000	9671
5.35067	9662
5.35133	9654
5.35200	9646
5.35267	9637
5.35333	9629
5.35400	9621
5.35467	9613
5.35533	9605
5.35600	9597
5.35667	9589
5.35733	9581
5.35800	9574
5.35867	9566
5.35933	9558
5.36000	9550
5.36067	9543
5.36133	9535
5.36200	9527
5.36267	9520
5.36333	9512
5.36400	9504
5.36467	9497
5.36533	9489
5.36600	9482
5.36667	9474
5.36733	9467
5.36800	9460
5.36867	9452
5.36933	9445
5.37000	9438
5.37067	9430
5.37133	9423
5.37200	9416
5.37267	9409
5.37333	9401
5.37400	9394
5.37467	9387
5.37533	9380
5.37600	9373
5.37667	9366
5.37733	9359
5.37800	9352
5.37867	9345
5.37933	9338
5.38000	9331
5.38067	9324
5.38133	9318
5.38200	9311
5.38267	9304
5.38333	9297
5.38400	9291
5.38467	9284
5.38533	9278
5.38600	9271
5.38667	9265
5.38733	9258
5.38800	9252
5.38867	9245
5.38933	9239
5.39000	9232
5.39067	9226
5.39133	9219
5.39200	9213
5.39267	9206
5.39333	9200
5.39400	9194
5.39467	9187
5.39533	9181
5.39600	9175
5.39667	9169
5.39733	9162
5.39800	9156
5.39867	9150
5.39933	9144
5.40000	9138
5.40067	9132
5.40133	9126
5.40200	9119
5.40267	9113
5.40333	9107
5.40400	9101
5.40467	9095
5.40533	9089
5.40600	9084
5.40667	9078
5.40733	9072
5.40800	9066
5.40867	9060
5.40933	9054
5.41000	9048
5.41067	9042
5.41133	9036
5.41200	9031
5.41267	9025
5.41333	9019
5.41400	9013
5.41467	9007
5.41533	9001
5.41600	8995
5.41667	8990
5.41733	8984
5.41800	8978
5.41867	8972
5.41933	8966
5.42000	8960
5.42067	8954
5.42133	8949
5.42200	8943
5.42267	8937
5.42333	8931
5.42400	8925
5.42467	8919
5.42533	8913
5.42600	8907
5.42667	8902
5.42733	8896
5.42800	8890
5.42867	8884
5.42933	8879
5.43000	8873
5.43067	8867
5.43133	8861
5.43200	8856
5.43267	8850
5.43333	8844
5.43400	8838
5.43467	8832
5.43533	8827
5.43600	8821
5.43667	8815
5.43733	8809
5.43800	8803
5.43867	8798
5.43933	8792
5.44000	8786
5.44067	8781
5.44133	8775
5.44200	8769
5.44267	8764
5.44333	8758
5.44400	8752
5.44467	8747
5.44533	8741
5.44600	8736
5.44667	8730
5.44733	8724
5.44800	8719
5.44867	8713
5.44933	8708
5.45000	8702
5.45067	8696
5.45133	8690
5.45200	8685
5.45267	8679
5.45333	8673
5.45400	8667
5.45467	8662
5.45533	8656
5.45600	8650
5.45667	8644
5.45733	8639
5.45800	8633
5.45867	8627
5.45933	8622
5.46000	8616
5.46067	8610
5.46133	8605
5.46200	8599
5.46267	8594
5.46333	8588
5.46400	8582
5.46467	8577
5.46533	8571
5.46600	8566
5.46667	8561
5.46733	8555
5.46800	8550
5.46867	8544
5.46933	8539
5.47000	8533
5.47067	8528
5.47133	8523
5.47200	8518
5.47267	8512
5.47333	8507
5.47400	8502
5.47467	8497
5.47533	8492
5.47600	8487
5.47667	8482
5.47733	8477
5.47800	8472
5.47867	8467
5.47933	8462
5.48000	8457
5.48067	8452
5.48133	8447
5.48200	8442
5.48267	8438
5.48333	8433
5.48400	8428
5.48467	8423
5.48533	8419
5.48600	8414
5.48667	8410
5.48733	8405
5.48800	8401
5.48867	8396
5.48933	8392
5.49000	8387
5.49067	8383
5.49133	8378
5.49200	8374
5.49267	8370
5.49333	8365
5.49400	8361
5.49467	8357
5.49533	8352
5.49600	8348
5.49667	8344
5.49733	8339
5.49800	8335
5.49867	8330
5.49933	8326
5.50000	8321
5.50067	8317
5.50133	8312
5.50200	8308
5.50267	8303
5.50333	8299
5.50400	8294
5.50467	8289
5.50533	8285
5.50600	8280
5.50667	8276
5.50733	8271
5.50800	8266
5.50867	8262
5.50933	8257
5.51000	8253
5.51067	8248
5.51133	8244
5.51200	8239
5.51267	8234
5.51333	8230
5.51400	8225
5.51467	8220
5.51533	8216
5.51600	8211
5.51667	8206
5.51733	8201
5.51800	8196
5.51867	8191
5.51933	8187
5.52000	8182
5.52067	8177
5.52133	8172
5.52200	8167
5.52267	8162
5.52333	8158
5.52400	8153
5.52467	8148
5.52533	8143
5.52600	8138
5.52667	8133
5.52733	8128
5.52800	8123
5.52867	8118
5.52933	8114
5.53000	8109
5.53067	8104
5.53133	8099
5.53200	8094
5.53267	8089
5.53333	8085
5.53400	8080
5.53467	8075
5.53533	8071
5.53600	8066
5.53667	8061
5.53733	8057
5.53800	8052
5.53867	8048
5.53933	8044
5.54000	8039
5.54067	8035
5.54133	8031
5.54200	8027
5.54267	8023
5.54333	8019
5.54400	8015
5.54467	8011
5.54533	8007
5.54600	8003
5.54667	7999
5.54733	7995
5.54800	7992
5.54867	7988
5.54933	7984
5.55000	7980
5.55067	7977
5.55133	7973
5.55200	7969
5.55267	7965
5.55333	7962
5.55400	7958
5.55467	7955
5.55533	7951
5.55600	7948
5.55667	7944
5.55733	7941
5.55800	7937
5.55867	7934
5.55933	7930
5.56000	7927
5.56067	7923
5.56133	7920
5.56200	7916
5.56267	7913
5.56333	7910
5.56400	7906
5.56467	7903
5.56533	7900
5.56600	7896
5.56667	7893
5.56733	7889
5.56800	7886
5.56867	7883
5.56933	7879
5.57000	7876
5.57067	7873
5.57133	7870
5.57200	7866
5.57267	7863
5.57333	7860
5.57400	7856
5.57467	7853
5.57533	7849
5.57600	7846
5.57667	7842
5.57733	7839
5.57800	7835
5.57867	7832
5.57933	7828
5.58000	7825
5.58067	7821
5.58133	7817
5.58200	7814
5.58267	7810
5.58333	7807
5.58400	7803
5.58467	7800
5.58533	7796
5.58600	7793
5.58667	7790
5.58733	7786
5.58800	7783
5.58867	7779
5.58933	7776
5.59000	7772
5.59067	7769
5.59133	7765
5.59200	7762
5.59267	7759
5.59333	7755
5.59400	7752
5.59467	7748
5.59533	7745
5.59600	7741
5.59667	7738
5.59733	7734
5.59800	7731
5.59867	7728
5.59933	7724
5.60000	7721
5.60067	7717
5.60133	7714
5.60200	7710
5.60267	7707
5.60333	7703
5.60400	7700
5.60467	7696
5.60533	7693
5.60600	7689
5.60667	7686
5.60733	7682
5.60800	7679
5.60867	7676
5.60933	7672
5.61000	7669
5.61067	7665
5.61133	7662
5.61200	7658
5.61267	7655
5.61333	7651
5.61400	7648
5.61467	7644
5.61533	7641
5.61600	7638
5.61667	7634
5.61733	7631
5.61800	7628
5.61867	7625
5.61933	7622
5.62000	7618
5.62067	7615
5.62133	7612
5.62200	7609
5.62267	7606
5.62333	7603
5.62400	7600
5.62467	7597
5.62533	7594
5.62600	7592
5.62667	7589
5.62733	7586
5.62800	7583
5.62867	7580
5.62933	7578
5.63000	7575
5.63067	7572
5.63133	7569
5.63200	7567
5.63267	7564
5.63333	7561
5.63400	7559
5.63467	7556
5.63533	7553
5.63600	7550
5.63667	7548
5.63733	7545
5.63800	7542
5.63867	7540
5.63933	7537
5.64000	7534
5.64067	7531
5.64133	7529
5.64200	7526
5.64267	7523
5.64333	7520
5.64400	7517
5.64467	7514
5.64533	7511
5.64600	7508
5.64667	7505
5.64733	7501
5.64800	7498
5.64867	7495
5.64933	7492
5.65000	7488
5.65067	7485
5.65133	7481
5.65200	7478
5.65267	7475
5.65333	7471
5.65400	7467
5.65467	7464
5.65533	7460
5.65600	7457
5.65667	7453
5.65733	7449
5.65800	7446
5.65867	7442
5.65933	7439
5.66000	7435
5.66067	7431
5.66133	7428
5.66200	7424
5.66267	7421
5.66333	7417
5.66400	7413
5.66467	7410
5.66533	7406
5.66600	7403
5.66667	7399
5.66733	7395
5.66800	7392
5.66867	7388
5.66933	7385
5.67000	7381
5.67067	7377
5.67133	7374
5.67200	7370
5.67267	7367
5.67333	7363
5.67400	7359
5.67467	7356
5.67533	7352
5.67600	7348
5.67667	7345
5.67733	7341
5.67800	7337
5.67867	7334
5.67933	7330
5.68000	7327
5.68067	7323
5.68133	7319
5.68200	7316
5.68267	7312
5.68333	7309
5.68400	7305
5.68467	7302
5.68533	7298
5.68600	7295
5.68667	7292
5.68733	7288
5.68800	7285
5.68867	7281
5.68933	7278
5.69000	7275
5.69067	7272
5.69133	7269
5.69200	7266
5.69267	7263
5.69333	7260
5.69400	7257
5.69467	7255
5.69533	7252
5.69600	7249
5.69667	7247
5.69733	7244
5.69800	7242
5.69867	7239
5.69933	7237
5.70000	7234
5.70067	7232
5.70133	7229
5.70200	7226
5.70267	7224
5.70333	7221
5.70400	7219
5.70467	7217
5.70533	7214
5.70600	7211
5.70667	7209
5.70733	7207
5.70800	7204
5.70867	7202
5.70933	7199
5.71000	7197
5.71067	7194
5.71133	7192
5.71200	7189
5.71267	7187
5.71333	7184
5.71400	7182
5.71467	7179
5.71533	7177
5.71600	7174
5.71667	7172
5.71733	7169
5.71800	7167
5.71867	7164
5.71933	7162
5.72000	7160
5.72067	7157
5.72133	7155
5.72200	7152
5.72267	7149
5.72333	7147
5.72400	7144
5.72467	7142
5.72533	7139
5.72600	7137
5.72667	7134
5.72733	7132
5.72800	7129
5.72867	7127
5.72933	7124
5.73000	7122
5.73067	7119
5.73133	7117
5.73200	7114
5.73267	7112
5.73333	7110
5.73400	7107
5.73467	7105
5.73533	7103
5.73600	7100
5.73667	7098
5.73733	7096
5.73800	7094
5.73867	7091
5.73933	7089
5.74000	7087
5.74067	7084
5.74133	7082
5.74200	7080
5.74267	7078
5.74333	7075
5.74400	7073
5.74467	7071
5.74533	7069
5.74600	7066
5.74667	7064
5.74733	7062
5.74800	7060
5.74867	7058
5.74933	7056
5.75000	7053
5.75067	7051
5.75133	7049
5.75200	7047
5.75267	7044
5.75333	7042
5.75400	7040
5.75467	7038
5.75533	7035
5.75600	7033
5.75667	7031
5.75733	7028
5.75800	7026
5.75867	7024
5.75933	7022
5.76000	7020
5.76067	7018
5.76133	7016
5.76200	7014
5.76267	7012
5.76333	7010
5.76400	7008
5.76467	7006
5.76533	7004
5.76600	7002
5.76667	7000
5.76733	6998
5.76800	6996
5.76867	6994
5.76933	6993
5.77000	6991
5.77067	6989
5.77133	6987
5.77200	6986
5.77267	6984
5.77333	6982
5.77400	6981
5.77467	6979
5.77533	6978
5.77600	6976
5.77667	6975
5.77733	6973
5.77800	6972
5.77867	6971
5.77933	6969
5.78000	6968
5.78067	6966
5.78133	6965
5.78200	6964
5.78267	6962
5.78333	6961
5.78400	6960
5.78467	6959
5.78533	6957
5.78600	6956
5.78667	6955
5.78733	6954
5.78800	6953
5.78867	6952
5.78933	6951
5.79000	6949
5.79067	6948
5.79133	6947
5.79200	6946
5.79267	6945
5.79333	6944
5.79400	6943
5.79467	6942
5.79533	6941
5.79600	6940
5.79667	6939
5.79733	6938
5.79800	6937
5.79867	6936
5.79933	6935
5.80000	6934
5.80067	6933
5.80133	6932
5.80200	6931
5.80267	6930
5.80333	6929
5.80400	6928
5.80467	6927
5.80533	6926
5.80600	6925
5.80667	6925
5.80733	6924
5.80800	6923
5.80867	6922
5.80933	6921
5.81000	6920
5.81067	6919
5.81133	6918
5.81200	6917
5.81267	6916
5.81333	6914
5.81400	6913
5.81467	6912
5.81533	6911
5.81600	6910
5.81667	6909
5.81733	6908
5.81800	6906
5.81867	6905
5.81933	6904
5.82000	6903
5.82067	6901
5.82133	6900
5.82200	6899
5.82267	6897
5.82333	6896
5.82400	6894
5.82467	6893
5.82533	6891
5.82600	6890
5.82667	6889
5.82733	6887
5.82800	6886
5.82867	6884
5.82933	6883
5.83000	6881
5.83067	6880
5.83133	6878
5.83200	6877
5.83267	6876
5.83333	6874
5.83400	6873
5.83467	6871
5.83533	6870
5.83600	6869
5.83667	6867
5.83733	6866
5.83800	6864
5.83867	6863
5.83933	6861
5.84000	6860
5.84067	6859
5.84133	6857
5.84200	6856
5.84267	6854
5.84333	6853
5.84400	6851
5.84467	6850
5.84533	6848
5.84600	6847
5.84667	6845
5.84733	6843
5.84800	6842
5.84867	6840
5.84933	6838
5.85000	6837
5.85067	6835
5.85133	6833
5.85200	6832
5.85267	6830
5.85333	6828
5.85400	6827
5.85467	6825
5.85533	6823
5.85600	6822
5.85667	6820
5.85733	6818
5.85800	6816
5.85867	6815
5.85933	6813
5.86000	6811
5.86067	6809
5.86133	6807
5.86200	6805
5.86267	6803
5.86333	6801
5.86400	6799
5.86467	6798
5.86533	6796
5.86600	6794
5.86667	6792
5.86733	6790
5.86800	6788
5.86867	6785
5.86933	6783
5.87000	6781
5.87067	6779
5.87133	6777
5.87200	6775
5.87267	6773
5.87333	6771
5.87400	6769
5.87467	6767
5.87533	6764
5.87600	6762
5.87667	6760
5.87733	6758
5.87800	6756
5.87867	6754
5.87933	6751
5.88000	6749
5.88067	6747
5.88133	6745
5.88200	6742
5.88267	6740
5.88333	6738
5.88400	6735
5.88467	6733
5.88533	6731
5.88600	6728
5.88667	6726
5.88733	6723
5.88800	6721
5.88867	6719
5.88933	6716
5.89000	6714
5.89067	6712
5.89133	6709
5.89200	6707
5.89267	6705
5.89333	6703
5.89400	6700
5.89467	6698
5.89533	6696
5.89600	6694
5.89667	6692
5.89733	6689
5.89800	6687
5.89867	6685
5.89933	6683
5.90000	6681
5.90067	6678
5.90133	6676
5.90200	6674
5.90267	6672
5.90333	6670
5.90400	6668
5.90467	6665
5.90533	6663
5.90600	6661
5.90667	6659
5.90733	6657
5.90800	6654
5.90867	6652
5.90933	6650
5.91000	6648
5.91067	6646
5.91133	6643
5.91200	6641
5.91267	6639
5.91333	6637
5.91400	6635
5.91467	6633
5.91533	6630
5.91600	6628
5.91667	6626
5.91733	6624
5.91800	6622
5.91867	6619
5.91933	6617
5.92000	6615
5.92067	6613
5.92133	6611
5.92200	6609
5.92267	6606
5.92333	6604
5.92400	6602
5.92467	6600
5.92533	6598
5.92600	6596
5.92667	6593
5.92733	6591
5.92800	6589
5.92867	6587
5.92933	6585
5.93000	6582
5.93067	6580
5.93133	6578
5.93200	6576
5.93267	6573
5.93333	6571
5.93400	6569
5.93467	6567
5.93533	6564
5.93600	6562
5.93667	6560
5.93733	6558
5.93800	6556
5.93867	6554
5.93933	6552
5.94000	6550
5.94067	6548
5.94133	6546
5.94200	6544
5.94267	6542
5.94333	6540
5.94400	6538
5.94467	6536
5.94533	6534
5.94600	6532
5.94667	6530
5.94733	6528
5.94800	6526
5.94867	6524
5.94933	6522
5.95000	6520
5.95067	6518
5.95133	6516
5.95200	6514
5.95267	6512
5.95333	6510
5.95400	6508
5.95467	6506
5.95533	6504
5.95600	6502
5.95667	6500
5.95733	6498
5.95800	6497
5.95867	6495
5.95933	6493
5.96000	6491
5.96067	6489
5.96133	6488
5.96200	6486
5.96267	6484
5.96333	6482
5.96400	6481
5.96467	6479
5.96533	6477
5.96600	6475
5.96667	6474
5.96733	6472
5.96800	6471
5.96867	6469
5.96933	6467
5.97000	6466
5.97067	6464
5.97133	6463
5.97200	6462
5.97267	6460
5.97333	6459
5.97400	6457
5.97467	6456
5.97533	6454
5.97600	6453
5.97667	6452
5.97733	6450
5.97800	6449
5.97867	6447
5.97933	6446
5.98000	6445
5.98067	6443
5.98133	6442
5.98200	6440
5.98267	6439
5.98333	6437
5.98400	6436
5.98467	6434
5.98533	6433
5.98600	6431
5.98667	6430
5.98733	6428
5.98800	6427
5.98867	6425
5.98933	6423
5.99000	6422
5.99067	6420
5.99133	6419
5.99200	6417
5.99267	6415
5.99333	6414
5.99400	6412
5.99467	6410
5.99533	6409
5.99600	6407
5.99667	6405
5.99733	6404
5.99800	6402
5.99867	6400
5.99933	6399
6.00000	6397
6.00067	6396
6.00133	6394
6.00200	6392
6.00267	6391
6.00333	6389
6.00400	6388
6.00467	6386
6.00533	6384
6.00600	6383
6.00667	6381
6.00733	6380
6.00800	6378
6.00867	6377
6.00933	6375
6.01000	6374
6.01067	6372
6.01133	6371
6.01200	6369
6.01267	6368
6.01333	6366
6.01400	6365
6.01467	6363
6.01533	6362
6.01600	6360
6.01667	6359
6.01733	6357
6.01800	6356
6.01867	6355
6.01933	6353
6.02000	6352
6.02067	6351
6.02133	6350
6.02200	6348
6.02267	6347
6.02333	6346
6.02400	6345
6.02467	6344
6.02533	6343
6.02600	6342
6.02667	6340
6.02733	6339
6.02800	6338
6.02867	6337
6.02933	6336
6.03000	6335
6.03067	6334
6.03133	6333
6.03200	6332
6.03267	6331
6.03333	6330
6.03400	6329
6.03467	6328
6.03533	6327
6.03600	6326
6.03667	6325
6.03733	6324
6.03800	6323
6.03867	6322
6.03933	6321
6.04000	6320
6.04067	6319
6.04133	6318
6.04200	6317
6.04267	6317
6.04333	6316
6.04400	6315
6.04467	6314
6.04533	6313
6.04600	6312
6.04667	6311
6.04733	6311
6.04800	6310
6.04867	6309
6.04933	6308
6.05000	6307
6.05067	6306
6.05133	6306
6.05200	6305
6.05267	6304
6.05333	6303
6.05400	6302
6.05467	6301
6.05533	6300
6.05600	6299
6.05667	6297
6.05733	6296
6.05800	6295
6.05867	6294
6.05933	6293
6.06000	6292
6.06067	6290
6.06133	6289
6.06200	6288
6.06267	6287
6.06333	6285
6.06400	6284
6.06467	6282
6.06533	6281
6.06600	6279
6.06667	6278
6.06733	6276
6.06800	6275
6.06867	6274
6.06933	6272
6.07000	6271
6.07067	6269
6.07133	6268
6.07200	6266
6.07267	6265
6.07333	6264
6.07400	6262
6.07467	6261
6.07533	6260
6.07600	6258
6.07667	6257
6.07733	6256
6.07800	6254
6.07867	6253
6.07933	6252
6.08000	6250
6.08067	6249
6.08133	6248
6.08200	6246
6.08267	6245
6.08333	6244
6.08400	6242
6.08467	6241
6.08533	6240
6.08600	6239
6.08667	6237
6.08733	6236
6.08800	6235
6.08867	6234
6.08933	6232
6.09000	6231
6.09067	6230
6.09133	6229
6.09200	6227
6.09267	6226
6.09333	6225
6.09400	6223
6.09467	6222
6.09533	6221
6.09600	6220
6.09667	6218
6.09733	6217
6.09800	6216
6.09867	6215
6.09933	6213
6.10000	6212
6.10067	6211
6.10133	6210
6.10200	6209
6.10267	6208
6.10333	6206
6.10400	6205
6.10467	6204
6.10533	6203
6.10600	6202
6.10667	6201
6.10733	6200
6.10800	6199
6.10867	6198
6.10933	6197
6.11000	6196
6.11067	6195
6.11133	6193
6.11200	6192
6.11267	6191
6.11333	6190
6.11400	6189
6.11467	6188
6.11533	6187
6.11600	6186
6.11667	6185
6.11733	6184
6.11800	6183
6.11867	6182
6.11933	6182
6.12000	6181
6.12067	6180
6.12133	6179
6.12200	6178
6.12267	6177
6.12333	6176
6.12400	6175
6.12467	6174
6.12533	6173
6.12600	6172
6.12667	6172
6.12733	6171
6.12800	6170
6.12867	6169
6.12933	6168
6.13000	6167
6.13067	6166
6.13133	6165
6.13200	6164
6.13267	6163
6.13333	6162
6.13400	6161
6.13467	6160
6.13533	6159
6.13600	6158
6.13667	6157
6.13733	6156
6.13800	6155
6.13867	6154
6.13933	6153
6.14000	6151
6.14067	6150
6.14133	6149
6.14200	6148
6.14267	6147
6.14333	6146
6.14400	6145
6.14467	6144
6.14533	6142
6.14600	6141
6.14667	6140
6.14733	6139
6.14800	6138
6.14867	6137
6.14933	6136
6.15000	6135
6.15067	6134
6.15133	6132
6.15200	6131
6.15267	6130
6.15333	6129
6.15400	6128
6.15467	6127
6.15533	6126
6.15600	6125
6.15667	6124
6.15733	6123
6.15800	6122
6.15867	6121
6.15933	6120
6.16000	6119
6.16067	6117
6.16133	6116
6.16200	6115
6.16267	6114
6.16333	6113
6.16400	6112
6.16467	6111
6.16533	6111
6.16600	6110
6.16667	6109
6.16733	6108
6.16800	6107
6.16867	6106
6.16933	6105
6.17000	6104
6.17067	6103
6.17133	6102
6.17200	6101
6.17267	6100
6.17333	6099
6.17400	6098
6.17467	6097
6.17533	6096
6.17600	6095
6.17667	6094
6.17733	6093
6.17800	6092
6.17867	6091
6.17933	6090
6.18000	6089
6.18067	6088
6.18133	6087
6.18200	6086
6.18267	6085
6.18333	6085
6.18400	6084
6.18467	6083
6.18533	6082
6.18600	6081
6.18667	6080
6.18733	6079
6.18800	6078
6.18867	6077
6.18933	6077
6.19000	6076
6.19067	6075
6.19133	6074
6.19200	6073
6.19267	6073
6.19333	6072
6.19400	6071
6.19467	6070
6.19533	6069
6.19600	6068
6.19667	6068
6.19733	6067
6.19800	6066
6.19867	6065
6.19933	6064
6.20000	6063
6.20067	6063
6.20133	6062
6.20200	6061
6.20267	6060
6.20333	6060
6.20400	6059
6.20467	6059
6.20533	6058
6.20600	6058
6.20667	6057
6.20733	6057
6.20800	6056
6.20867	6056
6.20933	6055
6.21000	6055
6.21067	6055
6.21133	6054
6.21200	6054
6.21267	6054
6.21333	6053
6.21400	6053
6.21467	6053
6.21533	6052
6.21600	6052
6.21667	6051
6.21733	6051
6.21800	6051
6.21867	6050
6.21933	6050
6.22000	6050
6.22067	6049
6.22133	6049
6.22200	6048
6.22267	6048
6.22333	6048
6.22400	6047
6.22467	6047
6.22533	6046
6.22600	6046
6.22667	6045
6.22733	6045
6.22800	6044
6.22867	6044
6.22933	6043
6.23000	6043
6.23067	6042
6.23133	6042
6.23200	6042
6.23267	6041
6.23333	6041
6.23400	6041
6.23467	6040
6.23533	6040
6.23600	6040
6.23667	6040
6.23733	6040
6.23800	6039
6.23867	6039
6.23933	6039
6.24000	6039
6.24067	6039
6.24133	6039
6.24200	6039
6.24267	6039
6.24333	6039
6.24400	6039
6.24467	6039
6.24533	6038
6.24600	6038
6.24667	6038
6.24733	6038
6.24800	6038
6.24867	6038
6.24933	6038
6.25000	6038
6.25067	6038
6.25133	6038
6.25200	6038
6.25267	6038
6.25333	6038
6.25400	6039
6.25467	6039
6.25533	6039
6.25600	6039
6.25667	6039
6.25733	6039
6.25800	6039
6.25867	6039
6.25933	6040
6.26000	6040
6.26067	6040
6.26133	6040
6.26200	6040
6.26267	6041
6.26333	6041
6.26400	6041
6.26467	6041
6.26533	6041
6.26600	6041
6.26667	6041
6.26733	6041
6.26800	6041
6.26867	6041
6.26933	6041
6.27000	6041
6.27067	6041
6.27133	6041
6.27200	6041
6.27267	6041
6.27333	6041
6.27400	6041
6.27467	6041
6.27533	6041
6.27600	6041
6.27667	6041
6.27733	6041
6.27800	6040
6.27867	6040
6.27933	6040
6.28000	6040
6.28067	6040
6.28133	6039
6.28200	6039
6.28267	6039
6.28333	6038
6.28400	6038
6.28467	6037
6.28533	6037
6.28600	6037
6.28667	6036
6.28733	6036
6.28800	6035
6.28867	6034
6.28933	6034
6.29000	6033
6.29067	6033
6.29133	6032
6.29200	6032
6.29267	6031
6.29333	6030
6.29400	6030
6.29467	6029
6.29533	6028
6.29600	6028
6.29667	6027
6.29733	6026
6.29800	6025
6.29867	6024
6.29933	6023
6.30000	6022
6.30067	6021
6.30133	6021
6.30200	6020
6.30267	6019
6.30333	6018
6.30400	6017
6.30467	6016
6.30533	6015
6.30600	6015
6.30667	6014
6.30733	6013
6.30800	6012
6.30867	6012
6.30933	6011
6.31000	6011
6.31067	6010
6.31133	6010
6.31200	6009
6.31267	6009
6.31333	6008
6.31400	6008
6.31467	6007
6.31533	6007
6.31600	6006
6.31667	6006
6.31733	6005
6.31800	6005
6.31867	6004
6.31933	6004
6.32000	6003
6.32067	6003
6.32133	6003
6.32200	6002
6.32267	6002
6.32333	6001
6.32400	6001
6.32467	6000
6.32533	6000
6.32600	5999
6.32667	5999
6.32733	5998
6.32800	5997
6.32867	5997
6.32933	5996
6.33000	5995
6.33067	5995
6.33133	5994
6.33200	5993
6.33267	5992
6.33333	5991
6.33400	5990
6.33467	5989
6.33533	5989
6.33600	5988
6.33667	5987
6.33733	5986
6.33800	5985
6.33867	5984
6.33933	5983
6.34000	5982
6.34067	5981
6.34133	5980
6.34200	5979
6.34267	5978
6.34333	5977
6.34400	5976
6.34467	5975
6.34533	5974
6.34600	5973
6.34667	5972
6.34733	5970
6.34800	5969
6.34867	5968
6.34933	5967
6.35000	5966
6.35067	5965
6.35133	5964
6.35200	5963
6.35267	5962
6.35333	5961
6.35400	5960
6.35467	5959
6.35533	5958
6.35600	5957
6.35667	5956
6.35733	5954
6.35800	5953
6.35867	5952
6.35933	5951
6.36000	5950
6.36067	5949
6.36133	5948
6.36200	5947
6.36267	5946
6.36333	5945
6.36400	5944
6.36467	5943
6.36533	5942
6.36600	5941
6.36667	5940
6.36733	5939
6.36800	5938
6.36867	5937
6.36933	5936
6.37000	5935
6.37067	5934
6.37133	5933
6.37200	5933
6.37267	5932
6.37333	5931
6.37400	5930
6.37467	5929
6.37533	5928
6.37600	5927
6.37667	5927
6.37733	5926
6.37800	5925
6.37867	5924
6.37933	5923
6.38000	5922
6.38067	5921
6.38133	5920
6.38200	5919
6.38267	5918
6.38333	5917
6.38400	5916
6.38467	5915
6.38533	5915
6.38600	5914
6.38667	5913
6.38733	5912
6.38800	5911
6.38867	5910
6.38933	5909
6.39000	5908
6.39067	5907
6.39133	5906
6.39200	5905
6.39267	5904
6.39333	5903
6.39400	5902
6.39467	5901
6.39533	5901
6.39600	5900
6.39667	5899
6.39733	5898
6.39800	5897
6.39867	5896
6.39933	5896

