[Header]
Application Name	LabSolutions
Version	5.73
Data File Name	C:\LabSolutions\Data\Project1\stephen\2016-01-06\32.gcd
Output Date	1/11/2016
Output Time	1:19:45 PM

[Configuration]
Instrument Name	WEISSTA-PC-Instrument1
Instrument #	1
Line #	1
# of Detectors	1
Detector ID	DET#2
Detector Name	DFID1
# of Channels	1

[Chromatogram (Ch1)]
Interval(msec)	40
# of Points	9599
Start Time(min)	0.001
End Time(min)	6.399
R.Time (min)	Intensity
0.00067	19
0.00133	19
0.00200	19
0.00267	19
0.00333	19
0.00400	19
0.00467	19
0.00533	19
0.00600	19
0.00667	19
0.00733	19
0.00800	19
0.00867	19
0.00933	19
0.01000	18
0.01067	17
0.01133	16
0.01200	15
0.01267	13
0.01333	11
0.01400	9
0.01467	6
0.01533	3
0.01600	0
0.01667	-3
0.01733	-7
0.01800	-11
0.01867	-15
0.01933	-19
0.02000	-23
0.02067	-28
0.02133	-32
0.02200	-37
0.02267	-41
0.02333	-46
0.02400	-51
0.02467	-55
0.02533	-59
0.02600	-64
0.02667	-68
0.02733	-72
0.02800	-75
0.02867	-79
0.02933	-83
0.03000	-86
0.03067	-89
0.03133	-92
0.03200	-95
0.03267	-98
0.03333	-101
0.03400	-103
0.03467	-106
0.03533	-108
0.03600	-110
0.03667	-112
0.03733	-114
0.03800	-116
0.03867	-117
0.03933	-119
0.04000	-120
0.04067	-122
0.04133	-123
0.04200	-124
0.04267	-125
0.04333	-126
0.04400	-127
0.04467	-128
0.04533	-128
0.04600	-129
0.04667	-130
0.04733	-130
0.04800	-131
0.04867	-132
0.04933	-132
0.05000	-132
0.05067	-133
0.05133	-133
0.05200	-134
0.05267	-134
0.05333	-134
0.05400	-134
0.05467	-135
0.05533	-135
0.05600	-135
0.05667	-135
0.05733	-135
0.05800	-136
0.05867	-136
0.05933	-136
0.06000	-136
0.06067	-136
0.06133	-136
0.06200	-136
0.06267	-136
0.06333	-136
0.06400	-136
0.06467	-136
0.06533	-136
0.06600	-136
0.06667	-136
0.06733	-136
0.06800	-136
0.06867	-136
0.06933	-136
0.07000	-136
0.07067	-135
0.07133	-135
0.07200	-135
0.07267	-135
0.07333	-135
0.07400	-135
0.07467	-135
0.07533	-134
0.07600	-134
0.07667	-134
0.07733	-134
0.07800	-134
0.07867	-134
0.07933	-133
0.08000	-133
0.08067	-133
0.08133	-133
0.08200	-133
0.08267	-133
0.08333	-133
0.08400	-132
0.08467	-132
0.08533	-132
0.08600	-130
0.08667	-126
0.08733	-117
0.08800	-99
0.08867	-70
0.08933	-29
0.09000	23
0.09067	92
0.09133	187
0.09200	313
0.09267	477
0.09333	679
0.09400	914
0.09467	1185
0.09533	1484
0.09600	1809
0.09667	2141
0.09733	2503
0.09800	2914
0.09867	3333
0.09933	3778
0.10000	4272
0.10067	4803
0.10133	5360
0.10200	5937
0.10267	6566
0.10333	7226
0.10400	7893
0.10467	8561
0.10533	9237
0.10600	9937
0.10667	10674
0.10733	11421
0.10800	12169
0.10867	12919
0.10933	13662
0.11000	14409
0.11067	15182
0.11133	15923
0.11200	16656
0.11267	17368
0.11333	18068
0.11400	18717
0.11467	19350
0.11533	19950
0.11600	20496
0.11667	21011
0.11733	21526
0.11800	22044
0.11867	22559
0.11933	23030
0.12000	23443
0.12067	23816
0.12133	24158
0.12200	24450
0.12267	24708
0.12333	24938
0.12400	25132
0.12467	25287
0.12533	25407
0.12600	25491
0.12667	25541
0.12733	25560
0.12800	25552
0.12867	25515
0.12933	25448
0.13000	25356
0.13067	25239
0.13133	25100
0.13200	24953
0.13267	24799
0.13333	24648
0.13400	24604
0.13467	25044
0.13533	27084
0.13600	33265
0.13667	48840
0.13733	82805
0.13800	149848
0.13867	270360
0.13933	470266
0.14000	776342
0.14067	1215215
0.14133	1810407
0.14200	2583810
0.14267	3553076
0.14333	4732688
0.14400	6132805
0.14467	7761473
0.14533	9624302
0.14600	11725364
0.14667	14066950
0.14733	16654291
0.14800	19497834
0.14867	22604828
0.14933	25972973
0.15000	29590080
0.15067	33436435
0.15133	37487931
0.15200	41718767
0.15267	46102993
0.15333	50615116
0.15400	55231813
0.15467	59931374
0.15533	64693526
0.15600	69498705
0.15667	74328162
0.15733	79163798
0.15800	83988502
0.15867	88785820
0.15933	93540233
0.16000	98236570
0.16067	102860510
0.16133	107398315
0.16200	111836774
0.16267	116163072
0.16333	120365357
0.16400	124433060
0.16467	128356388
0.16533	132126682
0.16600	135736292
0.16667	139179174
0.16733	142450104
0.16800	145544963
0.16867	148460317
0.16933	151193987
0.17000	153744515
0.17067	156111444
0.17133	158294535
0.17200	160294278
0.17267	162111766
0.17333	163749215
0.17400	165209327
0.17467	166495223
0.17533	167610159
0.17600	168557933
0.17667	169342777
0.17733	169969439
0.17800	170443049
0.17867	170769243
0.17933	170954746
0.18000	171007035
0.18067	170932727
0.18133	170736478
0.18200	170421607
0.18267	169990800
0.18333	169447012
0.18400	168793482
0.18467	168033977
0.18533	167172513
0.18600	166213523
0.18667	165161542
0.18733	164021308
0.18800	162797424
0.18867	161494539
0.18933	160117263
0.19000	158670282
0.19067	157158185
0.19133	155585508
0.19200	153956624
0.19267	152275742
0.19333	150546918
0.19400	148774092
0.19467	146961119
0.19533	145111724
0.19600	143229580
0.19667	141318246
0.19733	139381212
0.19800	137421806
0.19867	135443204
0.19933	133448365
0.20000	131440112
0.20067	129421097
0.20133	127393882
0.20200	125360890
0.20267	123324450
0.20333	121286761
0.20400	119249937
0.20467	117215982
0.20533	115186816
0.20600	113164239
0.20667	111149954
0.20733	109145550
0.20800	107152526
0.20867	105172297
0.20933	103206180
0.21000	101255405
0.21067	99321117
0.21133	97404397
0.21200	95506272
0.21267	93627746
0.21333	91769858
0.21400	89933713
0.21467	88120345
0.21533	86330532
0.21600	84564751
0.21667	82823255
0.21733	81106153
0.21800	79413517
0.21867	77745409
0.21933	76101912
0.22000	74483113
0.22067	72889097
0.22133	71319936
0.22200	69775694
0.22267	68256419
0.22333	66762137
0.22400	65292856
0.22467	63848551
0.22533	62429175
0.22600	61034648
0.22667	59664879
0.22733	58319748
0.22800	56999112
0.22867	55702811
0.22933	54430672
0.23000	53182492
0.23067	51958061
0.23133	50757144
0.23200	49579504
0.23267	48424885
0.23333	47293022
0.23400	46183636
0.23467	45096439
0.23533	44031141
0.23600	42987447
0.23667	41965057
0.23733	40963664
0.23800	39982959
0.23867	39022629
0.23933	38082360
0.24000	37161837
0.24067	36260743
0.24133	35378760
0.24200	34515573
0.24267	33670870
0.24333	32844344
0.24400	32035687
0.24467	31244598
0.24533	30470771
0.24600	29713907
0.24667	28973709
0.24733	28249885
0.24800	27542143
0.24867	26850201
0.24933	26173778
0.25000	25512598
0.25067	24866385
0.25133	24234868
0.25200	23617776
0.25267	23014844
0.25333	22425809
0.25400	21850413
0.25467	21288402
0.25533	20739522
0.25600	20203524
0.25667	19680163
0.25733	19169197
0.25800	18670387
0.25867	18183497
0.25933	17708292
0.26000	17244543
0.26067	16792021
0.26133	16350501
0.26200	15919764
0.26267	15499591
0.26333	15089767
0.26400	14690079
0.26467	14300315
0.26533	13920266
0.26600	13549729
0.26667	13188501
0.26733	12836383
0.26800	12493180
0.26867	12158698
0.26933	11832746
0.27000	11515138
0.27067	11205689
0.27133	10904218
0.27200	10610547
0.27267	10324500
0.27333	10045903
0.27400	9774585
0.27467	9510377
0.27533	9253116
0.27600	9002639
0.27667	8758786
0.27733	8521402
0.27800	8290334
0.27867	8065431
0.27933	7846546
0.28000	7633534
0.28067	7426252
0.28133	7224560
0.28200	7028320
0.28267	6837397
0.28333	6651660
0.28400	6470979
0.28467	6295229
0.28533	6124285
0.28600	5958026
0.28667	5796334
0.28733	5639092
0.28800	5486186
0.28867	5337504
0.28933	5192939
0.29000	5052385
0.29067	4915737
0.29133	4782894
0.29200	4653758
0.29267	4528231
0.29333	4406219
0.29400	4287631
0.29467	4172376
0.29533	4060367
0.29600	3951519
0.29667	3845748
0.29733	3742972
0.29800	3643112
0.29867	3546089
0.29933	3451828
0.30000	3360252
0.30067	3271291
0.30133	3184872
0.30200	3100926
0.30267	3019385
0.30333	2940182
0.30400	2863253
0.30467	2788533
0.30533	2715962
0.30600	2645480
0.30667	2577028
0.30733	2510549
0.30800	2445990
0.30867	2383295
0.30933	2322412
0.31000	2263291
0.31067	2205881
0.31133	2150135
0.31200	2096006
0.31267	2043448
0.31333	1992416
0.31400	1942869
0.31467	1894764
0.31533	1848061
0.31600	1802722
0.31667	1758709
0.31733	1715985
0.31800	1674514
0.31867	1634264
0.31933	1595202
0.32000	1557296
0.32067	1520514
0.32133	1484827
0.32200	1450206
0.32267	1416621
0.32333	1384046
0.32400	1352453
0.32467	1321816
0.32533	1292109
0.32600	1263309
0.32667	1235390
0.32733	1208331
0.32800	1182108
0.32867	1156702
0.32933	1132092
0.33000	1108258
0.33067	1085185
0.33133	1062853
0.33200	1041250
0.33267	1020359
0.33333	1000170
0.33400	980668
0.33467	961844
0.33533	943686
0.33600	926184
0.33667	909327
0.33733	893105
0.33800	877507
0.33867	862522
0.33933	848138
0.34000	834344
0.34067	821128
0.34133	808479
0.34200	796387
0.34267	784840
0.34333	773830
0.34400	763346
0.34467	753381
0.34533	743924
0.34600	734971
0.34667	726515
0.34733	718555
0.34800	711091
0.34867	704129
0.34933	697673
0.35000	691733
0.35067	686316
0.35133	681426
0.35200	677066
0.35267	673237
0.35333	669931
0.35400	667139
0.35467	664847
0.35533	663037
0.35600	661688
0.35667	660780
0.35733	660290
0.35800	660195
0.35867	660470
0.35933	661092
0.36000	662035
0.36067	663277
0.36133	664792
0.36200	666556
0.36267	668546
0.36333	670740
0.36400	673116
0.36467	675652
0.36533	678329
0.36600	681128
0.36667	684031
0.36733	687022
0.36800	690085
0.36867	693206
0.36933	696373
0.37000	699575
0.37067	702802
0.37133	706045
0.37200	709295
0.37267	712546
0.37333	715789
0.37400	719017
0.37467	722225
0.37533	725405
0.37600	728552
0.37667	731660
0.37733	734722
0.37800	737734
0.37867	740691
0.37933	743589
0.38000	746424
0.38067	749196
0.38133	751905
0.38200	754551
0.38267	757137
0.38333	759666
0.38400	762141
0.38467	764564
0.38533	766937
0.38600	769259
0.38667	771527
0.38733	773739
0.38800	775891
0.38867	777979
0.38933	780000
0.39000	781948
0.39067	783818
0.39133	785607
0.39200	787307
0.39267	788917
0.39333	790431
0.39400	791848
0.39467	793166
0.39533	794384
0.39600	795503
0.39667	796522
0.39733	797439
0.39800	798256
0.39867	798971
0.39933	799584
0.40000	800092
0.40067	800491
0.40133	800777
0.40200	800944
0.40267	800985
0.40333	800892
0.40400	800658
0.40467	800273
0.40533	799728
0.40600	799014
0.40667	798120
0.40733	797036
0.40800	795751
0.40867	794250
0.40933	792520
0.41000	790547
0.41067	788315
0.41133	785810
0.41200	783018
0.41267	779927
0.41333	776525
0.41400	772802
0.41467	768748
0.41533	764355
0.41600	759615
0.41667	754524
0.41733	749080
0.41800	743287
0.41867	737150
0.41933	730680
0.42000	723889
0.42067	716794
0.42133	709410
0.42200	701758
0.42267	693856
0.42333	685727
0.42400	677390
0.42467	668866
0.42533	660175
0.42600	651338
0.42667	642373
0.42733	633298
0.42800	624130
0.42867	614887
0.42933	605584
0.43000	596236
0.43067	586858
0.43133	577462
0.43200	568063
0.43267	558672
0.43333	549300
0.43400	539957
0.43467	530654
0.43533	521400
0.43600	512202
0.43667	503069
0.43733	494008
0.43800	485025
0.43867	476127
0.43933	467319
0.44000	458606
0.44067	449993
0.44133	441485
0.44200	433084
0.44267	424795
0.44333	416620
0.44400	408562
0.44467	400622
0.44533	392803
0.44600	385106
0.44667	377532
0.44733	370083
0.44800	362759
0.44867	355560
0.44933	348488
0.45000	341544
0.45067	334726
0.45133	328037
0.45200	321475
0.45267	315041
0.45333	308735
0.45400	302556
0.45467	296503
0.45533	290577
0.45600	284775
0.45667	279097
0.45733	273542
0.45800	268109
0.45867	262797
0.45933	257605
0.46000	252531
0.46067	247575
0.46133	242735
0.46200	238010
0.46267	233399
0.46333	228901
0.46400	224515
0.46467	220241
0.46533	216077
0.46600	212023
0.46667	208079
0.46733	204243
0.46800	200515
0.46867	196895
0.46933	193382
0.47000	189975
0.47067	186672
0.47133	183470
0.47200	180366
0.47267	177356
0.47333	174439
0.47400	171613
0.47467	168873
0.47533	166218
0.47600	163645
0.47667	161152
0.47733	158735
0.47800	156393
0.47867	154122
0.47933	151920
0.48000	149784
0.48067	147713
0.48133	145704
0.48200	143754
0.48267	141863
0.48333	140027
0.48400	138245
0.48467	136516
0.48533	134836
0.48600	133204
0.48667	131620
0.48733	130080
0.48800	128584
0.48867	127129
0.48933	125715
0.49000	124339
0.49067	123001
0.49133	121700
0.49200	120433
0.49267	119199
0.49333	117997
0.49400	116826
0.49467	115684
0.49533	114570
0.49600	113484
0.49667	112423
0.49733	111387
0.49800	110374
0.49867	109384
0.49933	108417
0.50000	107470
0.50067	106543
0.50133	105636
0.50200	104747
0.50267	103876
0.50333	103023
0.50400	102185
0.50467	101364
0.50533	100558
0.50600	99766
0.50667	98988
0.50733	98224
0.50800	97473
0.50867	96735
0.50933	96009
0.51000	95294
0.51067	94590
0.51133	93897
0.51200	93215
0.51267	92542
0.51333	91879
0.51400	91225
0.51467	90580
0.51533	89944
0.51600	89316
0.51667	88697
0.51733	88085
0.51800	87481
0.51867	86884
0.51933	86294
0.52000	85711
0.52067	85135
0.52133	84566
0.52200	84002
0.52267	83445
0.52333	82894
0.52400	82348
0.52467	81808
0.52533	81274
0.52600	80745
0.52667	80220
0.52733	79701
0.52800	79187
0.52867	78678
0.52933	78173
0.53000	77672
0.53067	77176
0.53133	76685
0.53200	76197
0.53267	75714
0.53333	75235
0.53400	74760
0.53467	74289
0.53533	73821
0.53600	73358
0.53667	72898
0.53733	72442
0.53800	71990
0.53867	71541
0.53933	71096
0.54000	70654
0.54067	70215
0.54133	69780
0.54200	69349
0.54267	68920
0.54333	68496
0.54400	68074
0.54467	67656
0.54533	67242
0.54600	66831
0.54667	66424
0.54733	66020
0.54800	65621
0.54867	65225
0.54933	64833
0.55000	64445
0.55067	64061
0.55133	63681
0.55200	63305
0.55267	62934
0.55333	62567
0.55400	62205
0.55467	61847
0.55533	61494
0.55600	61145
0.55667	60800
0.55733	60459
0.55800	60123
0.55867	59790
0.55933	59462
0.56000	59136
0.56067	58814
0.56133	58496
0.56200	58180
0.56267	57867
0.56333	57556
0.56400	57248
0.56467	56943
0.56533	56639
0.56600	56337
0.56667	56037
0.56733	55738
0.56800	55441
0.56867	55146
0.56933	54851
0.57000	54558
0.57067	54267
0.57133	53976
0.57200	53687
0.57267	53399
0.57333	53112
0.57400	52826
0.57467	52541
0.57533	52258
0.57600	51976
0.57667	51695
0.57733	51416
0.57800	51137
0.57867	50860
0.57933	50585
0.58000	50310
0.58067	50036
0.58133	49764
0.58200	49493
0.58267	49224
0.58333	48955
0.58400	48688
0.58467	48422
0.58533	48157
0.58600	47894
0.58667	47632
0.58733	47371
0.58800	47111
0.58867	46853
0.58933	46597
0.59000	46341
0.59067	46088
0.59133	45836
0.59200	45585
0.59267	45336
0.59333	45088
0.59400	44842
0.59467	44597
0.59533	44354
0.59600	44113
0.59667	43873
0.59733	43635
0.59800	43399
0.59867	43164
0.59933	42931
0.60000	42699
0.60067	42469
0.60133	42241
0.60200	42015
0.60267	41790
0.60333	41567
0.60400	41346
0.60467	41126
0.60533	40909
0.60600	40693
0.60667	40478
0.60733	40266
0.60800	40055
0.60867	39846
0.60933	39639
0.61000	39433
0.61067	39229
0.61133	39027
0.61200	38827
0.61267	38628
0.61333	38432
0.61400	38237
0.61467	38044
0.61533	37852
0.61600	37663
0.61667	37475
0.61733	37289
0.61800	37105
0.61867	36922
0.61933	36741
0.62000	36561
0.62067	36384
0.62133	36207
0.62200	36033
0.62267	35859
0.62333	35687
0.62400	35517
0.62467	35348
0.62533	35180
0.62600	35014
0.62667	34849
0.62733	34686
0.62800	34523
0.62867	34362
0.62933	34203
0.63000	34044
0.63067	33887
0.63133	33731
0.63200	33576
0.63267	33423
0.63333	33270
0.63400	33119
0.63467	32969
0.63533	32820
0.63600	32673
0.63667	32526
0.63733	32382
0.63800	32238
0.63867	32095
0.63933	31954
0.64000	31815
0.64067	31676
0.64133	31539
0.64200	31403
0.64267	31269
0.64333	31136
0.64400	31004
0.64467	30874
0.64533	30745
0.64600	30617
0.64667	30490
0.64733	30364
0.64800	30240
0.64867	30116
0.64933	29994
0.65000	29872
0.65067	29752
0.65133	29632
0.65200	29514
0.65267	29396
0.65333	29279
0.65400	29163
0.65467	29047
0.65533	28932
0.65600	28818
0.65667	28704
0.65733	28591
0.65800	28479
0.65867	28367
0.65933	28256
0.66000	28145
0.66067	28034
0.66133	27925
0.66200	27815
0.66267	27706
0.66333	27598
0.66400	27490
0.66467	27383
0.66533	27276
0.66600	27169
0.66667	27063
0.66733	26958
0.66800	26853
0.66867	26748
0.66933	26644
0.67000	26541
0.67067	26438
0.67133	26336
0.67200	26234
0.67267	26132
0.67333	26031
0.67400	25931
0.67467	25831
0.67533	25732
0.67600	25633
0.67667	25535
0.67733	25438
0.67800	25342
0.67867	25246
0.67933	25151
0.68000	25058
0.68067	24965
0.68133	24874
0.68200	24783
0.68267	24694
0.68333	24607
0.68400	24521
0.68467	24437
0.68533	24355
0.68600	24275
0.68667	24197
0.68733	24121
0.68800	24048
0.68867	23978
0.68933	23911
0.69000	23847
0.69067	23786
0.69133	23728
0.69200	23674
0.69267	23624
0.69333	23578
0.69400	23535
0.69467	23497
0.69533	23463
0.69600	23433
0.69667	23407
0.69733	23384
0.69800	23365
0.69867	23350
0.69933	23338
0.70000	23328
0.70067	23321
0.70133	23316
0.70200	23313
0.70267	23312
0.70333	23311
0.70400	23310
0.70467	23310
0.70533	23309
0.70600	23307
0.70667	23305
0.70733	23300
0.70800	23294
0.70867	23286
0.70933	23275
0.71000	23261
0.71067	23245
0.71133	23226
0.71200	23203
0.71267	23177
0.71333	23148
0.71400	23116
0.71467	23080
0.71533	23042
0.71600	23000
0.71667	22955
0.71733	22908
0.71800	22857
0.71867	22804
0.71933	22748
0.72000	22690
0.72067	22630
0.72133	22567
0.72200	22503
0.72267	22436
0.72333	22368
0.72400	22298
0.72467	22227
0.72533	22154
0.72600	22080
0.72667	22005
0.72733	21929
0.72800	21852
0.72867	21774
0.72933	21696
0.73000	21617
0.73067	21537
0.73133	21457
0.73200	21376
0.73267	21296
0.73333	21215
0.73400	21133
0.73467	21052
0.73533	20971
0.73600	20890
0.73667	20808
0.73733	20727
0.73800	20646
0.73867	20565
0.73933	20485
0.74000	20404
0.74067	20324
0.74133	20244
0.74200	20164
0.74267	20085
0.74333	20006
0.74400	19927
0.74467	19849
0.74533	19771
0.74600	19694
0.74667	19617
0.74733	19541
0.74800	19465
0.74867	19389
0.74933	19314
0.75000	19240
0.75067	19166
0.75133	19093
0.75200	19020
0.75267	18947
0.75333	18876
0.75400	18804
0.75467	18734
0.75533	18664
0.75600	18594
0.75667	18525
0.75733	18457
0.75800	18389
0.75867	18322
0.75933	18256
0.76000	18190
0.76067	18124
0.76133	18059
0.76200	17995
0.76267	17932
0.76333	17869
0.76400	17806
0.76467	17744
0.76533	17683
0.76600	17622
0.76667	17562
0.76733	17502
0.76800	17443
0.76867	17385
0.76933	17327
0.77000	17269
0.77067	17213
0.77133	17156
0.77200	17101
0.77267	17045
0.77333	16991
0.77400	16937
0.77467	16883
0.77533	16830
0.77600	16777
0.77667	16725
0.77733	16674
0.77800	16623
0.77867	16572
0.77933	16522
0.78000	16473
0.78067	16424
0.78133	16375
0.78200	16327
0.78267	16279
0.78333	16232
0.78400	16185
0.78467	16139
0.78533	16093
0.78600	16047
0.78667	16002
0.78733	15957
0.78800	15913
0.78867	15869
0.78933	15826
0.79000	15783
0.79067	15740
0.79133	15698
0.79200	15656
0.79267	15615
0.79333	15574
0.79400	15533
0.79467	15492
0.79533	15452
0.79600	15413
0.79667	15374
0.79733	15335
0.79800	15296
0.79867	15258
0.79933	15220
0.80000	15182
0.80067	15145
0.80133	15108
0.80200	15072
0.80267	15035
0.80333	14999
0.80400	14963
0.80467	14928
0.80533	14893
0.80600	14858
0.80667	14823
0.80733	14789
0.80800	14755
0.80867	14721
0.80933	14688
0.81000	14655
0.81067	14622
0.81133	14589
0.81200	14557
0.81267	14525
0.81333	14493
0.81400	14462
0.81467	14431
0.81533	14400
0.81600	14369
0.81667	14339
0.81733	14309
0.81800	14280
0.81867	14251
0.81933	14222
0.82000	14193
0.82067	14164
0.82133	14136
0.82200	14108
0.82267	14080
0.82333	14053
0.82400	14026
0.82467	13998
0.82533	13971
0.82600	13945
0.82667	13918
0.82733	13892
0.82800	13865
0.82867	13839
0.82933	13813
0.83000	13788
0.83067	13762
0.83133	13737
0.83200	13712
0.83267	13687
0.83333	13662
0.83400	13637
0.83467	13612
0.83533	13588
0.83600	13563
0.83667	13539
0.83733	13515
0.83800	13490
0.83867	13466
0.83933	13443
0.84000	13419
0.84067	13395
0.84133	13371
0.84200	13348
0.84267	13325
0.84333	13302
0.84400	13278
0.84467	13256
0.84533	13233
0.84600	13210
0.84667	13187
0.84733	13165
0.84800	13142
0.84867	13120
0.84933	13097
0.85000	13075
0.85067	13052
0.85133	13030
0.85200	13008
0.85267	12986
0.85333	12964
0.85400	12942
0.85467	12920
0.85533	12898
0.85600	12876
0.85667	12854
0.85733	12833
0.85800	12811
0.85867	12790
0.85933	12768
0.86000	12747
0.86067	12725
0.86133	12704
0.86200	12683
0.86267	12661
0.86333	12640
0.86400	12619
0.86467	12598
0.86533	12577
0.86600	12556
0.86667	12535
0.86733	12515
0.86800	12494
0.86867	12473
0.86933	12453
0.87000	12433
0.87067	12412
0.87133	12392
0.87200	12372
0.87267	12352
0.87333	12332
0.87400	12312
0.87467	12292
0.87533	12273
0.87600	12253
0.87667	12233
0.87733	12214
0.87800	12195
0.87867	12176
0.87933	12156
0.88000	12137
0.88067	12119
0.88133	12100
0.88200	12081
0.88267	12062
0.88333	12044
0.88400	12025
0.88467	12007
0.88533	11988
0.88600	11970
0.88667	11952
0.88733	11934
0.88800	11916
0.88867	11899
0.88933	11881
0.89000	11864
0.89067	11846
0.89133	11829
0.89200	11812
0.89267	11795
0.89333	11778
0.89400	11761
0.89467	11744
0.89533	11727
0.89600	11710
0.89667	11694
0.89733	11677
0.89800	11661
0.89867	11645
0.89933	11628
0.90000	11612
0.90067	11596
0.90133	11580
0.90200	11564
0.90267	11548
0.90333	11532
0.90400	11517
0.90467	11501
0.90533	11485
0.90600	11470
0.90667	11454
0.90733	11439
0.90800	11423
0.90867	11408
0.90933	11392
0.91000	11377
0.91067	11362
0.91133	11347
0.91200	11331
0.91267	11316
0.91333	11301
0.91400	11286
0.91467	11271
0.91533	11257
0.91600	11242
0.91667	11227
0.91733	11213
0.91800	11198
0.91867	11184
0.91933	11169
0.92000	11155
0.92067	11140
0.92133	11126
0.92200	11112
0.92267	11098
0.92333	11084
0.92400	11070
0.92467	11056
0.92533	11042
0.92600	11028
0.92667	11014
0.92733	11001
0.92800	10987
0.92867	10974
0.92933	10960
0.93000	10947
0.93067	10933
0.93133	10920
0.93200	10907
0.93267	10894
0.93333	10881
0.93400	10867
0.93467	10854
0.93533	10842
0.93600	10829
0.93667	10816
0.93733	10803
0.93800	10790
0.93867	10777
0.93933	10765
0.94000	10752
0.94067	10739
0.94133	10727
0.94200	10714
0.94267	10701
0.94333	10689
0.94400	10676
0.94467	10664
0.94533	10651
0.94600	10639
0.94667	10626
0.94733	10614
0.94800	10601
0.94867	10589
0.94933	10576
0.95000	10564
0.95067	10551
0.95133	10539
0.95200	10527
0.95267	10515
0.95333	10502
0.95400	10490
0.95467	10478
0.95533	10467
0.95600	10455
0.95667	10443
0.95733	10432
0.95800	10420
0.95867	10409
0.95933	10398
0.96000	10387
0.96067	10376
0.96133	10365
0.96200	10355
0.96267	10344
0.96333	10334
0.96400	10323
0.96467	10313
0.96533	10303
0.96600	10293
0.96667	10283
0.96733	10273
0.96800	10263
0.96867	10253
0.96933	10243
0.97000	10233
0.97067	10224
0.97133	10214
0.97200	10204
0.97267	10194
0.97333	10184
0.97400	10174
0.97467	10164
0.97533	10154
0.97600	10144
0.97667	10133
0.97733	10123
0.97800	10112
0.97867	10102
0.97933	10091
0.98000	10080
0.98067	10070
0.98133	10059
0.98200	10048
0.98267	10037
0.98333	10026
0.98400	10015
0.98467	10004
0.98533	9993
0.98600	9981
0.98667	9970
0.98733	9959
0.98800	9947
0.98867	9936
0.98933	9925
0.99000	9913
0.99067	9902
0.99133	9890
0.99200	9879
0.99267	9867
0.99333	9856
0.99400	9844
0.99467	9833
0.99533	9821
0.99600	9810
0.99667	9798
0.99733	9787
0.99800	9776
0.99867	9764
0.99933	9753
1.00000	9741
1.00067	9730
1.00133	9718
1.00200	9707
1.00267	9696
1.00333	9684
1.00400	9673
1.00467	9662
1.00533	9651
1.00600	9640
1.00667	9629
1.00733	9618
1.00800	9607
1.00867	9596
1.00933	9585
1.01000	9575
1.01067	9564
1.01133	9554
1.01200	9544
1.01267	9534
1.01333	9524
1.01400	9514
1.01467	9504
1.01533	9494
1.01600	9485
1.01667	9476
1.01733	9467
1.01800	9458
1.01867	9449
1.01933	9441
1.02000	9433
1.02067	9424
1.02133	9416
1.02200	9408
1.02267	9401
1.02333	9393
1.02400	9386
1.02467	9378
1.02533	9371
1.02600	9364
1.02667	9358
1.02733	9351
1.02800	9344
1.02867	9338
1.02933	9331
1.03000	9325
1.03067	9318
1.03133	9312
1.03200	9306
1.03267	9300
1.03333	9294
1.03400	9287
1.03467	9281
1.03533	9275
1.03600	9268
1.03667	9262
1.03733	9255
1.03800	9248
1.03867	9241
1.03933	9235
1.04000	9228
1.04067	9220
1.04133	9213
1.04200	9206
1.04267	9199
1.04333	9191
1.04400	9184
1.04467	9176
1.04533	9169
1.04600	9161
1.04667	9153
1.04733	9145
1.04800	9137
1.04867	9130
1.04933	9122
1.05000	9113
1.05067	9105
1.05133	9097
1.05200	9089
1.05267	9081
1.05333	9072
1.05400	9064
1.05467	9056
1.05533	9048
1.05600	9039
1.05667	9031
1.05733	9023
1.05800	9015
1.05867	9006
1.05933	8998
1.06000	8990
1.06067	8981
1.06133	8973
1.06200	8965
1.06267	8956
1.06333	8948
1.06400	8940
1.06467	8931
1.06533	8923
1.06600	8915
1.06667	8906
1.06733	8898
1.06800	8890
1.06867	8881
1.06933	8873
1.07000	8865
1.07067	8856
1.07133	8848
1.07200	8840
1.07267	8832
1.07333	8823
1.07400	8815
1.07467	8807
1.07533	8799
1.07600	8790
1.07667	8782
1.07733	8774
1.07800	8766
1.07867	8758
1.07933	8750
1.08000	8741
1.08067	8733
1.08133	8725
1.08200	8717
1.08267	8709
1.08333	8701
1.08400	8693
1.08467	8685
1.08533	8677
1.08600	8669
1.08667	8661
1.08733	8653
1.08800	8645
1.08867	8637
1.08933	8629
1.09000	8621
1.09067	8613
1.09133	8605
1.09200	8597
1.09267	8589
1.09333	8582
1.09400	8574
1.09467	8566
1.09533	8558
1.09600	8550
1.09667	8542
1.09733	8535
1.09800	8527
1.09867	8519
1.09933	8512
1.10000	8504
1.10067	8497
1.10133	8489
1.10200	8482
1.10267	8474
1.10333	8467
1.10400	8460
1.10467	8452
1.10533	8445
1.10600	8438
1.10667	8431
1.10733	8423
1.10800	8416
1.10867	8409
1.10933	8402
1.11000	8395
1.11067	8388
1.11133	8381
1.11200	8374
1.11267	8367
1.11333	8361
1.11400	8354
1.11467	8347
1.11533	8341
1.11600	8334
1.11667	8327
1.11733	8321
1.11800	8314
1.11867	8308
1.11933	8301
1.12000	8295
1.12067	8289
1.12133	8283
1.12200	8277
1.12267	8271
1.12333	8265
1.12400	8259
1.12467	8253
1.12533	8247
1.12600	8241
1.12667	8236
1.12733	8230
1.12800	8225
1.12867	8219
1.12933	8214
1.13000	8209
1.13067	8203
1.13133	8198
1.13200	8193
1.13267	8188
1.13333	8183
1.13400	8178
1.13467	8174
1.13533	8169
1.13600	8165
1.13667	8160
1.13733	8156
1.13800	8152
1.13867	8148
1.13933	8145
1.14000	8141
1.14067	8137
1.14133	8134
1.14200	8131
1.14267	8127
1.14333	8124
1.14400	8121
1.14467	8118
1.14533	8115
1.14600	8112
1.14667	8109
1.14733	8106
1.14800	8103
1.14867	8100
1.14933	8097
1.15000	8093
1.15067	8090
1.15133	8087
1.15200	8084
1.15267	8081
1.15333	8078
1.15400	8074
1.15467	8071
1.15533	8068
1.15600	8064
1.15667	8061
1.15733	8057
1.15800	8053
1.15867	8049
1.15933	8045
1.16000	8041
1.16067	8037
1.16133	8033
1.16200	8029
1.16267	8024
1.16333	8020
1.16400	8016
1.16467	8011
1.16533	8007
1.16600	8002
1.16667	7998
1.16733	7993
1.16800	7988
1.16867	7984
1.16933	7979
1.17000	7974
1.17067	7969
1.17133	7965
1.17200	7960
1.17267	7955
1.17333	7950
1.17400	7945
1.17467	7940
1.17533	7935
1.17600	7930
1.17667	7925
1.17733	7920
1.17800	7915
1.17867	7911
1.17933	7906
1.18000	7901
1.18067	7896
1.18133	7891
1.18200	7886
1.18267	7881
1.18333	7876
1.18400	7872
1.18467	7867
1.18533	7862
1.18600	7857
1.18667	7852
1.18733	7848
1.18800	7843
1.18867	7838
1.18933	7834
1.19000	7829
1.19067	7824
1.19133	7820
1.19200	7815
1.19267	7811
1.19333	7807
1.19400	7802
1.19467	7798
1.19533	7794
1.19600	7789
1.19667	7785
1.19733	7781
1.19800	7777
1.19867	7773
1.19933	7769
1.20000	7765
1.20067	7761
1.20133	7757
1.20200	7753
1.20267	7749
1.20333	7746
1.20400	7742
1.20467	7739
1.20533	7735
1.20600	7732
1.20667	7728
1.20733	7725
1.20800	7722
1.20867	7719
1.20933	7716
1.21000	7713
1.21067	7709
1.21133	7706
1.21200	7703
1.21267	7700
1.21333	7697
1.21400	7694
1.21467	7692
1.21533	7689
1.21600	7686
1.21667	7683
1.21733	7680
1.21800	7678
1.21867	7675
1.21933	7673
1.22000	7670
1.22067	7668
1.22133	7665
1.22200	7663
1.22267	7660
1.22333	7658
1.22400	7656
1.22467	7653
1.22533	7651
1.22600	7649
1.22667	7647
1.22733	7645
1.22800	7643
1.22867	7641
1.22933	7639
1.23000	7637
1.23067	7636
1.23133	7634
1.23200	7633
1.23267	7631
1.23333	7630
1.23400	7628
1.23467	7627
1.23533	7626
1.23600	7625
1.23667	7623
1.23733	7622
1.23800	7621
1.23867	7620
1.23933	7619
1.24000	7618
1.24067	7617
1.24133	7616
1.24200	7615
1.24267	7614
1.24333	7614
1.24400	7613
1.24467	7612
1.24533	7611
1.24600	7611
1.24667	7610
1.24733	7609
1.24800	7609
1.24867	7608
1.24933	7608
1.25000	7608
1.25067	7607
1.25133	7607
1.25200	7607
1.25267	7607
1.25333	7607
1.25400	7607
1.25467	7607
1.25533	7607
1.25600	7608
1.25667	7608
1.25733	7609
1.25800	7609
1.25867	7610
1.25933	7611
1.26000	7612
1.26067	7614
1.26133	7615
1.26200	7617
1.26267	7619
1.26333	7621
1.26400	7623
1.26467	7626
1.26533	7629
1.26600	7632
1.26667	7636
1.26733	7639
1.26800	7644
1.26867	7648
1.26933	7653
1.27000	7658
1.27067	7664
1.27133	7670
1.27200	7676
1.27267	7683
1.27333	7690
1.27400	7697
1.27467	7705
1.27533	7713
1.27600	7722
1.27667	7730
1.27733	7740
1.27800	7749
1.27867	7758
1.27933	7768
1.28000	7779
1.28067	7789
1.28133	7799
1.28200	7810
1.28267	7821
1.28333	7832
1.28400	7843
1.28467	7854
1.28533	7865
1.28600	7877
1.28667	7888
1.28733	7899
1.28800	7909
1.28867	7920
1.28933	7930
1.29000	7940
1.29067	7950
1.29133	7960
1.29200	7969
1.29267	7978
1.29333	7986
1.29400	7995
1.29467	8002
1.29533	8010
1.29600	8017
1.29667	8023
1.29733	8029
1.29800	8035
1.29867	8040
1.29933	8045
1.30000	8049
1.30067	8053
1.30133	8056
1.30200	8059
1.30267	8062
1.30333	8064
1.30400	8065
1.30467	8066
1.30533	8067
1.30600	8068
1.30667	8068
1.30733	8067
1.30800	8067
1.30867	8065
1.30933	8064
1.31000	8062
1.31067	8060
1.31133	8058
1.31200	8055
1.31267	8052
1.31333	8049
1.31400	8045
1.31467	8042
1.31533	8038
1.31600	8033
1.31667	8029
1.31733	8024
1.31800	8019
1.31867	8014
1.31933	8008
1.32000	8002
1.32067	7996
1.32133	7990
1.32200	7984
1.32267	7977
1.32333	7971
1.32400	7964
1.32467	7957
1.32533	7950
1.32600	7942
1.32667	7935
1.32733	7927
1.32800	7920
1.32867	7912
1.32933	7904
1.33000	7896
1.33067	7888
1.33133	7880
1.33200	7872
1.33267	7864
1.33333	7856
1.33400	7847
1.33467	7839
1.33533	7830
1.33600	7821
1.33667	7813
1.33733	7804
1.33800	7795
1.33867	7786
1.33933	7778
1.34000	7769
1.34067	7760
1.34133	7751
1.34200	7742
1.34267	7733
1.34333	7724
1.34400	7715
1.34467	7706
1.34533	7697
1.34600	7688
1.34667	7679
1.34733	7670
1.34800	7661
1.34867	7652
1.34933	7644
1.35000	7635
1.35067	7626
1.35133	7618
1.35200	7609
1.35267	7601
1.35333	7593
1.35400	7584
1.35467	7576
1.35533	7568
1.35600	7560
1.35667	7552
1.35733	7545
1.35800	7537
1.35867	7529
1.35933	7522
1.36000	7515
1.36067	7507
1.36133	7500
1.36200	7493
1.36267	7486
1.36333	7479
1.36400	7472
1.36467	7465
1.36533	7458
1.36600	7452
1.36667	7445
1.36733	7438
1.36800	7432
1.36867	7425
1.36933	7419
1.37000	7413
1.37067	7406
1.37133	7400
1.37200	7394
1.37267	7388
1.37333	7382
1.37400	7376
1.37467	7371
1.37533	7365
1.37600	7359
1.37667	7354
1.37733	7348
1.37800	7343
1.37867	7338
1.37933	7333
1.38000	7327
1.38067	7322
1.38133	7317
1.38200	7312
1.38267	7307
1.38333	7303
1.38400	7298
1.38467	7293
1.38533	7288
1.38600	7283
1.38667	7279
1.38733	7274
1.38800	7269
1.38867	7265
1.38933	7260
1.39000	7256
1.39067	7251
1.39133	7247
1.39200	7242
1.39267	7238
1.39333	7233
1.39400	7229
1.39467	7224
1.39533	7220
1.39600	7216
1.39667	7212
1.39733	7207
1.39800	7203
1.39867	7199
1.39933	7195
1.40000	7191
1.40067	7187
1.40133	7183
1.40200	7179
1.40267	7175
1.40333	7171
1.40400	7167
1.40467	7164
1.40533	7160
1.40600	7156
1.40667	7152
1.40733	7149
1.40800	7145
1.40867	7141
1.40933	7138
1.41000	7134
1.41067	7130
1.41133	7127
1.41200	7123
1.41267	7120
1.41333	7116
1.41400	7113
1.41467	7109
1.41533	7106
1.41600	7103
1.41667	7099
1.41733	7096
1.41800	7092
1.41867	7089
1.41933	7086
1.42000	7083
1.42067	7079
1.42133	7076
1.42200	7073
1.42267	7070
1.42333	7067
1.42400	7064
1.42467	7061
1.42533	7058
1.42600	7055
1.42667	7052
1.42733	7049
1.42800	7046
1.42867	7043
1.42933	7040
1.43000	7037
1.43067	7035
1.43133	7032
1.43200	7029
1.43267	7026
1.43333	7023
1.43400	7020
1.43467	7018
1.43533	7015
1.43600	7012
1.43667	7009
1.43733	7006
1.43800	7004
1.43867	7001
1.43933	6998
1.44000	6996
1.44067	6993
1.44133	6990
1.44200	6988
1.44267	6985
1.44333	6983
1.44400	6980
1.44467	6978
1.44533	6975
1.44600	6973
1.44667	6970
1.44733	6968
1.44800	6965
1.44867	6963
1.44933	6961
1.45000	6958
1.45067	6956
1.45133	6953
1.45200	6951
1.45267	6949
1.45333	6946
1.45400	6944
1.45467	6942
1.45533	6939
1.45600	6937
1.45667	6935
1.45733	6933
1.45800	6931
1.45867	6929
1.45933	6927
1.46000	6925
1.46067	6922
1.46133	6920
1.46200	6918
1.46267	6916
1.46333	6914
1.46400	6912
1.46467	6911
1.46533	6909
1.46600	6907
1.46667	6905
1.46733	6903
1.46800	6901
1.46867	6899
1.46933	6897
1.47000	6895
1.47067	6893
1.47133	6891
1.47200	6890
1.47267	6888
1.47333	6886
1.47400	6884
1.47467	6882
1.47533	6880
1.47600	6878
1.47667	6876
1.47733	6874
1.47800	6872
1.47867	6870
1.47933	6868
1.48000	6866
1.48067	6864
1.48133	6862
1.48200	6860
1.48267	6858
1.48333	6856
1.48400	6853
1.48467	6851
1.48533	6849
1.48600	6847
1.48667	6844
1.48733	6842
1.48800	6840
1.48867	6837
1.48933	6835
1.49000	6832
1.49067	6830
1.49133	6827
1.49200	6825
1.49267	6822
1.49333	6820
1.49400	6818
1.49467	6815
1.49533	6813
1.49600	6810
1.49667	6808
1.49733	6805
1.49800	6803
1.49867	6800
1.49933	6798
1.50000	6795
1.50067	6793
1.50133	6790
1.50200	6788
1.50267	6786
1.50333	6783
1.50400	6781
1.50467	6778
1.50533	6776
1.50600	6774
1.50667	6771
1.50733	6769
1.50800	6766
1.50867	6764
1.50933	6762
1.51000	6759
1.51067	6757
1.51133	6755
1.51200	6752
1.51267	6750
1.51333	6748
1.51400	6745
1.51467	6743
1.51533	6741
1.51600	6738
1.51667	6736
1.51733	6734
1.51800	6731
1.51867	6729
1.51933	6727
1.52000	6724
1.52067	6722
1.52133	6720
1.52200	6718
1.52267	6715
1.52333	6713
1.52400	6711
1.52467	6709
1.52533	6707
1.52600	6705
1.52667	6703
1.52733	6701
1.52800	6698
1.52867	6696
1.52933	6694
1.53000	6692
1.53067	6690
1.53133	6688
1.53200	6686
1.53267	6684
1.53333	6682
1.53400	6680
1.53467	6678
1.53533	6676
1.53600	6674
1.53667	6672
1.53733	6670
1.53800	6668
1.53867	6666
1.53933	6664
1.54000	6662
1.54067	6660
1.54133	6658
1.54200	6656
1.54267	6654
1.54333	6652
1.54400	6650
1.54467	6648
1.54533	6646
1.54600	6644
1.54667	6642
1.54733	6641
1.54800	6639
1.54867	6637
1.54933	6635
1.55000	6633
1.55067	6632
1.55133	6630
1.55200	6628
1.55267	6626
1.55333	6625
1.55400	6623
1.55467	6621
1.55533	6620
1.55600	6618
1.55667	6616
1.55733	6615
1.55800	6613
1.55867	6611
1.55933	6609
1.56000	6608
1.56067	6606
1.56133	6604
1.56200	6603
1.56267	6601
1.56333	6600
1.56400	6598
1.56467	6596
1.56533	6595
1.56600	6593
1.56667	6592
1.56733	6590
1.56800	6589
1.56867	6587
1.56933	6586
1.57000	6584
1.57067	6583
1.57133	6581
1.57200	6580
1.57267	6578
1.57333	6577
1.57400	6575
1.57467	6574
1.57533	6572
1.57600	6570
1.57667	6569
1.57733	6567
1.57800	6566
1.57867	6564
1.57933	6562
1.58000	6561
1.58067	6559
1.58133	6558
1.58200	6556
1.58267	6555
1.58333	6553
1.58400	6552
1.58467	6551
1.58533	6549
1.58600	6548
1.58667	6547
1.58733	6546
1.58800	6545
1.58867	6544
1.58933	6543
1.59000	6542
1.59067	6541
1.59133	6539
1.59200	6538
1.59267	6537
1.59333	6536
1.59400	6535
1.59467	6534
1.59533	6533
1.59600	6532
1.59667	6531
1.59733	6530
1.59800	6529
1.59867	6528
1.59933	6527
1.60000	6526
1.60067	6525
1.60133	6524
1.60200	6523
1.60267	6522
1.60333	6521
1.60400	6520
1.60467	6519
1.60533	6518
1.60600	6516
1.60667	6515
1.60733	6514
1.60800	6513
1.60867	6512
1.60933	6511
1.61000	6510
1.61067	6509
1.61133	6508
1.61200	6507
1.61267	6506
1.61333	6505
1.61400	6504
1.61467	6502
1.61533	6501
1.61600	6500
1.61667	6499
1.61733	6498
1.61800	6497
1.61867	6496
1.61933	6494
1.62000	6493
1.62067	6492
1.62133	6491
1.62200	6490
1.62267	6489
1.62333	6488
1.62400	6487
1.62467	6486
1.62533	6485
1.62600	6484
1.62667	6483
1.62733	6482
1.62800	6481
1.62867	6480
1.62933	6479
1.63000	6478
1.63067	6477
1.63133	6476
1.63200	6476
1.63267	6475
1.63333	6474
1.63400	6474
1.63467	6473
1.63533	6472
1.63600	6472
1.63667	6471
1.63733	6470
1.63800	6470
1.63867	6469
1.63933	6469
1.64000	6468
1.64067	6467
1.64133	6467
1.64200	6466
1.64267	6466
1.64333	6465
1.64400	6465
1.64467	6464
1.64533	6463
1.64600	6463
1.64667	6462
1.64733	6462
1.64800	6462
1.64867	6461
1.64933	6461
1.65000	6460
1.65067	6460
1.65133	6460
1.65200	6460
1.65267	6459
1.65333	6459
1.65400	6459
1.65467	6459
1.65533	6459
1.65600	6458
1.65667	6458
1.65733	6458
1.65800	6458
1.65867	6457
1.65933	6457
1.66000	6457
1.66067	6456
1.66133	6456
1.66200	6456
1.66267	6455
1.66333	6455
1.66400	6455
1.66467	6454
1.66533	6454
1.66600	6454
1.66667	6453
1.66733	6453
1.66800	6453
1.66867	6452
1.66933	6452
1.67000	6451
1.67067	6451
1.67133	6450
1.67200	6450
1.67267	6449
1.67333	6449
1.67400	6448
1.67467	6448
1.67533	6447
1.67600	6446
1.67667	6446
1.67733	6445
1.67800	6444
1.67867	6443
1.67933	6442
1.68000	6441
1.68067	6440
1.68133	6439
1.68200	6438
1.68267	6437
1.68333	6436
1.68400	6435
1.68467	6434
1.68533	6433
1.68600	6432
1.68667	6431
1.68733	6429
1.68800	6428
1.68867	6427
1.68933	6426
1.69000	6424
1.69067	6423
1.69133	6422
1.69200	6421
1.69267	6419
1.69333	6418
1.69400	6417
1.69467	6415
1.69533	6414
1.69600	6413
1.69667	6412
1.69733	6410
1.69800	6409
1.69867	6408
1.69933	6407
1.70000	6405
1.70067	6404
1.70133	6403
1.70200	6402
1.70267	6401
1.70333	6399
1.70400	6398
1.70467	6397
1.70533	6396
1.70600	6395
1.70667	6394
1.70733	6393
1.70800	6392
1.70867	6391
1.70933	6390
1.71000	6388
1.71067	6388
1.71133	6387
1.71200	6386
1.71267	6385
1.71333	6384
1.71400	6384
1.71467	6383
1.71533	6383
1.71600	6384
1.71667	6384
1.71733	6385
1.71800	6387
1.71867	6389
1.71933	6392
1.72000	6396
1.72067	6401
1.72133	6407
1.72200	6416
1.72267	6427
1.72333	6440
1.72400	6457
1.72467	6478
1.72533	6504
1.72600	6535
1.72667	6573
1.72733	6618
1.72800	6673
1.72867	6739
1.72933	6818
1.73000	6911
1.73067	7022
1.73133	7154
1.73200	7308
1.73267	7489
1.73333	7700
1.73400	7945
1.73467	8230
1.73533	8560
1.73600	8939
1.73667	9374
1.73733	9872
1.73800	10438
1.73867	11080
1.73933	11805
1.74000	12621
1.74067	13535
1.74133	14557
1.74200	15695
1.74267	16957
1.74333	18352
1.74400	19888
1.74467	21575
1.74533	23420
1.74600	25434
1.74667	27624
1.74733	30000
1.74800	32567
1.74867	35331
1.74933	38298
1.75000	41473
1.75067	44863
1.75133	48471
1.75200	52299
1.75267	56345
1.75333	60607
1.75400	65080
1.75467	69758
1.75533	74634
1.75600	79699
1.75667	84943
1.75733	90355
1.75800	95920
1.75867	101622
1.75933	107442
1.76000	113361
1.76067	119359
1.76133	125410
1.76200	131491
1.76267	137576
1.76333	143640
1.76400	149661
1.76467	155615
1.76533	161480
1.76600	167235
1.76667	172854
1.76733	178315
1.76800	183596
1.76867	188678
1.76933	193541
1.77000	198167
1.77067	202542
1.77133	206651
1.77200	210483
1.77267	214028
1.77333	217280
1.77400	220233
1.77467	222883
1.77533	225230
1.77600	227273
1.77667	229015
1.77733	230460
1.77800	231613
1.77867	232481
1.77933	233071
1.78000	233392
1.78067	233452
1.78133	233263
1.78200	232834
1.78267	232177
1.78333	231303
1.78400	230224
1.78467	228951
1.78533	227497
1.78600	225872
1.78667	224088
1.78733	222157
1.78800	220089
1.78867	217895
1.78933	215585
1.79000	213169
1.79067	210657
1.79133	208058
1.79200	205381
1.79267	202634
1.79333	199826
1.79400	196963
1.79467	194053
1.79533	191103
1.79600	188120
1.79667	185110
1.79733	182077
1.79800	179029
1.79867	175969
1.79933	172903
1.80000	169834
1.80067	166768
1.80133	163707
1.80200	160656
1.80267	157617
1.80333	154594
1.80400	151590
1.80467	148606
1.80533	145646
1.80600	142712
1.80667	139805
1.80733	136928
1.80800	134082
1.80867	131269
1.80933	128490
1.81000	125746
1.81067	123038
1.81133	120368
1.81200	117736
1.81267	115144
1.81333	112590
1.81400	110077
1.81467	107605
1.81533	105174
1.81600	102784
1.81667	100435
1.81733	98128
1.81800	95863
1.81867	93640
1.81933	91459
1.82000	89319
1.82067	87221
1.82133	85164
1.82200	83148
1.82267	81173
1.82333	79239
1.82400	77345
1.82467	75491
1.82533	73677
1.82600	71902
1.82667	70165
1.82733	68467
1.82800	66807
1.82867	65184
1.82933	63598
1.83000	62048
1.83067	60534
1.83133	59055
1.83200	57611
1.83267	56202
1.83333	54826
1.83400	53483
1.83467	52172
1.83533	50894
1.83600	49647
1.83667	48430
1.83733	47244
1.83800	46088
1.83867	44961
1.83933	43862
1.84000	42791
1.84067	41748
1.84133	40731
1.84200	39741
1.84267	38777
1.84333	37838
1.84400	36923
1.84467	36033
1.84533	35166
1.84600	34323
1.84667	33502
1.84733	32703
1.84800	31925
1.84867	31169
1.84933	30433
1.85000	29717
1.85067	29021
1.85133	28344
1.85200	27685
1.85267	27045
1.85333	26422
1.85400	25817
1.85467	25229
1.85533	24657
1.85600	24101
1.85667	23561
1.85733	23036
1.85800	22526
1.85867	22030
1.85933	21549
1.86000	21081
1.86067	20626
1.86133	20185
1.86200	19756
1.86267	19340
1.86333	18935
1.86400	18542
1.86467	18160
1.86533	17789
1.86600	17429
1.86667	17080
1.86733	16740
1.86800	16411
1.86867	16090
1.86933	15780
1.87000	15478
1.87067	15185
1.87133	14900
1.87200	14624
1.87267	14356
1.87333	14096
1.87400	13843
1.87467	13598
1.87533	13359
1.87600	13128
1.87667	12904
1.87733	12686
1.87800	12475
1.87867	12270
1.87933	12071
1.88000	11878
1.88067	11690
1.88133	11508
1.88200	11332
1.88267	11160
1.88333	10994
1.88400	10833
1.88467	10676
1.88533	10524
1.88600	10377
1.88667	10234
1.88733	10095
1.88800	9960
1.88867	9830
1.88933	9703
1.89000	9581
1.89067	9462
1.89133	9346
1.89200	9234
1.89267	9126
1.89333	9020
1.89400	8918
1.89467	8819
1.89533	8723
1.89600	8629
1.89667	8539
1.89733	8451
1.89800	8366
1.89867	8283
1.89933	8203
1.90000	8126
1.90067	8050
1.90133	7977
1.90200	7906
1.90267	7837
1.90333	7771
1.90400	7706
1.90467	7643
1.90533	7582
1.90600	7523
1.90667	7465
1.90733	7409
1.90800	7355
1.90867	7302
1.90933	7251
1.91000	7201
1.91067	7153
1.91133	7106
1.91200	7060
1.91267	7015
1.91333	6972
1.91400	6930
1.91467	6889
1.91533	6849
1.91600	6811
1.91667	6773
1.91733	6736
1.91800	6701
1.91867	6666
1.91933	6632
1.92000	6600
1.92067	6568
1.92133	6536
1.92200	6506
1.92267	6476
1.92333	6448
1.92400	6420
1.92467	6392
1.92533	6365
1.92600	6339
1.92667	6314
1.92733	6289
1.92800	6265
1.92867	6242
1.92933	6219
1.93000	6196
1.93067	6175
1.93133	6153
1.93200	6133
1.93267	6112
1.93333	6093
1.93400	6074
1.93467	6055
1.93533	6037
1.93600	6019
1.93667	6002
1.93733	5985
1.93800	5968
1.93867	5952
1.93933	5936
1.94000	5921
1.94067	5906
1.94133	5892
1.94200	5877
1.94267	5864
1.94333	5850
1.94400	5837
1.94467	5824
1.94533	5812
1.94600	5799
1.94667	5787
1.94733	5776
1.94800	5764
1.94867	5753
1.94933	5743
1.95000	5732
1.95067	5722
1.95133	5712
1.95200	5702
1.95267	5692
1.95333	5683
1.95400	5674
1.95467	5665
1.95533	5656
1.95600	5647
1.95667	5639
1.95733	5631
1.95800	5623
1.95867	5616
1.95933	5608
1.96000	5601
1.96067	5594
1.96133	5587
1.96200	5580
1.96267	5573
1.96333	5567
1.96400	5561
1.96467	5555
1.96533	5549
1.96600	5543
1.96667	5537
1.96733	5531
1.96800	5526
1.96867	5520
1.96933	5515
1.97000	5510
1.97067	5505
1.97133	5500
1.97200	5495
1.97267	5490
1.97333	5485
1.97400	5481
1.97467	5476
1.97533	5471
1.97600	5467
1.97667	5463
1.97733	5458
1.97800	5454
1.97867	5450
1.97933	5446
1.98000	5442
1.98067	5438
1.98133	5434
1.98200	5430
1.98267	5426
1.98333	5423
1.98400	5419
1.98467	5415
1.98533	5412
1.98600	5408
1.98667	5405
1.98733	5401
1.98800	5398
1.98867	5394
1.98933	5391
1.99000	5388
1.99067	5385
1.99133	5382
1.99200	5378
1.99267	5375
1.99333	5372
1.99400	5369
1.99467	5366
1.99533	5363
1.99600	5360
1.99667	5358
1.99733	5355
1.99800	5352
1.99867	5349
1.99933	5346
2.00000	5344
2.00067	5341
2.00133	5338
2.00200	5335
2.00267	5333
2.00333	5330
2.00400	5327
2.00467	5324
2.00533	5322
2.00600	5319
2.00667	5316
2.00733	5313
2.00800	5310
2.00867	5308
2.00933	5305
2.01000	5302
2.01067	5299
2.01133	5297
2.01200	5294
2.01267	5291
2.01333	5288
2.01400	5285
2.01467	5283
2.01533	5280
2.01600	5277
2.01667	5274
2.01733	5272
2.01800	5269
2.01867	5266
2.01933	5263
2.02000	5261
2.02067	5258
2.02133	5255
2.02200	5253
2.02267	5250
2.02333	5248
2.02400	5245
2.02467	5243
2.02533	5240
2.02600	5238
2.02667	5235
2.02733	5233
2.02800	5230
2.02867	5228
2.02933	5225
2.03000	5223
2.03067	5220
2.03133	5218
2.03200	5216
2.03267	5213
2.03333	5211
2.03400	5208
2.03467	5206
2.03533	5204
2.03600	5201
2.03667	5199
2.03733	5197
2.03800	5195
2.03867	5192
2.03933	5190
2.04000	5188
2.04067	5186
2.04133	5184
2.04200	5182
2.04267	5179
2.04333	5177
2.04400	5175
2.04467	5173
2.04533	5171
2.04600	5169
2.04667	5167
2.04733	5165
2.04800	5163
2.04867	5162
2.04933	5160
2.05000	5158
2.05067	5156
2.05133	5154
2.05200	5152
2.05267	5150
2.05333	5149
2.05400	5147
2.05467	5145
2.05533	5143
2.05600	5142
2.05667	5140
2.05733	5138
2.05800	5136
2.05867	5135
2.05933	5133
2.06000	5131
2.06067	5130
2.06133	5128
2.06200	5126
2.06267	5124
2.06333	5123
2.06400	5121
2.06467	5120
2.06533	5118
2.06600	5117
2.06667	5115
2.06733	5113
2.06800	5112
2.06867	5110
2.06933	5109
2.07000	5107
2.07067	5106
2.07133	5104
2.07200	5103
2.07267	5102
2.07333	5100
2.07400	5099
2.07467	5097
2.07533	5096
2.07600	5095
2.07667	5094
2.07733	5092
2.07800	5091
2.07867	5090
2.07933	5089
2.08000	5088
2.08067	5086
2.08133	5085
2.08200	5084
2.08267	5083
2.08333	5081
2.08400	5080
2.08467	5079
2.08533	5077
2.08600	5076
2.08667	5075
2.08733	5074
2.08800	5072
2.08867	5071
2.08933	5070
2.09000	5068
2.09067	5067
2.09133	5066
2.09200	5064
2.09267	5063
2.09333	5062
2.09400	5060
2.09467	5059
2.09533	5058
2.09600	5057
2.09667	5055
2.09733	5054
2.09800	5053
2.09867	5052
2.09933	5050
2.10000	5049
2.10067	5048
2.10133	5046
2.10200	5045
2.10267	5044
2.10333	5043
2.10400	5041
2.10467	5040
2.10533	5039
2.10600	5037
2.10667	5036
2.10733	5035
2.10800	5033
2.10867	5032
2.10933	5030
2.11000	5029
2.11067	5028
2.11133	5026
2.11200	5025
2.11267	5023
2.11333	5022
2.11400	5020
2.11467	5019
2.11533	5017
2.11600	5016
2.11667	5014
2.11733	5013
2.11800	5012
2.11867	5010
2.11933	5009
2.12000	5008
2.12067	5006
2.12133	5005
2.12200	5003
2.12267	5002
2.12333	5000
2.12400	4999
2.12467	4997
2.12533	4996
2.12600	4994
2.12667	4992
2.12733	4991
2.12800	4989
2.12867	4988
2.12933	4986
2.13000	4985
2.13067	4983
2.13133	4982
2.13200	4980
2.13267	4978
2.13333	4977
2.13400	4975
2.13467	4974
2.13533	4972
2.13600	4971
2.13667	4969
2.13733	4968
2.13800	4966
2.13867	4964
2.13933	4963
2.14000	4961
2.14067	4960
2.14133	4958
2.14200	4956
2.14267	4955
2.14333	4953
2.14400	4951
2.14467	4950
2.14533	4948
2.14600	4946
2.14667	4945
2.14733	4943
2.14800	4942
2.14867	4940
2.14933	4938
2.15000	4937
2.15067	4935
2.15133	4933
2.15200	4932
2.15267	4930
2.15333	4928
2.15400	4927
2.15467	4925
2.15533	4923
2.15600	4922
2.15667	4920
2.15733	4918
2.15800	4917
2.15867	4915
2.15933	4913
2.16000	4911
2.16067	4910
2.16133	4908
2.16200	4906
2.16267	4904
2.16333	4903
2.16400	4901
2.16467	4899
2.16533	4897
2.16600	4895
2.16667	4894
2.16733	4892
2.16800	4890
2.16867	4888
2.16933	4887
2.17000	4885
2.17067	4883
2.17133	4882
2.17200	4880
2.17267	4878
2.17333	4877
2.17400	4875
2.17467	4874
2.17533	4872
2.17600	4871
2.17667	4869
2.17733	4868
2.17800	4867
2.17867	4865
2.17933	4864
2.18000	4863
2.18067	4861
2.18133	4860
2.18200	4859
2.18267	4858
2.18333	4856
2.18400	4855
2.18467	4854
2.18533	4853
2.18600	4851
2.18667	4850
2.18733	4849
2.18800	4848
2.18867	4847
2.18933	4845
2.19000	4844
2.19067	4843
2.19133	4842
2.19200	4841
2.19267	4839
2.19333	4838
2.19400	4837
2.19467	4836
2.19533	4835
2.19600	4834
2.19667	4833
2.19733	4832
2.19800	4831
2.19867	4831
2.19933	4830
2.20000	4829
2.20067	4828
2.20133	4828
2.20200	4827
2.20267	4827
2.20333	4826
2.20400	4826
2.20467	4825
2.20533	4825
2.20600	4825
2.20667	4825
2.20733	4825
2.20800	4825
2.20867	4825
2.20933	4825
2.21000	4825
2.21067	4825
2.21133	4825
2.21200	4825
2.21267	4826
2.21333	4826
2.21400	4826
2.21467	4827
2.21533	4827
2.21600	4828
2.21667	4829
2.21733	4829
2.21800	4830
2.21867	4831
2.21933	4831
2.22000	4832
2.22067	4833
2.22133	4834
2.22200	4834
2.22267	4835
2.22333	4836
2.22400	4837
2.22467	4837
2.22533	4838
2.22600	4839
2.22667	4840
2.22733	4840
2.22800	4841
2.22867	4842
2.22933	4842
2.23000	4843
2.23067	4843
2.23133	4844
2.23200	4844
2.23267	4845
2.23333	4845
2.23400	4845
2.23467	4845
2.23533	4845
2.23600	4845
2.23667	4845
2.23733	4845
2.23800	4845
2.23867	4845
2.23933	4845
2.24000	4844
2.24067	4844
2.24133	4843
2.24200	4843
2.24267	4843
2.24333	4842
2.24400	4842
2.24467	4841
2.24533	4841
2.24600	4840
2.24667	4840
2.24733	4839
2.24800	4839
2.24867	4838
2.24933	4838
2.25000	4837
2.25067	4837
2.25133	4836
2.25200	4835
2.25267	4835
2.25333	4834
2.25400	4834
2.25467	4833
2.25533	4833
2.25600	4833
2.25667	4832
2.25733	4832
2.25800	4831
2.25867	4831
2.25933	4830
2.26000	4830
2.26067	4829
2.26133	4829
2.26200	4828
2.26267	4827
2.26333	4827
2.26400	4826
2.26467	4825
2.26533	4824
2.26600	4823
2.26667	4822
2.26733	4821
2.26800	4820
2.26867	4819
2.26933	4818
2.27000	4817
2.27067	4816
2.27133	4815
2.27200	4814
2.27267	4813
2.27333	4812
2.27400	4811
2.27467	4810
2.27533	4809
2.27600	4808
2.27667	4807
2.27733	4806
2.27800	4805
2.27867	4804
2.27933	4803
2.28000	4802
2.28067	4801
2.28133	4800
2.28200	4799
2.28267	4798
2.28333	4797
2.28400	4796
2.28467	4795
2.28533	4794
2.28600	4793
2.28667	4792
2.28733	4791
2.28800	4790
2.28867	4789
2.28933	4788
2.29000	4787
2.29067	4786
2.29133	4785
2.29200	4784
2.29267	4783
2.29333	4783
2.29400	4782
2.29467	4781
2.29533	4780
2.29600	4779
2.29667	4779
2.29733	4778
2.29800	4777
2.29867	4776
2.29933	4776
2.30000	4775
2.30067	4775
2.30133	4774
2.30200	4773
2.30267	4773
2.30333	4772
2.30400	4772
2.30467	4771
2.30533	4771
2.30600	4770
2.30667	4770
2.30733	4770
2.30800	4769
2.30867	4769
2.30933	4768
2.31000	4768
2.31067	4767
2.31133	4767
2.31200	4767
2.31267	4766
2.31333	4766
2.31400	4766
2.31467	4765
2.31533	4765
2.31600	4765
2.31667	4764
2.31733	4764
2.31800	4763
2.31867	4763
2.31933	4763
2.32000	4762
2.32067	4762
2.32133	4762
2.32200	4761
2.32267	4761
2.32333	4761
2.32400	4761
2.32467	4760
2.32533	4760
2.32600	4760
2.32667	4760
2.32733	4759
2.32800	4759
2.32867	4759
2.32933	4759
2.33000	4758
2.33067	4758
2.33133	4758
2.33200	4758
2.33267	4757
2.33333	4757
2.33400	4757
2.33467	4757
2.33533	4757
2.33600	4756
2.33667	4756
2.33733	4756
2.33800	4756
2.33867	4756
2.33933	4756
2.34000	4756
2.34067	4756
2.34133	4756
2.34200	4756
2.34267	4757
2.34333	4757
2.34400	4757
2.34467	4757
2.34533	4757
2.34600	4757
2.34667	4758
2.34733	4758
2.34800	4758
2.34867	4758
2.34933	4758
2.35000	4758
2.35067	4758
2.35133	4758
2.35200	4758
2.35267	4759
2.35333	4759
2.35400	4759
2.35467	4759
2.35533	4759
2.35600	4759
2.35667	4759
2.35733	4760
2.35800	4760
2.35867	4760
2.35933	4760
2.36000	4760
2.36067	4761
2.36133	4761
2.36200	4761
2.36267	4761
2.36333	4761
2.36400	4761
2.36467	4761
2.36533	4761
2.36600	4761
2.36667	4761
2.36733	4761
2.36800	4761
2.36867	4761
2.36933	4761
2.37000	4761
2.37067	4761
2.37133	4761
2.37200	4760
2.37267	4760
2.37333	4760
2.37400	4760
2.37467	4760
2.37533	4759
2.37600	4759
2.37667	4759
2.37733	4759
2.37800	4758
2.37867	4758
2.37933	4758
2.38000	4757
2.38067	4757
2.38133	4757
2.38200	4756
2.38267	4756
2.38333	4755
2.38400	4755
2.38467	4754
2.38533	4754
2.38600	4753
2.38667	4753
2.38733	4752
2.38800	4752
2.38867	4751
2.38933	4751
2.39000	4750
2.39067	4750
2.39133	4749
2.39200	4749
2.39267	4748
2.39333	4748
2.39400	4748
2.39467	4747
2.39533	4747
2.39600	4746
2.39667	4746
2.39733	4745
2.39800	4745
2.39867	4745
2.39933	4744
2.40000	4744
2.40067	4744
2.40133	4743
2.40200	4743
2.40267	4743
2.40333	4742
2.40400	4742
2.40467	4742
2.40533	4742
2.40600	4741
2.40667	4741
2.40733	4741
2.40800	4741
2.40867	4740
2.40933	4740
2.41000	4740
2.41067	4739
2.41133	4739
2.41200	4739
2.41267	4739
2.41333	4739
2.41400	4738
2.41467	4738
2.41533	4738
2.41600	4738
2.41667	4737
2.41733	4737
2.41800	4737
2.41867	4736
2.41933	4736
2.42000	4736
2.42067	4736
2.42133	4736
2.42200	4735
2.42267	4735
2.42333	4735
2.42400	4734
2.42467	4734
2.42533	4734
2.42600	4733
2.42667	4733
2.42733	4733
2.42800	4732
2.42867	4732
2.42933	4731
2.43000	4731
2.43067	4730
2.43133	4730
2.43200	4729
2.43267	4729
2.43333	4728
2.43400	4727
2.43467	4727
2.43533	4726
2.43600	4725
2.43667	4725
2.43733	4724
2.43800	4723
2.43867	4722
2.43933	4721
2.44000	4720
2.44067	4719
2.44133	4718
2.44200	4717
2.44267	4716
2.44333	4715
2.44400	4714
2.44467	4713
2.44533	4712
2.44600	4711
2.44667	4709
2.44733	4708
2.44800	4707
2.44867	4705
2.44933	4704
2.45000	4703
2.45067	4701
2.45133	4700
2.45200	4699
2.45267	4697
2.45333	4696
2.45400	4695
2.45467	4693
2.45533	4692
2.45600	4690
2.45667	4689
2.45733	4688
2.45800	4686
2.45867	4685
2.45933	4683
2.46000	4682
2.46067	4681
2.46133	4679
2.46200	4678
2.46267	4676
2.46333	4675
2.46400	4674
2.46467	4672
2.46533	4671
2.46600	4669
2.46667	4668
2.46733	4667
2.46800	4665
2.46867	4663
2.46933	4662
2.47000	4660
2.47067	4659
2.47133	4657
2.47200	4656
2.47267	4654
2.47333	4653
2.47400	4651
2.47467	4650
2.47533	4649
2.47600	4647
2.47667	4646
2.47733	4644
2.47800	4643
2.47867	4641
2.47933	4639
2.48000	4638
2.48067	4636
2.48133	4635
2.48200	4633
2.48267	4631
2.48333	4629
2.48400	4628
2.48467	4626
2.48533	4624
2.48600	4622
2.48667	4620
2.48733	4618
2.48800	4617
2.48867	4615
2.48933	4613
2.49000	4611
2.49067	4609
2.49133	4607
2.49200	4605
2.49267	4604
2.49333	4602
2.49400	4600
2.49467	4598
2.49533	4596
2.49600	4594
2.49667	4593
2.49733	4591
2.49800	4589
2.49867	4587
2.49933	4585
2.50000	4583
2.50067	4582
2.50133	4580
2.50200	4578
2.50267	4576
2.50333	4575
2.50400	4573
2.50467	4571
2.50533	4569
2.50600	4568
2.50667	4566
2.50733	4564
2.50800	4562
2.50867	4561
2.50933	4559
2.51000	4557
2.51067	4556
2.51133	4554
2.51200	4552
2.51267	4550
2.51333	4548
2.51400	4547
2.51467	4545
2.51533	4543
2.51600	4541
2.51667	4539
2.51733	4538
2.51800	4536
2.51867	4534
2.51933	4532
2.52000	4531
2.52067	4529
2.52133	4527
2.52200	4525
2.52267	4524
2.52333	4522
2.52400	4520
2.52467	4518
2.52533	4517
2.52600	4515
2.52667	4513
2.52733	4511
2.52800	4510
2.52867	4508
2.52933	4506
2.53000	4504
2.53067	4503
2.53133	4501
2.53200	4499
2.53267	4498
2.53333	4496
2.53400	4494
2.53467	4493
2.53533	4491
2.53600	4489
2.53667	4488
2.53733	4486
2.53800	4485
2.53867	4483
2.53933	4482
2.54000	4480
2.54067	4478
2.54133	4477
2.54200	4475
2.54267	4474
2.54333	4472
2.54400	4470
2.54467	4469
2.54533	4467
2.54600	4465
2.54667	4463
2.54733	4462
2.54800	4460
2.54867	4458
2.54933	4456
2.55000	4455
2.55067	4453
2.55133	4452
2.55200	4450
2.55267	4448
2.55333	4447
2.55400	4445
2.55467	4444
2.55533	4442
2.55600	4441
2.55667	4440
2.55733	4438
2.55800	4437
2.55867	4436
2.55933	4435
2.56000	4433
2.56067	4432
2.56133	4431
2.56200	4429
2.56267	4428
2.56333	4427
2.56400	4425
2.56467	4424
2.56533	4423
2.56600	4422
2.56667	4421
2.56733	4419
2.56800	4418
2.56867	4417
2.56933	4416
2.57000	4415
2.57067	4414
2.57133	4413
2.57200	4412
2.57267	4411
2.57333	4409
2.57400	4408
2.57467	4407
2.57533	4406
2.57600	4405
2.57667	4404
2.57733	4403
2.57800	4402
2.57867	4401
2.57933	4400
2.58000	4399
2.58067	4398
2.58133	4397
2.58200	4396
2.58267	4395
2.58333	4394
2.58400	4393
2.58467	4392
2.58533	4391
2.58600	4390
2.58667	4389
2.58733	4388
2.58800	4387
2.58867	4386
2.58933	4385
2.59000	4384
2.59067	4383
2.59133	4382
2.59200	4382
2.59267	4381
2.59333	4380
2.59400	4379
2.59467	4379
2.59533	4378
2.59600	4377
2.59667	4377
2.59733	4376
2.59800	4375
2.59867	4375
2.59933	4374
2.60000	4373
2.60067	4373
2.60133	4372
2.60200	4372
2.60267	4371
2.60333	4370
2.60400	4370
2.60467	4369
2.60533	4368
2.60600	4368
2.60667	4367
2.60733	4366
2.60800	4365
2.60867	4365
2.60933	4364
2.61000	4363
2.61067	4363
2.61133	4362
2.61200	4361
2.61267	4361
2.61333	4360
2.61400	4359
2.61467	4359
2.61533	4358
2.61600	4357
2.61667	4357
2.61733	4356
2.61800	4355
2.61867	4355
2.61933	4354
2.62000	4354
2.62067	4353
2.62133	4353
2.62200	4352
2.62267	4351
2.62333	4351
2.62400	4350
2.62467	4349
2.62533	4349
2.62600	4348
2.62667	4347
2.62733	4347
2.62800	4346
2.62867	4345
2.62933	4344
2.63000	4344
2.63067	4343
2.63133	4342
2.63200	4341
2.63267	4341
2.63333	4340
2.63400	4339
2.63467	4338
2.63533	4337
2.63600	4337
2.63667	4336
2.63733	4335
2.63800	4334
2.63867	4333
2.63933	4332
2.64000	4332
2.64067	4331
2.64133	4330
2.64200	4329
2.64267	4328
2.64333	4327
2.64400	4326
2.64467	4325
2.64533	4324
2.64600	4323
2.64667	4322
2.64733	4321
2.64800	4320
2.64867	4319
2.64933	4318
2.65000	4317
2.65067	4316
2.65133	4315
2.65200	4314
2.65267	4313
2.65333	4312
2.65400	4311
2.65467	4309
2.65533	4308
2.65600	4307
2.65667	4306
2.65733	4305
2.65800	4303
2.65867	4302
2.65933	4301
2.66000	4299
2.66067	4298
2.66133	4297
2.66200	4295
2.66267	4294
2.66333	4293
2.66400	4291
2.66467	4290
2.66533	4289
2.66600	4287
2.66667	4286
2.66733	4285
2.66800	4284
2.66867	4282
2.66933	4281
2.67000	4279
2.67067	4278
2.67133	4277
2.67200	4275
2.67267	4274
2.67333	4272
2.67400	4271
2.67467	4270
2.67533	4268
2.67600	4267
2.67667	4265
2.67733	4264
2.67800	4263
2.67867	4261
2.67933	4260
2.68000	4259
2.68067	4257
2.68133	4256
2.68200	4255
2.68267	4253
2.68333	4252
2.68400	4251
2.68467	4249
2.68533	4248
2.68600	4247
2.68667	4245
2.68733	4244
2.68800	4242
2.68867	4241
2.68933	4240
2.69000	4238
2.69067	4237
2.69133	4236
2.69200	4235
2.69267	4233
2.69333	4232
2.69400	4231
2.69467	4229
2.69533	4228
2.69600	4227
2.69667	4225
2.69733	4224
2.69800	4223
2.69867	4222
2.69933	4220
2.70000	4219
2.70067	4218
2.70133	4217
2.70200	4216
2.70267	4215
2.70333	4213
2.70400	4212
2.70467	4211
2.70533	4210
2.70600	4209
2.70667	4208
2.70733	4207
2.70800	4206
2.70867	4204
2.70933	4203
2.71000	4202
2.71067	4201
2.71133	4200
2.71200	4199
2.71267	4198
2.71333	4197
2.71400	4196
2.71467	4195
2.71533	4194
2.71600	4193
2.71667	4192
2.71733	4191
2.71800	4190
2.71867	4189
2.71933	4188
2.72000	4187
2.72067	4186
2.72133	4185
2.72200	4184
2.72267	4183
2.72333	4183
2.72400	4182
2.72467	4181
2.72533	4180
2.72600	4180
2.72667	4179
2.72733	4179
2.72800	4178
2.72867	4177
2.72933	4177
2.73000	4177
2.73067	4176
2.73133	4176
2.73200	4175
2.73267	4175
2.73333	4175
2.73400	4175
2.73467	4174
2.73533	4174
2.73600	4174
2.73667	4173
2.73733	4173
2.73800	4173
2.73867	4173
2.73933	4172
2.74000	4172
2.74067	4172
2.74133	4172
2.74200	4171
2.74267	4171
2.74333	4171
2.74400	4171
2.74467	4171
2.74533	4170
2.74600	4170
2.74667	4170
2.74733	4170
2.74800	4170
2.74867	4170
2.74933	4170
2.75000	4170
2.75067	4170
2.75133	4170
2.75200	4170
2.75267	4170
2.75333	4170
2.75400	4170
2.75467	4170
2.75533	4170
2.75600	4170
2.75667	4170
2.75733	4171
2.75800	4171
2.75867	4171
2.75933	4171
2.76000	4172
2.76067	4172
2.76133	4172
2.76200	4173
2.76267	4173
2.76333	4174
2.76400	4174
2.76467	4175
2.76533	4176
2.76600	4176
2.76667	4177
2.76733	4178
2.76800	4178
2.76867	4179
2.76933	4180
2.77000	4181
2.77067	4181
2.77133	4182
2.77200	4183
2.77267	4184
2.77333	4185
2.77400	4186
2.77467	4187
2.77533	4188
2.77600	4189
2.77667	4190
2.77733	4191
2.77800	4192
2.77867	4194
2.77933	4195
2.78000	4196
2.78067	4198
2.78133	4199
2.78200	4201
2.78267	4203
2.78333	4204
2.78400	4206
2.78467	4208
2.78533	4210
2.78600	4212
2.78667	4214
2.78733	4216
2.78800	4218
2.78867	4221
2.78933	4223
2.79000	4226
2.79067	4228
2.79133	4231
2.79200	4234
2.79267	4236
2.79333	4239
2.79400	4242
2.79467	4245
2.79533	4248
2.79600	4252
2.79667	4255
2.79733	4258
2.79800	4262
2.79867	4265
2.79933	4269
2.80000	4272
2.80067	4276
2.80133	4280
2.80200	4283
2.80267	4287
2.80333	4291
2.80400	4295
2.80467	4299
2.80533	4303
2.80600	4307
2.80667	4311
2.80733	4315
2.80800	4320
2.80867	4324
2.80933	4328
2.81000	4332
2.81067	4336
2.81133	4340
2.81200	4344
2.81267	4349
2.81333	4353
2.81400	4357
2.81467	4361
2.81533	4365
2.81600	4369
2.81667	4372
2.81733	4376
2.81800	4380
2.81867	4383
2.81933	4386
2.82000	4390
2.82067	4393
2.82133	4396
2.82200	4399
2.82267	4402
2.82333	4404
2.82400	4407
2.82467	4409
2.82533	4412
2.82600	4414
2.82667	4416
2.82733	4418
2.82800	4419
2.82867	4421
2.82933	4422
2.83000	4424
2.83067	4425
2.83133	4426
2.83200	4426
2.83267	4427
2.83333	4428
2.83400	4428
2.83467	4428
2.83533	4428
2.83600	4428
2.83667	4428
2.83733	4428
2.83800	4428
2.83867	4427
2.83933	4426
2.84000	4426
2.84067	4425
2.84133	4424
2.84200	4423
2.84267	4421
2.84333	4420
2.84400	4418
2.84467	4417
2.84533	4415
2.84600	4413
2.84667	4411
2.84733	4409
2.84800	4407
2.84867	4405
2.84933	4403
2.85000	4400
2.85067	4398
2.85133	4396
2.85200	4393
2.85267	4391
2.85333	4388
2.85400	4386
2.85467	4383
2.85533	4380
2.85600	4378
2.85667	4375
2.85733	4372
2.85800	4369
2.85867	4366
2.85933	4363
2.86000	4361
2.86067	4358
2.86133	4355
2.86200	4352
2.86267	4349
2.86333	4347
2.86400	4344
2.86467	4341
2.86533	4339
2.86600	4336
2.86667	4333
2.86733	4331
2.86800	4328
2.86867	4326
2.86933	4324
2.87000	4321
2.87067	4319
2.87133	4317
2.87200	4315
2.87267	4313
2.87333	4311
2.87400	4309
2.87467	4307
2.87533	4305
2.87600	4304
2.87667	4302
2.87733	4301
2.87800	4299
2.87867	4298
2.87933	4297
2.88000	4296
2.88067	4295
2.88133	4294
2.88200	4293
2.88267	4293
2.88333	4292
2.88400	4292
2.88467	4291
2.88533	4291
2.88600	4291
2.88667	4291
2.88733	4291
2.88800	4292
2.88867	4292
2.88933	4292
2.89000	4293
2.89067	4294
2.89133	4294
2.89200	4295
2.89267	4296
2.89333	4297
2.89400	4298
2.89467	4299
2.89533	4301
2.89600	4302
2.89667	4303
2.89733	4305
2.89800	4306
2.89867	4308
2.89933	4309
2.90000	4311
2.90067	4312
2.90133	4314
2.90200	4316
2.90267	4317
2.90333	4319
2.90400	4320
2.90467	4322
2.90533	4323
2.90600	4324
2.90667	4326
2.90733	4327
2.90800	4328
2.90867	4329
2.90933	4330
2.91000	4331
2.91067	4332
2.91133	4333
2.91200	4333
2.91267	4333
2.91333	4334
2.91400	4334
2.91467	4334
2.91533	4334
2.91600	4333
2.91667	4333
2.91733	4332
2.91800	4331
2.91867	4331
2.91933	4329
2.92000	4328
2.92067	4327
2.92133	4325
2.92200	4323
2.92267	4322
2.92333	4320
2.92400	4317
2.92467	4315
2.92533	4313
2.92600	4310
2.92667	4307
2.92733	4304
2.92800	4301
2.92867	4298
2.92933	4295
2.93000	4291
2.93067	4287
2.93133	4284
2.93200	4280
2.93267	4276
2.93333	4272
2.93400	4267
2.93467	4263
2.93533	4259
2.93600	4254
2.93667	4250
2.93733	4245
2.93800	4240
2.93867	4236
2.93933	4231
2.94000	4226
2.94067	4221
2.94133	4216
2.94200	4211
2.94267	4206
2.94333	4201
2.94400	4196
2.94467	4191
2.94533	4186
2.94600	4181
2.94667	4176
2.94733	4171
2.94800	4166
2.94867	4161
2.94933	4156
2.95000	4151
2.95067	4147
2.95133	4142
2.95200	4137
2.95267	4132
2.95333	4128
2.95400	4123
2.95467	4119
2.95533	4114
2.95600	4109
2.95667	4105
2.95733	4101
2.95800	4096
2.95867	4092
2.95933	4088
2.96000	4084
2.96067	4080
2.96133	4076
2.96200	4072
2.96267	4068
2.96333	4064
2.96400	4060
2.96467	4057
2.96533	4053
2.96600	4049
2.96667	4045
2.96733	4042
2.96800	4038
2.96867	4035
2.96933	4031
2.97000	4027
2.97067	4024
2.97133	4020
2.97200	4017
2.97267	4013
2.97333	4010
2.97400	4006
2.97467	4003
2.97533	4000
2.97600	3996
2.97667	3993
2.97733	3990
2.97800	3987
2.97867	3984
2.97933	3981
2.98000	3978
2.98067	3975
2.98133	3972
2.98200	3969
2.98267	3967
2.98333	3964
2.98400	3961
2.98467	3958
2.98533	3956
2.98600	3953
2.98667	3951
2.98733	3948
2.98800	3945
2.98867	3943
2.98933	3940
2.99000	3938
2.99067	3935
2.99133	3933
2.99200	3930
2.99267	3928
2.99333	3925
2.99400	3923
2.99467	3920
2.99533	3918
2.99600	3916
2.99667	3913
2.99733	3911
2.99800	3909
2.99867	3906
2.99933	3904
3.00000	3901
3.00067	3899
3.00133	3897
3.00200	3894
3.00267	3892
3.00333	3890
3.00400	3888
3.00467	3886
3.00533	3884
3.00600	3881
3.00667	3879
3.00733	3877
3.00800	3875
3.00867	3873
3.00933	3872
3.01000	3870
3.01067	3868
3.01133	3866
3.01200	3864
3.01267	3862
3.01333	3861
3.01400	3859
3.01467	3857
3.01533	3855
3.01600	3854
3.01667	3852
3.01733	3850
3.01800	3848
3.01867	3846
3.01933	3844
3.02000	3843
3.02067	3841
3.02133	3839
3.02200	3837
3.02267	3836
3.02333	3834
3.02400	3832
3.02467	3830
3.02533	3828
3.02600	3827
3.02667	3825
3.02733	3823
3.02800	3821
3.02867	3819
3.02933	3818
3.03000	3816
3.03067	3814
3.03133	3813
3.03200	3811
3.03267	3810
3.03333	3808
3.03400	3807
3.03467	3805
3.03533	3803
3.03600	3802
3.03667	3800
3.03733	3799
3.03800	3798
3.03867	3796
3.03933	3795
3.04000	3793
3.04067	3792
3.04133	3790
3.04200	3789
3.04267	3788
3.04333	3786
3.04400	3785
3.04467	3784
3.04533	3782
3.04600	3781
3.04667	3780
3.04733	3779
3.04800	3777
3.04867	3776
3.04933	3775
3.05000	3774
3.05067	3773
3.05133	3772
3.05200	3771
3.05267	3770
3.05333	3769
3.05400	3768
3.05467	3767
3.05533	3766
3.05600	3765
3.05667	3765
3.05733	3764
3.05800	3763
3.05867	3762
3.05933	3762
3.06000	3761
3.06067	3761
3.06133	3760
3.06200	3760
3.06267	3759
3.06333	3759
3.06400	3758
3.06467	3758
3.06533	3757
3.06600	3757
3.06667	3757
3.06733	3756
3.06800	3756
3.06867	3756
3.06933	3755
3.07000	3755
3.07067	3755
3.07133	3754
3.07200	3754
3.07267	3754
3.07333	3753
3.07400	3753
3.07467	3753
3.07533	3753
3.07600	3752
3.07667	3752
3.07733	3752
3.07800	3751
3.07867	3751
3.07933	3751
3.08000	3751
3.08067	3750
3.08133	3750
3.08200	3750
3.08267	3750
3.08333	3749
3.08400	3749
3.08467	3749
3.08533	3749
3.08600	3748
3.08667	3748
3.08733	3748
3.08800	3748
3.08867	3747
3.08933	3747
3.09000	3747
3.09067	3747
3.09133	3746
3.09200	3746
3.09267	3746
3.09333	3745
3.09400	3745
3.09467	3745
3.09533	3744
3.09600	3744
3.09667	3743
3.09733	3743
3.09800	3742
3.09867	3742
3.09933	3741
3.10000	3741
3.10067	3740
3.10133	3739
3.10200	3739
3.10267	3738
3.10333	3737
3.10400	3736
3.10467	3736
3.10533	3735
3.10600	3734
3.10667	3733
3.10733	3732
3.10800	3731
3.10867	3730
3.10933	3729
3.11000	3728
3.11067	3727
3.11133	3726
3.11200	3725
3.11267	3724
3.11333	3723
3.11400	3722
3.11467	3721
3.11533	3720
3.11600	3719
3.11667	3718
3.11733	3717
3.11800	3716
3.11867	3715
3.11933	3714
3.12000	3713
3.12067	3712
3.12133	3711
3.12200	3710
3.12267	3709
3.12333	3708
3.12400	3707
3.12467	3706
3.12533	3705
3.12600	3704
3.12667	3703
3.12733	3702
3.12800	3701
3.12867	3700
3.12933	3699
3.13000	3698
3.13067	3697
3.13133	3696
3.13200	3696
3.13267	3695
3.13333	3694
3.13400	3693
3.13467	3692
3.13533	3691
3.13600	3690
3.13667	3689
3.13733	3689
3.13800	3688
3.13867	3687
3.13933	3686
3.14000	3686
3.14067	3685
3.14133	3684
3.14200	3683
3.14267	3683
3.14333	3682
3.14400	3681
3.14467	3681
3.14533	3680
3.14600	3679
3.14667	3679
3.14733	3678
3.14800	3677
3.14867	3677
3.14933	3676
3.15000	3676
3.15067	3675
3.15133	3675
3.15200	3674
3.15267	3674
3.15333	3673
3.15400	3673
3.15467	3672
3.15533	3672
3.15600	3671
3.15667	3671
3.15733	3670
3.15800	3670
3.15867	3669
3.15933	3669
3.16000	3668
3.16067	3668
3.16133	3667
3.16200	3667
3.16267	3666
3.16333	3666
3.16400	3665
3.16467	3665
3.16533	3664
3.16600	3664
3.16667	3663
3.16733	3663
3.16800	3662
3.16867	3662
3.16933	3661
3.17000	3661
3.17067	3660
3.17133	3659
3.17200	3659
3.17267	3658
3.17333	3658
3.17400	3657
3.17467	3657
3.17533	3656
3.17600	3656
3.17667	3655
3.17733	3654
3.17800	3654
3.17867	3653
3.17933	3653
3.18000	3652
3.18067	3652
3.18133	3651
3.18200	3651
3.18267	3650
3.18333	3649
3.18400	3649
3.18467	3648
3.18533	3648
3.18600	3647
3.18667	3647
3.18733	3646
3.18800	3646
3.18867	3645
3.18933	3645
3.19000	3644
3.19067	3644
3.19133	3643
3.19200	3643
3.19267	3642
3.19333	3642
3.19400	3641
3.19467	3641
3.19533	3640
3.19600	3640
3.19667	3639
3.19733	3639
3.19800	3638
3.19867	3638
3.19933	3638
3.20000	3637
3.20067	3637
3.20133	3637
3.20200	3636
3.20267	3636
3.20333	3636
3.20400	3635
3.20467	3635
3.20533	3635
3.20600	3635
3.20667	3635
3.20733	3635
3.20800	3634
3.20867	3634
3.20933	3634
3.21000	3634
3.21067	3634
3.21133	3634
3.21200	3634
3.21267	3634
3.21333	3633
3.21400	3633
3.21467	3633
3.21533	3633
3.21600	3633
3.21667	3633
3.21733	3633
3.21800	3633
3.21867	3633
3.21933	3632
3.22000	3632
3.22067	3632
3.22133	3632
3.22200	3632
3.22267	3632
3.22333	3632
3.22400	3632
3.22467	3631
3.22533	3631
3.22600	3631
3.22667	3631
3.22733	3631
3.22800	3631
3.22867	3631
3.22933	3631
3.23000	3631
3.23067	3631
3.23133	3631
3.23200	3631
3.23267	3631
3.23333	3631
3.23400	3631
3.23467	3631
3.23533	3631
3.23600	3631
3.23667	3631
3.23733	3631
3.23800	3631
3.23867	3631
3.23933	3631
3.24000	3631
3.24067	3631
3.24133	3631
3.24200	3630
3.24267	3630
3.24333	3630
3.24400	3630
3.24467	3630
3.24533	3630
3.24600	3630
3.24667	3630
3.24733	3630
3.24800	3630
3.24867	3630
3.24933	3630
3.25000	3630
3.25067	3630
3.25133	3630
3.25200	3630
3.25267	3630
3.25333	3630
3.25400	3629
3.25467	3629
3.25533	3629
3.25600	3629
3.25667	3629
3.25733	3629
3.25800	3629
3.25867	3629
3.25933	3629
3.26000	3629
3.26067	3629
3.26133	3629
3.26200	3629
3.26267	3629
3.26333	3629
3.26400	3629
3.26467	3629
3.26533	3629
3.26600	3629
3.26667	3629
3.26733	3629
3.26800	3629
3.26867	3629
3.26933	3629
3.27000	3629
3.27067	3629
3.27133	3629
3.27200	3629
3.27267	3629
3.27333	3629
3.27400	3629
3.27467	3629
3.27533	3629
3.27600	3629
3.27667	3629
3.27733	3628
3.27800	3629
3.27867	3629
3.27933	3628
3.28000	3628
3.28067	3628
3.28133	3628
3.28200	3628
3.28267	3628
3.28333	3628
3.28400	3628
3.28467	3628
3.28533	3628
3.28600	3628
3.28667	3628
3.28733	3628
3.28800	3628
3.28867	3628
3.28933	3629
3.29000	3629
3.29067	3629
3.29133	3629
3.29200	3629
3.29267	3629
3.29333	3629
3.29400	3629
3.29467	3629
3.29533	3630
3.29600	3630
3.29667	3630
3.29733	3630
3.29800	3630
3.29867	3630
3.29933	3630
3.30000	3630
3.30067	3630
3.30133	3630
3.30200	3631
3.30267	3631
3.30333	3631
3.30400	3631
3.30467	3631
3.30533	3631
3.30600	3631
3.30667	3631
3.30733	3631
3.30800	3631
3.30867	3631
3.30933	3631
3.31000	3631
3.31067	3631
3.31133	3631
3.31200	3631
3.31267	3631
3.31333	3631
3.31400	3631
3.31467	3631
3.31533	3631
3.31600	3631
3.31667	3631
3.31733	3631
3.31800	3631
3.31867	3631
3.31933	3631
3.32000	3631
3.32067	3631
3.32133	3631
3.32200	3630
3.32267	3630
3.32333	3630
3.32400	3630
3.32467	3630
3.32533	3629
3.32600	3629
3.32667	3629
3.32733	3629
3.32800	3629
3.32867	3629
3.32933	3628
3.33000	3628
3.33067	3628
3.33133	3628
3.33200	3628
3.33267	3628
3.33333	3627
3.33400	3627
3.33467	3627
3.33533	3627
3.33600	3626
3.33667	3626
3.33733	3626
3.33800	3625
3.33867	3625
3.33933	3625
3.34000	3624
3.34067	3624
3.34133	3624
3.34200	3624
3.34267	3623
3.34333	3623
3.34400	3623
3.34467	3623
3.34533	3622
3.34600	3622
3.34667	3622
3.34733	3622
3.34800	3622
3.34867	3621
3.34933	3621
3.35000	3621
3.35067	3620
3.35133	3620
3.35200	3620
3.35267	3620
3.35333	3619
3.35400	3619
3.35467	3619
3.35533	3619
3.35600	3619
3.35667	3618
3.35733	3618
3.35800	3618
3.35867	3618
3.35933	3618
3.36000	3617
3.36067	3617
3.36133	3617
3.36200	3617
3.36267	3617
3.36333	3617
3.36400	3617
3.36467	3617
3.36533	3617
3.36600	3617
3.36667	3617
3.36733	3617
3.36800	3616
3.36867	3616
3.36933	3616
3.37000	3616
3.37067	3616
3.37133	3616
3.37200	3617
3.37267	3617
3.37333	3617
3.37400	3617
3.37467	3617
3.37533	3617
3.37600	3617
3.37667	3617
3.37733	3617
3.37800	3617
3.37867	3617
3.37933	3618
3.38000	3618
3.38067	3618
3.38133	3619
3.38200	3619
3.38267	3619
3.38333	3620
3.38400	3620
3.38467	3621
3.38533	3621
3.38600	3622
3.38667	3622
3.38733	3623
3.38800	3623
3.38867	3623
3.38933	3624
3.39000	3624
3.39067	3625
3.39133	3625
3.39200	3625
3.39267	3626
3.39333	3626
3.39400	3626
3.39467	3627
3.39533	3627
3.39600	3628
3.39667	3628
3.39733	3628
3.39800	3629
3.39867	3629
3.39933	3630
3.40000	3630
3.40067	3631
3.40133	3632
3.40200	3632
3.40267	3633
3.40333	3634
3.40400	3634
3.40467	3635
3.40533	3636
3.40600	3636
3.40667	3637
3.40733	3637
3.40800	3638
3.40867	3639
3.40933	3639
3.41000	3640
3.41067	3641
3.41133	3641
3.41200	3642
3.41267	3642
3.41333	3643
3.41400	3644
3.41467	3644
3.41533	3645
3.41600	3645
3.41667	3646
3.41733	3647
3.41800	3647
3.41867	3648
3.41933	3649
3.42000	3649
3.42067	3650
3.42133	3651
3.42200	3652
3.42267	3653
3.42333	3653
3.42400	3654
3.42467	3655
3.42533	3656
3.42600	3657
3.42667	3658
3.42733	3659
3.42800	3659
3.42867	3660
3.42933	3661
3.43000	3662
3.43067	3663
3.43133	3664
3.43200	3665
3.43267	3666
3.43333	3667
3.43400	3668
3.43467	3669
3.43533	3671
3.43600	3672
3.43667	3673
3.43733	3675
3.43800	3676
3.43867	3677
3.43933	3679
3.44000	3681
3.44067	3682
3.44133	3684
3.44200	3686
3.44267	3688
3.44333	3689
3.44400	3691
3.44467	3693
3.44533	3695
3.44600	3698
3.44667	3700
3.44733	3702
3.44800	3704
3.44867	3706
3.44933	3709
3.45000	3711
3.45067	3714
3.45133	3716
3.45200	3718
3.45267	3721
3.45333	3723
3.45400	3726
3.45467	3729
3.45533	3731
3.45600	3734
3.45667	3737
3.45733	3740
3.45800	3743
3.45867	3746
3.45933	3749
3.46000	3753
3.46067	3756
3.46133	3759
3.46200	3763
3.46267	3766
3.46333	3769
3.46400	3773
3.46467	3777
3.46533	3780
3.46600	3784
3.46667	3788
3.46733	3791
3.46800	3795
3.46867	3799
3.46933	3803
3.47000	3807
3.47067	3811
3.47133	3815
3.47200	3819
3.47267	3823
3.47333	3827
3.47400	3831
3.47467	3835
3.47533	3840
3.47600	3844
3.47667	3848
3.47733	3853
3.47800	3857
3.47867	3862
3.47933	3866
3.48000	3871
3.48067	3876
3.48133	3880
3.48200	3885
3.48267	3890
3.48333	3895
3.48400	3900
3.48467	3905
3.48533	3910
3.48600	3915
3.48667	3920
3.48733	3925
3.48800	3930
3.48867	3936
3.48933	3941
3.49000	3947
3.49067	3952
3.49133	3958
3.49200	3964
3.49267	3970
3.49333	3976
3.49400	3982
3.49467	3989
3.49533	3995
3.49600	4002
3.49667	4009
3.49733	4016
3.49800	4023
3.49867	4030
3.49933	4038
3.50000	4046
3.50067	4054
3.50133	4062
3.50200	4071
3.50267	4080
3.50333	4089
3.50400	4098
3.50467	4108
3.50533	4118
3.50600	4129
3.50667	4140
3.50733	4151
3.50800	4162
3.50867	4174
3.50933	4187
3.51000	4200
3.51067	4213
3.51133	4227
3.51200	4242
3.51267	4257
3.51333	4273
3.51400	4289
3.51467	4306
3.51533	4323
3.51600	4341
3.51667	4360
3.51733	4379
3.51800	4399
3.51867	4420
3.51933	4441
3.52000	4463
3.52067	4485
3.52133	4508
3.52200	4532
3.52267	4557
3.52333	4582
3.52400	4609
3.52467	4635
3.52533	4663
3.52600	4691
3.52667	4720
3.52733	4750
3.52800	4780
3.52867	4811
3.52933	4843
3.53000	4876
3.53067	4909
3.53133	4943
3.53200	4978
3.53267	5013
3.53333	5049
3.53400	5086
3.53467	5123
3.53533	5161
3.53600	5200
3.53667	5239
3.53733	5279
3.53800	5319
3.53867	5360
3.53933	5401
3.54000	5443
3.54067	5485
3.54133	5527
3.54200	5570
3.54267	5613
3.54333	5656
3.54400	5700
3.54467	5743
3.54533	5787
3.54600	5830
3.54667	5874
3.54733	5917
3.54800	5961
3.54867	6003
3.54933	6046
3.55000	6088
3.55067	6130
3.55133	6172
3.55200	6213
3.55267	6253
3.55333	6293
3.55400	6332
3.55467	6371
3.55533	6408
3.55600	6445
3.55667	6482
3.55733	6517
3.55800	6552
3.55867	6586
3.55933	6618
3.56000	6650
3.56067	6681
3.56133	6712
3.56200	6741
3.56267	6769
3.56333	6796
3.56400	6822
3.56467	6847
3.56533	6871
3.56600	6894
3.56667	6915
3.56733	6936
3.56800	6955
3.56867	6973
3.56933	6990
3.57000	7005
3.57067	7020
3.57133	7033
3.57200	7045
3.57267	7055
3.57333	7065
3.57400	7073
3.57467	7080
3.57533	7086
3.57600	7091
3.57667	7095
3.57733	7097
3.57800	7098
3.57867	7099
3.57933	7098
3.58000	7096
3.58067	7093
3.58133	7089
3.58200	7084
3.58267	7079
3.58333	7072
3.58400	7064
3.58467	7056
3.58533	7046
3.58600	7036
3.58667	7025
3.58733	7013
3.58800	7001
3.58867	6988
3.58933	6974
3.59000	6960
3.59067	6945
3.59133	6930
3.59200	6914
3.59267	6897
3.59333	6880
3.59400	6863
3.59467	6845
3.59533	6827
3.59600	6808
3.59667	6789
3.59733	6770
3.59800	6750
3.59867	6730
3.59933	6710
3.60000	6690
3.60067	6669
3.60133	6649
3.60200	6628
3.60267	6607
3.60333	6586
3.60400	6564
3.60467	6543
3.60533	6521
3.60600	6500
3.60667	6478
3.60733	6457
3.60800	6435
3.60867	6413
3.60933	6391
3.61000	6369
3.61067	6348
3.61133	6326
3.61200	6304
3.61267	6282
3.61333	6260
3.61400	6238
3.61467	6216
3.61533	6194
3.61600	6172
3.61667	6150
3.61733	6128
3.61800	6106
3.61867	6084
3.61933	6062
3.62000	6040
3.62067	6018
3.62133	5996
3.62200	5974
3.62267	5952
3.62333	5930
3.62400	5908
3.62467	5887
3.62533	5865
3.62600	5843
3.62667	5821
3.62733	5800
3.62800	5778
3.62867	5756
3.62933	5735
3.63000	5713
3.63067	5691
3.63133	5670
3.63200	5648
3.63267	5626
3.63333	5605
3.63400	5583
3.63467	5562
3.63533	5540
3.63600	5518
3.63667	5497
3.63733	5476
3.63800	5454
3.63867	5433
3.63933	5412
3.64000	5390
3.64067	5369
3.64133	5348
3.64200	5327
3.64267	5306
3.64333	5285
3.64400	5264
3.64467	5243
3.64533	5222
3.64600	5201
3.64667	5180
3.64733	5160
3.64800	5139
3.64867	5118
3.64933	5098
3.65000	5078
3.65067	5058
3.65133	5037
3.65200	5017
3.65267	4997
3.65333	4978
3.65400	4958
3.65467	4938
3.65533	4919
3.65600	4899
3.65667	4880
3.65733	4861
3.65800	4842
3.65867	4823
3.65933	4804
3.66000	4786
3.66067	4767
3.66133	4749
3.66200	4731
3.66267	4713
3.66333	4695
3.66400	4677
3.66467	4660
3.66533	4642
3.66600	4625
3.66667	4608
3.66733	4591
3.66800	4575
3.66867	4558
3.66933	4542
3.67000	4526
3.67067	4510
3.67133	4494
3.67200	4479
3.67267	4464
3.67333	4449
3.67400	4434
3.67467	4419
3.67533	4404
3.67600	4390
3.67667	4376
3.67733	4362
3.67800	4348
3.67867	4334
3.67933	4321
3.68000	4307
3.68067	4294
3.68133	4281
3.68200	4269
3.68267	4256
3.68333	4243
3.68400	4231
3.68467	4219
3.68533	4207
3.68600	4196
3.68667	4184
3.68733	4173
3.68800	4162
3.68867	4151
3.68933	4140
3.69000	4129
3.69067	4119
3.69133	4108
3.69200	4098
3.69267	4088
3.69333	4078
3.69400	4069
3.69467	4059
3.69533	4050
3.69600	4040
3.69667	4031
3.69733	4022
3.69800	4014
3.69867	4005
3.69933	3996
3.70000	3988
3.70067	3980
3.70133	3971
3.70200	3963
3.70267	3955
3.70333	3947
3.70400	3940
3.70467	3932
3.70533	3925
3.70600	3917
3.70667	3910
3.70733	3903
3.70800	3896
3.70867	3889
3.70933	3882
3.71000	3875
3.71067	3869
3.71133	3862
3.71200	3856
3.71267	3849
3.71333	3843
3.71400	3837
3.71467	3831
3.71533	3825
3.71600	3819
3.71667	3813
3.71733	3808
3.71800	3802
3.71867	3797
3.71933	3791
3.72000	3786
3.72067	3781
3.72133	3776
3.72200	3771
3.72267	3765
3.72333	3760
3.72400	3755
3.72467	3750
3.72533	3746
3.72600	3741
3.72667	3736
3.72733	3731
3.72800	3727
3.72867	3722
3.72933	3718
3.73000	3714
3.73067	3710
3.73133	3705
3.73200	3701
3.73267	3697
3.73333	3693
3.73400	3689
3.73467	3686
3.73533	3682
3.73600	3678
3.73667	3675
3.73733	3671
3.73800	3668
3.73867	3664
3.73933	3661
3.74000	3657
3.74067	3654
3.74133	3651
3.74200	3648
3.74267	3645
3.74333	3641
3.74400	3638
3.74467	3635
3.74533	3632
3.74600	3629
3.74667	3626
3.74733	3623
3.74800	3621
3.74867	3618
3.74933	3615
3.75000	3612
3.75067	3609
3.75133	3607
3.75200	3604
3.75267	3602
3.75333	3599
3.75400	3596
3.75467	3594
3.75533	3591
3.75600	3589
3.75667	3586
3.75733	3584
3.75800	3582
3.75867	3579
3.75933	3577
3.76000	3575
3.76067	3572
3.76133	3570
3.76200	3568
3.76267	3566
3.76333	3563
3.76400	3561
3.76467	3559
3.76533	3557
3.76600	3555
3.76667	3553
3.76733	3551
3.76800	3549
3.76867	3547
3.76933	3545
3.77000	3543
3.77067	3541
3.77133	3539
3.77200	3537
3.77267	3535
3.77333	3533
3.77400	3531
3.77467	3529
3.77533	3527
3.77600	3526
3.77667	3524
3.77733	3522
3.77800	3520
3.77867	3518
3.77933	3516
3.78000	3514
3.78067	3513
3.78133	3511
3.78200	3509
3.78267	3507
3.78333	3505
3.78400	3503
3.78467	3502
3.78533	3500
3.78600	3498
3.78667	3496
3.78733	3495
3.78800	3493
3.78867	3491
3.78933	3490
3.79000	3488
3.79067	3486
3.79133	3485
3.79200	3483
3.79267	3481
3.79333	3480
3.79400	3478
3.79467	3477
3.79533	3475
3.79600	3474
3.79667	3472
3.79733	3471
3.79800	3469
3.79867	3468
3.79933	3466
3.80000	3465
3.80067	3463
3.80133	3462
3.80200	3461
3.80267	3459
3.80333	3458
3.80400	3456
3.80467	3455
3.80533	3454
3.80600	3452
3.80667	3451
3.80733	3450
3.80800	3448
3.80867	3447
3.80933	3445
3.81000	3444
3.81067	3443
3.81133	3441
3.81200	3440
3.81267	3438
3.81333	3437
3.81400	3436
3.81467	3434
3.81533	3433
3.81600	3431
3.81667	3430
3.81733	3429
3.81800	3427
3.81867	3426
3.81933	3425
3.82000	3423
3.82067	3422
3.82133	3421
3.82200	3419
3.82267	3418
3.82333	3417
3.82400	3416
3.82467	3414
3.82533	3413
3.82600	3412
3.82667	3411
3.82733	3409
3.82800	3408
3.82867	3407
3.82933	3406
3.83000	3404
3.83067	3403
3.83133	3402
3.83200	3401
3.83267	3400
3.83333	3399
3.83400	3397
3.83467	3396
3.83533	3395
3.83600	3394
3.83667	3393
3.83733	3392
3.83800	3391
3.83867	3390
3.83933	3389
3.84000	3387
3.84067	3386
3.84133	3385
3.84200	3384
3.84267	3383
3.84333	3382
3.84400	3381
3.84467	3381
3.84533	3380
3.84600	3379
3.84667	3378
3.84733	3377
3.84800	3376
3.84867	3375
3.84933	3374
3.85000	3373
3.85067	3373
3.85133	3372
3.85200	3371
3.85267	3370
3.85333	3369
3.85400	3369
3.85467	3368
3.85533	3367
3.85600	3366
3.85667	3365
3.85733	3365
3.85800	3364
3.85867	3363
3.85933	3362
3.86000	3361
3.86067	3360
3.86133	3360
3.86200	3359
3.86267	3358
3.86333	3357
3.86400	3356
3.86467	3355
3.86533	3355
3.86600	3354
3.86667	3353
3.86733	3352
3.86800	3351
3.86867	3351
3.86933	3350
3.87000	3349
3.87067	3349
3.87133	3348
3.87200	3347
3.87267	3347
3.87333	3346
3.87400	3345
3.87467	3345
3.87533	3344
3.87600	3343
3.87667	3343
3.87733	3342
3.87800	3342
3.87867	3341
3.87933	3340
3.88000	3340
3.88067	3339
3.88133	3339
3.88200	3338
3.88267	3337
3.88333	3337
3.88400	3336
3.88467	3336
3.88533	3335
3.88600	3335
3.88667	3335
3.88733	3334
3.88800	3334
3.88867	3334
3.88933	3333
3.89000	3333
3.89067	3333
3.89133	3332
3.89200	3332
3.89267	3331
3.89333	3331
3.89400	3330
3.89467	3330
3.89533	3330
3.89600	3329
3.89667	3329
3.89733	3328
3.89800	3328
3.89867	3327
3.89933	3327
3.90000	3326
3.90067	3326
3.90133	3325
3.90200	3325
3.90267	3324
3.90333	3324
3.90400	3323
3.90467	3323
3.90533	3322
3.90600	3322
3.90667	3321
3.90733	3321
3.90800	3321
3.90867	3320
3.90933	3320
3.91000	3319
3.91067	3319
3.91133	3318
3.91200	3318
3.91267	3318
3.91333	3317
3.91400	3317
3.91467	3317
3.91533	3316
3.91600	3316
3.91667	3316
3.91733	3316
3.91800	3315
3.91867	3315
3.91933	3315
3.92000	3315
3.92067	3315
3.92133	3314
3.92200	3314
3.92267	3314
3.92333	3314
3.92400	3314
3.92467	3314
3.92533	3313
3.92600	3313
3.92667	3313
3.92733	3313
3.92800	3313
3.92867	3312
3.92933	3312
3.93000	3312
3.93067	3312
3.93133	3312
3.93200	3311
3.93267	3311
3.93333	3311
3.93400	3311
3.93467	3310
3.93533	3310
3.93600	3310
3.93667	3309
3.93733	3309
3.93800	3309
3.93867	3309
3.93933	3308
3.94000	3308
3.94067	3308
3.94133	3308
3.94200	3307
3.94267	3307
3.94333	3307
3.94400	3306
3.94467	3306
3.94533	3306
3.94600	3305
3.94667	3305
3.94733	3305
3.94800	3304
3.94867	3304
3.94933	3304
3.95000	3303
3.95067	3303
3.95133	3303
3.95200	3302
3.95267	3302
3.95333	3302
3.95400	3301
3.95467	3301
3.95533	3301
3.95600	3300
3.95667	3300
3.95733	3300
3.95800	3300
3.95867	3299
3.95933	3299
3.96000	3299
3.96067	3299
3.96133	3298
3.96200	3298
3.96267	3298
3.96333	3298
3.96400	3298
3.96467	3297
3.96533	3297
3.96600	3297
3.96667	3297
3.96733	3297
3.96800	3297
3.96867	3296
3.96933	3296
3.97000	3296
3.97067	3296
3.97133	3296
3.97200	3296
3.97267	3296
3.97333	3296
3.97400	3296
3.97467	3296
3.97533	3296
3.97600	3296
3.97667	3296
3.97733	3295
3.97800	3295
3.97867	3295
3.97933	3295
3.98000	3296
3.98067	3296
3.98133	3296
3.98200	3296
3.98267	3296
3.98333	3296
3.98400	3296
3.98467	3296
3.98533	3296
3.98600	3296
3.98667	3297
3.98733	3297
3.98800	3297
3.98867	3297
3.98933	3298
3.99000	3298
3.99067	3298
3.99133	3299
3.99200	3299
3.99267	3300
3.99333	3300
3.99400	3301
3.99467	3301
3.99533	3302
3.99600	3303
3.99667	3303
3.99733	3304
3.99800	3305
3.99867	3305
3.99933	3306
4.00000	3307
4.00067	3307
4.00133	3308
4.00200	3309
4.00267	3310
4.00333	3311
4.00400	3312
4.00467	3313
4.00533	3314
4.00600	3315
4.00667	3316
4.00733	3317
4.00800	3319
4.00867	3320
4.00933	3321
4.01000	3323
4.01067	3325
4.01133	3326
4.01200	3328
4.01267	3330
4.01333	3332
4.01400	3334
4.01467	3336
4.01533	3338
4.01600	3341
4.01667	3343
4.01733	3345
4.01800	3348
4.01867	3351
4.01933	3353
4.02000	3356
4.02067	3359
4.02133	3362
4.02200	3365
4.02267	3368
4.02333	3371
4.02400	3374
4.02467	3378
4.02533	3381
4.02600	3384
4.02667	3388
4.02733	3392
4.02800	3396
4.02867	3399
4.02933	3403
4.03000	3407
4.03067	3411
4.03133	3416
4.03200	3420
4.03267	3424
4.03333	3428
4.03400	3433
4.03467	3438
4.03533	3442
4.03600	3447
4.03667	3452
4.03733	3456
4.03800	3461
4.03867	3466
4.03933	3471
4.04000	3476
4.04067	3482
4.04133	3487
4.04200	3492
4.04267	3497
4.04333	3503
4.04400	3508
4.04467	3514
4.04533	3519
4.04600	3525
4.04667	3531
4.04733	3536
4.04800	3542
4.04867	3548
4.04933	3554
4.05000	3559
4.05067	3565
4.05133	3571
4.05200	3577
4.05267	3583
4.05333	3589
4.05400	3595
4.05467	3601
4.05533	3607
4.05600	3613
4.05667	3619
4.05733	3625
4.05800	3631
4.05867	3637
4.05933	3643
4.06000	3649
4.06067	3655
4.06133	3661
4.06200	3667
4.06267	3673
4.06333	3679
4.06400	3685
4.06467	3691
4.06533	3697
4.06600	3703
4.06667	3708
4.06733	3714
4.06800	3720
4.06867	3725
4.06933	3731
4.07000	3736
4.07067	3742
4.07133	3747
4.07200	3753
4.07267	3758
4.07333	3763
4.07400	3769
4.07467	3774
4.07533	3779
4.07600	3784
4.07667	3789
4.07733	3794
4.07800	3799
4.07867	3803
4.07933	3808
4.08000	3813
4.08067	3817
4.08133	3821
4.08200	3826
4.08267	3830
4.08333	3834
4.08400	3837
4.08467	3841
4.08533	3845
4.08600	3848
4.08667	3852
4.08733	3855
4.08800	3858
4.08867	3861
4.08933	3864
4.09000	3867
4.09067	3870
4.09133	3872
4.09200	3875
4.09267	3877
4.09333	3880
4.09400	3882
4.09467	3884
4.09533	3886
4.09600	3888
4.09667	3889
4.09733	3891
4.09800	3893
4.09867	3894
4.09933	3896
4.10000	3897
4.10067	3898
4.10133	3899
4.10200	3900
4.10267	3901
4.10333	3902
4.10400	3903
4.10467	3904
4.10533	3905
4.10600	3906
4.10667	3906
4.10733	3907
4.10800	3907
4.10867	3908
4.10933	3908
4.11000	3908
4.11067	3909
4.11133	3909
4.11200	3909
4.11267	3909
4.11333	3909
4.11400	3909
4.11467	3909
4.11533	3909
4.11600	3909
4.11667	3909
4.11733	3909
4.11800	3909
4.11867	3909
4.11933	3909
4.12000	3909
4.12067	3909
4.12133	3908
4.12200	3908
4.12267	3908
4.12333	3907
4.12400	3907
4.12467	3907
4.12533	3906
4.12600	3906
4.12667	3906
4.12733	3905
4.12800	3905
4.12867	3904
4.12933	3904
4.13000	3904
4.13067	3903
4.13133	3903
4.13200	3902
4.13267	3902
4.13333	3902
4.13400	3901
4.13467	3901
4.13533	3901
4.13600	3900
4.13667	3900
4.13733	3900
4.13800	3899
4.13867	3899
4.13933	3899
4.14000	3899
4.14067	3899
4.14133	3898
4.14200	3898
4.14267	3898
4.14333	3898
4.14400	3898
4.14467	3898
4.14533	3898
4.14600	3898
4.14667	3898
4.14733	3899
4.14800	3899
4.14867	3899
4.14933	3899
4.15000	3899
4.15067	3899
4.15133	3900
4.15200	3900
4.15267	3900
4.15333	3900
4.15400	3900
4.15467	3900
4.15533	3900
4.15600	3901
4.15667	3901
4.15733	3901
4.15800	3901
4.15867	3901
4.15933	3901
4.16000	3901
4.16067	3902
4.16133	3902
4.16200	3902
4.16267	3902
4.16333	3902
4.16400	3902
4.16467	3902
4.16533	3902
4.16600	3902
4.16667	3902
4.16733	3902
4.16800	3902
4.16867	3902
4.16933	3902
4.17000	3902
4.17067	3902
4.17133	3902
4.17200	3901
4.17267	3901
4.17333	3901
4.17400	3901
4.17467	3901
4.17533	3900
4.17600	3900
4.17667	3900
4.17733	3900
4.17800	3899
4.17867	3899
4.17933	3899
4.18000	3898
4.18067	3898
4.18133	3898
4.18200	3898
4.18267	3897
4.18333	3897
4.18400	3897
4.18467	3897
4.18533	3897
4.18600	3897
4.18667	3897
4.18733	3897
4.18800	3897
4.18867	3897
4.18933	3897
4.19000	3897
4.19067	3898
4.19133	3898
4.19200	3898
4.19267	3899
4.19333	3899
4.19400	3899
4.19467	3900
4.19533	3900
4.19600	3901
4.19667	3901
4.19733	3902
4.19800	3903
4.19867	3903
4.19933	3904
4.20000	3905
4.20067	3906
4.20133	3907
4.20200	3908
4.20267	3910
4.20333	3911
4.20400	3913
4.20467	3914
4.20533	3916
4.20600	3918
4.20667	3920
4.20733	3922
4.20800	3924
4.20867	3926
4.20933	3929
4.21000	3931
4.21067	3934
4.21133	3937
4.21200	3940
4.21267	3943
4.21333	3947
4.21400	3950
4.21467	3954
4.21533	3958
4.21600	3962
4.21667	3967
4.21733	3971
4.21800	3976
4.21867	3981
4.21933	3986
4.22000	3992
4.22067	3998
4.22133	4004
4.22200	4010
4.22267	4016
4.22333	4023
4.22400	4030
4.22467	4037
4.22533	4044
4.22600	4052
4.22667	4060
4.22733	4068
4.22800	4076
4.22867	4085
4.22933	4094
4.23000	4103
4.23067	4112
4.23133	4122
4.23200	4132
4.23267	4143
4.23333	4153
4.23400	4164
4.23467	4176
4.23533	4187
4.23600	4199
4.23667	4212
4.23733	4225
4.23800	4238
4.23867	4251
4.23933	4265
4.24000	4279
4.24067	4294
4.24133	4309
4.24200	4324
4.24267	4340
4.24333	4356
4.24400	4373
4.24467	4390
4.24533	4407
4.24600	4425
4.24667	4443
4.24733	4461
4.24800	4480
4.24867	4500
4.24933	4520
4.25000	4540
4.25067	4561
4.25133	4582
4.25200	4603
4.25267	4625
4.25333	4648
4.25400	4670
4.25467	4694
4.25533	4717
4.25600	4741
4.25667	4765
4.25733	4790
4.25800	4815
4.25867	4841
4.25933	4867
4.26000	4893
4.26067	4920
4.26133	4947
4.26200	4975
4.26267	5003
4.26333	5031
4.26400	5060
4.26467	5090
4.26533	5119
4.26600	5149
4.26667	5180
4.26733	5211
4.26800	5242
4.26867	5274
4.26933	5306
4.27000	5338
4.27067	5371
4.27133	5404
4.27200	5438
4.27267	5472
4.27333	5506
4.27400	5541
4.27467	5576
4.27533	5611
4.27600	5647
4.27667	5683
4.27733	5720
4.27800	5757
4.27867	5794
4.27933	5832
4.28000	5870
4.28067	5908
4.28133	5947
4.28200	5986
4.28267	6026
4.28333	6066
4.28400	6106
4.28467	6147
4.28533	6188
4.28600	6229
4.28667	6271
4.28733	6312
4.28800	6354
4.28867	6397
4.28933	6439
4.29000	6482
4.29067	6525
4.29133	6568
4.29200	6611
4.29267	6654
4.29333	6697
4.29400	6741
4.29467	6785
4.29533	6829
4.29600	6873
4.29667	6917
4.29733	6961
4.29800	7006
4.29867	7050
4.29933	7095
4.30000	7140
4.30067	7185
4.30133	7230
4.30200	7275
4.30267	7320
4.30333	7365
4.30400	7410
4.30467	7456
4.30533	7501
4.30600	7546
4.30667	7591
4.30733	7636
4.30800	7680
4.30867	7725
4.30933	7769
4.31000	7813
4.31067	7857
4.31133	7901
4.31200	7944
4.31267	7988
4.31333	8031
4.31400	8073
4.31467	8116
4.31533	8158
4.31600	8199
4.31667	8241
4.31733	8282
4.31800	8322
4.31867	8362
4.31933	8402
4.32000	8441
4.32067	8479
4.32133	8517
4.32200	8555
4.32267	8592
4.32333	8628
4.32400	8664
4.32467	8699
4.32533	8734
4.32600	8768
4.32667	8801
4.32733	8834
4.32800	8866
4.32867	8897
4.32933	8927
4.33000	8957
4.33067	8985
4.33133	9013
4.33200	9040
4.33267	9066
4.33333	9091
4.33400	9116
4.33467	9139
4.33533	9161
4.33600	9182
4.33667	9202
4.33733	9222
4.33800	9240
4.33867	9257
4.33933	9274
4.34000	9289
4.34067	9304
4.34133	9317
4.34200	9330
4.34267	9342
4.34333	9353
4.34400	9363
4.34467	9372
4.34533	9381
4.34600	9388
4.34667	9395
4.34733	9401
4.34800	9407
4.34867	9412
4.34933	9416
4.35000	9419
4.35067	9422
4.35133	9424
4.35200	9426
4.35267	9427
4.35333	9427
4.35400	9427
4.35467	9427
4.35533	9426
4.35600	9425
4.35667	9424
4.35733	9422
4.35800	9420
4.35867	9417
4.35933	9415
4.36000	9413
4.36067	9410
4.36133	9407
4.36200	9405
4.36267	9402
4.36333	9399
4.36400	9397
4.36467	9394
4.36533	9392
4.36600	9389
4.36667	9387
4.36733	9386
4.36800	9384
4.36867	9383
4.36933	9382
4.37000	9381
4.37067	9381
4.37133	9382
4.37200	9383
4.37267	9384
4.37333	9387
4.37400	9390
4.37467	9394
4.37533	9399
4.37600	9404
4.37667	9411
4.37733	9418
4.37800	9427
4.37867	9437
4.37933	9448
4.38000	9459
4.38067	9473
4.38133	9487
4.38200	9503
4.38267	9520
4.38333	9538
4.38400	9558
4.38467	9579
4.38533	9602
4.38600	9626
4.38667	9652
4.38733	9679
4.38800	9708
4.38867	9739
4.38933	9771
4.39000	9805
4.39067	9840
4.39133	9877
4.39200	9916
4.39267	9957
4.39333	9999
4.39400	10043
4.39467	10089
4.39533	10136
4.39600	10186
4.39667	10237
4.39733	10290
4.39800	10345
4.39867	10401
4.39933	10460
4.40000	10520
4.40067	10582
4.40133	10646
4.40200	10711
4.40267	10779
4.40333	10848
4.40400	10919
4.40467	10991
4.40533	11065
4.40600	11141
4.40667	11219
4.40733	11298
4.40800	11378
4.40867	11460
4.40933	11544
4.41000	11629
4.41067	11715
4.41133	11802
4.41200	11890
4.41267	11980
4.41333	12071
4.41400	12163
4.41467	12256
4.41533	12349
4.41600	12444
4.41667	12540
4.41733	12636
4.41800	12733
4.41867	12831
4.41933	12929
4.42000	13028
4.42067	13128
4.42133	13228
4.42200	13329
4.42267	13430
4.42333	13531
4.42400	13633
4.42467	13735
4.42533	13837
4.42600	13939
4.42667	14041
4.42733	14143
4.42800	14245
4.42867	14347
4.42933	14448
4.43000	14549
4.43067	14649
4.43133	14749
4.43200	14848
4.43267	14946
4.43333	15043
4.43400	15140
4.43467	15235
4.43533	15329
4.43600	15421
4.43667	15513
4.43733	15602
4.43800	15691
4.43867	15778
4.43933	15863
4.44000	15947
4.44067	16029
4.44133	16109
4.44200	16187
4.44267	16263
4.44333	16337
4.44400	16410
4.44467	16480
4.44533	16548
4.44600	16614
4.44667	16678
4.44733	16740
4.44800	16799
4.44867	16857
4.44933	16912
4.45000	16964
4.45067	17014
4.45133	17062
4.45200	17107
4.45267	17150
4.45333	17190
4.45400	17227
4.45467	17262
4.45533	17294
4.45600	17324
4.45667	17351
4.45733	17375
4.45800	17396
4.45867	17415
4.45933	17431
4.46000	17444
4.46067	17455
4.46133	17462
4.46200	17467
4.46267	17469
4.46333	17469
4.46400	17466
4.46467	17459
4.46533	17451
4.46600	17439
4.46667	17425
4.46733	17408
4.46800	17389
4.46867	17367
4.46933	17342
4.47000	17315
4.47067	17285
4.47133	17253
4.47200	17218
4.47267	17181
4.47333	17141
4.47400	17098
4.47467	17054
4.47533	17007
4.47600	16958
4.47667	16906
4.47733	16853
4.47800	16797
4.47867	16739
4.47933	16679
4.48000	16618
4.48067	16554
4.48133	16488
4.48200	16421
4.48267	16352
4.48333	16282
4.48400	16209
4.48467	16136
4.48533	16060
4.48600	15984
4.48667	15906
4.48733	15826
4.48800	15746
4.48867	15664
4.48933	15582
4.49000	15498
4.49067	15414
4.49133	15329
4.49200	15243
4.49267	15156
4.49333	15069
4.49400	14982
4.49467	14894
4.49533	14806
4.49600	14717
4.49667	14629
4.49733	14540
4.49800	14451
4.49867	14362
4.49933	14273
4.50000	14185
4.50067	14097
4.50133	14009
4.50200	13922
4.50267	13835
4.50333	13749
4.50400	13663
4.50467	13578
4.50533	13494
4.50600	13411
4.50667	13329
4.50733	13248
4.50800	13168
4.50867	13089
4.50933	13012
4.51000	12936
4.51067	12861
4.51133	12788
4.51200	12717
4.51267	12648
4.51333	12580
4.51400	12514
4.51467	12451
4.51533	12389
4.51600	12329
4.51667	12272
4.51733	12217
4.51800	12164
4.51867	12114
4.51933	12066
4.52000	12020
4.52067	11977
4.52133	11937
4.52200	11900
4.52267	11866
4.52333	11834
4.52400	11806
4.52467	11781
4.52533	11759
4.52600	11740
4.52667	11724
4.52733	11712
4.52800	11703
4.52867	11698
4.52933	11696
4.53000	11698
4.53067	11703
4.53133	11712
4.53200	11725
4.53267	11742
4.53333	11763
4.53400	11787
4.53467	11816
4.53533	11848
4.53600	11885
4.53667	11926
4.53733	11971
4.53800	12020
4.53867	12073
4.53933	12131
4.54000	12193
4.54067	12259
4.54133	12329
4.54200	12404
4.54267	12483
4.54333	12566
4.54400	12654
4.54467	12745
4.54533	12841
4.54600	12942
4.54667	13046
4.54733	13154
4.54800	13267
4.54867	13384
4.54933	13504
4.55000	13629
4.55067	13758
4.55133	13890
4.55200	14027
4.55267	14168
4.55333	14312
4.55400	14460
4.55467	14613
4.55533	14769
4.55600	14928
4.55667	15092
4.55733	15259
4.55800	15429
4.55867	15603
4.55933	15781
4.56000	15962
4.56067	16146
4.56133	16334
4.56200	16525
4.56267	16719
4.56333	16917
4.56400	17118
4.56467	17321
4.56533	17528
4.56600	17737
4.56667	17949
4.56733	18164
4.56800	18381
4.56867	18600
4.56933	18822
4.57000	19046
4.57067	19272
4.57133	19500
4.57200	19730
4.57267	19961
4.57333	20194
4.57400	20429
4.57467	20664
4.57533	20901
4.57600	21139
4.57667	21379
4.57733	21619
4.57800	21859
4.57867	22101
4.57933	22343
4.58000	22586
4.58067	22828
4.58133	23071
4.58200	23313
4.58267	23556
4.58333	23797
4.58400	24038
4.58467	24278
4.58533	24517
4.58600	24755
4.58667	24992
4.58733	25228
4.58800	25462
4.58867	25694
4.58933	25925
4.59000	26154
4.59067	26381
4.59133	26605
4.59200	26828
4.59267	27047
4.59333	27265
4.59400	27479
4.59467	27690
4.59533	27898
4.59600	28103
4.59667	28304
4.59733	28502
4.59800	28696
4.59867	28887
4.59933	29073
4.60000	29256
4.60067	29435
4.60133	29610
4.60200	29780
4.60267	29947
4.60333	30109
4.60400	30268
4.60467	30421
4.60533	30571
4.60600	30716
4.60667	30857
4.60733	30994
4.60800	31126
4.60867	31254
4.60933	31378
4.61000	31497
4.61067	31611
4.61133	31722
4.61200	31827
4.61267	31928
4.61333	32025
4.61400	32116
4.61467	32203
4.61533	32285
4.61600	32363
4.61667	32436
4.61733	32504
4.61800	32567
4.61867	32626
4.61933	32680
4.62000	32729
4.62067	32775
4.62133	32815
4.62200	32852
4.62267	32884
4.62333	32911
4.62400	32934
4.62467	32953
4.62533	32968
4.62600	32978
4.62667	32984
4.62733	32985
4.62800	32983
4.62867	32976
4.62933	32965
4.63000	32950
4.63067	32932
4.63133	32909
4.63200	32883
4.63267	32853
4.63333	32820
4.63400	32784
4.63467	32744
4.63533	32700
4.63600	32654
4.63667	32604
4.63733	32552
4.63800	32497
4.63867	32438
4.63933	32377
4.64000	32314
4.64067	32248
4.64133	32179
4.64200	32107
4.64267	32034
4.64333	31958
4.64400	31880
4.64467	31799
4.64533	31717
4.64600	31633
4.64667	31547
4.64733	31459
4.64800	31370
4.64867	31279
4.64933	31186
4.65000	31093
4.65067	30997
4.65133	30901
4.65200	30803
4.65267	30704
4.65333	30605
4.65400	30504
4.65467	30402
4.65533	30299
4.65600	30196
4.65667	30092
4.65733	29987
4.65800	29881
4.65867	29775
4.65933	29668
4.66000	29561
4.66067	29454
4.66133	29346
4.66200	29237
4.66267	29129
4.66333	29020
4.66400	28911
4.66467	28802
4.66533	28693
4.66600	28584
4.66667	28475
4.66733	28366
4.66800	28258
4.66867	28149
4.66933	28041
4.67000	27933
4.67067	27825
4.67133	27718
4.67200	27611
4.67267	27505
4.67333	27399
4.67400	27294
4.67467	27189
4.67533	27084
4.67600	26981
4.67667	26877
4.67733	26775
4.67800	26673
4.67867	26571
4.67933	26470
4.68000	26370
4.68067	26271
4.68133	26172
4.68200	26074
4.68267	25976
4.68333	25880
4.68400	25784
4.68467	25688
4.68533	25594
4.68600	25500
4.68667	25408
4.68733	25316
4.68800	25224
4.68867	25134
4.68933	25044
4.69000	24955
4.69067	24867
4.69133	24780
4.69200	24693
4.69267	24608
4.69333	24523
4.69400	24439
4.69467	24356
4.69533	24273
4.69600	24191
4.69667	24111
4.69733	24030
4.69800	23951
4.69867	23872
4.69933	23795
4.70000	23718
4.70067	23641
4.70133	23566
4.70200	23491
4.70267	23417
4.70333	23343
4.70400	23270
4.70467	23198
4.70533	23127
4.70600	23056
4.70667	22986
4.70733	22917
4.70800	22848
4.70867	22780
4.70933	22713
4.71000	22647
4.71067	22581
4.71133	22516
4.71200	22451
4.71267	22388
4.71333	22325
4.71400	22263
4.71467	22201
4.71533	22140
4.71600	22080
4.71667	22021
4.71733	21962
4.71800	21904
4.71867	21847
4.71933	21790
4.72000	21734
4.72067	21679
4.72133	21624
4.72200	21570
4.72267	21517
4.72333	21464
4.72400	21412
4.72467	21360
4.72533	21309
4.72600	21258
4.72667	21208
4.72733	21158
4.72800	21109
4.72867	21061
4.72933	21013
4.73000	20966
4.73067	20919
4.73133	20872
4.73200	20826
4.73267	20781
4.73333	20736
4.73400	20691
4.73467	20647
4.73533	20603
4.73600	20560
4.73667	20517
4.73733	20475
4.73800	20433
4.73867	20391
4.73933	20350
4.74000	20310
4.74067	20270
4.74133	20230
4.74200	20191
4.74267	20152
4.74333	20113
4.74400	20075
4.74467	20038
4.74533	20001
4.74600	19964
4.74667	19928
4.74733	19892
4.74800	19856
4.74867	19821
4.74933	19786
4.75000	19751
4.75067	19717
4.75133	19682
4.75200	19648
4.75267	19614
4.75333	19581
4.75400	19547
4.75467	19514
4.75533	19481
4.75600	19448
4.75667	19415
4.75733	19382
4.75800	19350
4.75867	19318
4.75933	19286
4.76000	19254
4.76067	19222
4.76133	19191
4.76200	19160
4.76267	19129
4.76333	19098
4.76400	19067
4.76467	19037
4.76533	19007
4.76600	18977
4.76667	18947
4.76733	18917
4.76800	18887
4.76867	18857
4.76933	18828
4.77000	18798
4.77067	18768
4.77133	18739
4.77200	18709
4.77267	18679
4.77333	18650
4.77400	18620
4.77467	18590
4.77533	18560
4.77600	18531
4.77667	18501
4.77733	18471
4.77800	18441
4.77867	18411
4.77933	18382
4.78000	18352
4.78067	18323
4.78133	18293
4.78200	18264
4.78267	18235
4.78333	18207
4.78400	18178
4.78467	18150
4.78533	18122
4.78600	18095
4.78667	18067
4.78733	18040
4.78800	18013
4.78867	17987
4.78933	17961
4.79000	17935
4.79067	17909
4.79133	17884
4.79200	17859
4.79267	17834
4.79333	17810
4.79400	17785
4.79467	17761
4.79533	17738
4.79600	17714
4.79667	17691
4.79733	17667
4.79800	17645
4.79867	17622
4.79933	17599
4.80000	17577
4.80067	17554
4.80133	17532
4.80200	17510
4.80267	17488
4.80333	17467
4.80400	17445
4.80467	17424
4.80533	17403
4.80600	17381
4.80667	17361
4.80733	17340
4.80800	17319
4.80867	17299
4.80933	17278
4.81000	17258
4.81067	17238
4.81133	17218
4.81200	17199
4.81267	17179
4.81333	17159
4.81400	17139
4.81467	17120
4.81533	17100
4.81600	17080
4.81667	17061
4.81733	17041
4.81800	17021
4.81867	17001
4.81933	16982
4.82000	16962
4.82067	16942
4.82133	16922
4.82200	16902
4.82267	16882
4.82333	16862
4.82400	16842
4.82467	16822
4.82533	16801
4.82600	16781
4.82667	16761
4.82733	16740
4.82800	16720
4.82867	16700
4.82933	16679
4.83000	16659
4.83067	16639
4.83133	16619
4.83200	16598
4.83267	16578
4.83333	16558
4.83400	16538
4.83467	16518
4.83533	16498
4.83600	16479
4.83667	16459
4.83733	16439
4.83800	16420
4.83867	16400
4.83933	16381
4.84000	16361
4.84067	16342
4.84133	16323
4.84200	16304
4.84267	16285
4.84333	16266
4.84400	16247
4.84467	16229
4.84533	16210
4.84600	16191
4.84667	16173
4.84733	16154
4.84800	16135
4.84867	16116
4.84933	16097
4.85000	16078
4.85067	16060
4.85133	16041
4.85200	16022
4.85267	16003
4.85333	15984
4.85400	15965
4.85467	15947
4.85533	15928
4.85600	15909
4.85667	15890
4.85733	15871
4.85800	15852
4.85867	15834
4.85933	15815
4.86000	15797
4.86067	15778
4.86133	15760
4.86200	15742
4.86267	15724
4.86333	15706
4.86400	15688
4.86467	15670
4.86533	15652
4.86600	15635
4.86667	15617
4.86733	15599
4.86800	15582
4.86867	15564
4.86933	15547
4.87000	15530
4.87067	15512
4.87133	15495
4.87200	15478
4.87267	15461
4.87333	15445
4.87400	15428
4.87467	15412
4.87533	15395
4.87600	15379
4.87667	15363
4.87733	15347
4.87800	15331
4.87867	15315
4.87933	15299
4.88000	15283
4.88067	15268
4.88133	15252
4.88200	15237
4.88267	15222
4.88333	15206
4.88400	15191
4.88467	15176
4.88533	15161
4.88600	15146
4.88667	15131
4.88733	15117
4.88800	15102
4.88867	15087
4.88933	15073
4.89000	15058
4.89067	15044
4.89133	15029
4.89200	15015
4.89267	15001
4.89333	14987
4.89400	14973
4.89467	14959
4.89533	14945
4.89600	14931
4.89667	14917
4.89733	14903
4.89800	14890
4.89867	14876
4.89933	14862
4.90000	14849
4.90067	14835
4.90133	14821
4.90200	14808
4.90267	14794
4.90333	14781
4.90400	14767
4.90467	14754
4.90533	14740
4.90600	14727
4.90667	14713
4.90733	14700
4.90800	14686
4.90867	14673
4.90933	14659
4.91000	14646
4.91067	14632
4.91133	14619
4.91200	14605
4.91267	14592
4.91333	14578
4.91400	14565
4.91467	14552
4.91533	14538
4.91600	14525
4.91667	14511
4.91733	14498
4.91800	14485
4.91867	14471
4.91933	14458
4.92000	14444
4.92067	14431
4.92133	14417
4.92200	14404
4.92267	14390
4.92333	14377
4.92400	14363
4.92467	14350
4.92533	14337
4.92600	14323
4.92667	14309
4.92733	14296
4.92800	14282
4.92867	14268
4.92933	14255
4.93000	14241
4.93067	14227
4.93133	14212
4.93200	14198
4.93267	14184
4.93333	14169
4.93400	14155
4.93467	14140
4.93533	14126
4.93600	14111
4.93667	14097
4.93733	14082
4.93800	14068
4.93867	14053
4.93933	14039
4.94000	14025
4.94067	14010
4.94133	13996
4.94200	13982
4.94267	13968
4.94333	13954
4.94400	13940
4.94467	13926
4.94533	13912
4.94600	13899
4.94667	13885
4.94733	13872
4.94800	13858
4.94867	13845
4.94933	13832
4.95000	13818
4.95067	13805
4.95133	13791
4.95200	13778
4.95267	13764
4.95333	13751
4.95400	13737
4.95467	13723
4.95533	13709
4.95600	13696
4.95667	13682
4.95733	13668
4.95800	13654
4.95867	13640
4.95933	13626
4.96000	13612
4.96067	13599
4.96133	13585
4.96200	13572
4.96267	13558
4.96333	13545
4.96400	13532
4.96467	13519
4.96533	13507
4.96600	13494
4.96667	13482
4.96733	13469
4.96800	13457
4.96867	13445
4.96933	13433
4.97000	13422
4.97067	13410
4.97133	13398
4.97200	13387
4.97267	13376
4.97333	13365
4.97400	13354
4.97467	13343
4.97533	13332
4.97600	13321
4.97667	13311
4.97733	13300
4.97800	13290
4.97867	13280
4.97933	13270
4.98000	13260
4.98067	13250
4.98133	13240
4.98200	13230
4.98267	13220
4.98333	13210
4.98400	13200
4.98467	13190
4.98533	13180
4.98600	13171
4.98667	13161
4.98733	13151
4.98800	13141
4.98867	13131
4.98933	13121
4.99000	13111
4.99067	13101
4.99133	13092
4.99200	13082
4.99267	13072
4.99333	13062
4.99400	13052
4.99467	13041
4.99533	13031
4.99600	13021
4.99667	13011
4.99733	13000
4.99800	12990
4.99867	12979
4.99933	12969
5.00000	12958
5.00067	12947
5.00133	12937
5.00200	12926
5.00267	12915
5.00333	12904
5.00400	12893
5.00467	12882
5.00533	12871
5.00600	12860
5.00667	12849
5.00733	12838
5.00800	12828
5.00867	12817
5.00933	12806
5.01000	12795
5.01067	12784
5.01133	12773
5.01200	12762
5.01267	12751
5.01333	12740
5.01400	12729
5.01467	12719
5.01533	12708
5.01600	12697
5.01667	12686
5.01733	12676
5.01800	12665
5.01867	12654
5.01933	12644
5.02000	12633
5.02067	12623
5.02133	12612
5.02200	12602
5.02267	12592
5.02333	12581
5.02400	12571
5.02467	12561
5.02533	12551
5.02600	12541
5.02667	12530
5.02733	12520
5.02800	12510
5.02867	12500
5.02933	12490
5.03000	12480
5.03067	12470
5.03133	12460
5.03200	12450
5.03267	12440
5.03333	12430
5.03400	12421
5.03467	12411
5.03533	12401
5.03600	12392
5.03667	12382
5.03733	12373
5.03800	12364
5.03867	12354
5.03933	12345
5.04000	12336
5.04067	12327
5.04133	12318
5.04200	12309
5.04267	12299
5.04333	12290
5.04400	12281
5.04467	12272
5.04533	12264
5.04600	12255
5.04667	12246
5.04733	12237
5.04800	12228
5.04867	12220
5.04933	12211
5.05000	12203
5.05067	12194
5.05133	12186
5.05200	12178
5.05267	12170
5.05333	12162
5.05400	12155
5.05467	12147
5.05533	12139
5.05600	12132
5.05667	12125
5.05733	12117
5.05800	12110
5.05867	12102
5.05933	12095
5.06000	12087
5.06067	12080
5.06133	12073
5.06200	12065
5.06267	12058
5.06333	12051
5.06400	12044
5.06467	12037
5.06533	12030
5.06600	12023
5.06667	12016
5.06733	12010
5.06800	12003
5.06867	11996
5.06933	11990
5.07000	11983
5.07067	11976
5.07133	11970
5.07200	11963
5.07267	11956
5.07333	11950
5.07400	11943
5.07467	11936
5.07533	11929
5.07600	11922
5.07667	11915
5.07733	11908
5.07800	11901
5.07867	11894
5.07933	11887
5.08000	11880
5.08067	11873
5.08133	11866
5.08200	11858
5.08267	11851
5.08333	11843
5.08400	11836
5.08467	11828
5.08533	11820
5.08600	11812
5.08667	11804
5.08733	11796
5.08800	11788
5.08867	11780
5.08933	11771
5.09000	11763
5.09067	11755
5.09133	11746
5.09200	11738
5.09267	11729
5.09333	11721
5.09400	11713
5.09467	11704
5.09533	11696
5.09600	11688
5.09667	11680
5.09733	11672
5.09800	11663
5.09867	11655
5.09933	11647
5.10000	11640
5.10067	11632
5.10133	11624
5.10200	11616
5.10267	11608
5.10333	11601
5.10400	11593
5.10467	11586
5.10533	11578
5.10600	11571
5.10667	11563
5.10733	11556
5.10800	11548
5.10867	11541
5.10933	11534
5.11000	11526
5.11067	11519
5.11133	11511
5.11200	11504
5.11267	11497
5.11333	11490
5.11400	11483
5.11467	11476
5.11533	11469
5.11600	11462
5.11667	11455
5.11733	11448
5.11800	11442
5.11867	11435
5.11933	11428
5.12000	11421
5.12067	11415
5.12133	11408
5.12200	11402
5.12267	11395
5.12333	11389
5.12400	11383
5.12467	11377
5.12533	11371
5.12600	11365
5.12667	11359
5.12733	11354
5.12800	11348
5.12867	11343
5.12933	11337
5.13000	11332
5.13067	11327
5.13133	11322
5.13200	11317
5.13267	11313
5.13333	11308
5.13400	11304
5.13467	11300
5.13533	11296
5.13600	11292
5.13667	11289
5.13733	11285
5.13800	11282
5.13867	11279
5.13933	11277
5.14000	11274
5.14067	11272
5.14133	11270
5.14200	11268
5.14267	11266
5.14333	11264
5.14400	11263
5.14467	11261
5.14533	11260
5.14600	11259
5.14667	11258
5.14733	11257
5.14800	11256
5.14867	11256
5.14933	11255
5.15000	11255
5.15067	11254
5.15133	11254
5.15200	11254
5.15267	11253
5.15333	11253
5.15400	11253
5.15467	11253
5.15533	11253
5.15600	11253
5.15667	11253
5.15733	11253
5.15800	11253
5.15867	11253
5.15933	11254
5.16000	11254
5.16067	11255
5.16133	11255
5.16200	11256
5.16267	11257
5.16333	11258
5.16400	11259
5.16467	11260
5.16533	11261
5.16600	11263
5.16667	11265
5.16733	11266
5.16800	11268
5.16867	11270
5.16933	11273
5.17000	11275
5.17067	11278
5.17133	11281
5.17200	11284
5.17267	11287
5.17333	11290
5.17400	11293
5.17467	11297
5.17533	11300
5.17600	11304
5.17667	11308
5.17733	11312
5.17800	11316
5.17867	11320
5.17933	11324
5.18000	11328
5.18067	11332
5.18133	11337
5.18200	11341
5.18267	11346
5.18333	11351
5.18400	11356
5.18467	11361
5.18533	11366
5.18600	11372
5.18667	11377
5.18733	11382
5.18800	11388
5.18867	11394
5.18933	11399
5.19000	11405
5.19067	11411
5.19133	11416
5.19200	11422
5.19267	11428
5.19333	11434
5.19400	11440
5.19467	11446
5.19533	11452
5.19600	11458
5.19667	11464
5.19733	11470
5.19800	11476
5.19867	11482
5.19933	11487
5.20000	11493
5.20067	11499
5.20133	11505
5.20200	11510
5.20267	11516
5.20333	11522
5.20400	11527
5.20467	11533
5.20533	11538
5.20600	11544
5.20667	11549
5.20733	11555
5.20800	11560
5.20867	11565
5.20933	11571
5.21000	11576
5.21067	11581
5.21133	11586
5.21200	11592
5.21267	11597
5.21333	11601
5.21400	11606
5.21467	11611
5.21533	11616
5.21600	11620
5.21667	11625
5.21733	11629
5.21800	11633
5.21867	11637
5.21933	11641
5.22000	11644
5.22067	11648
5.22133	11651
5.22200	11654
5.22267	11657
5.22333	11660
5.22400	11662
5.22467	11665
5.22533	11667
5.22600	11668
5.22667	11670
5.22733	11671
5.22800	11671
5.22867	11672
5.22933	11672
5.23000	11672
5.23067	11671
5.23133	11671
5.23200	11670
5.23267	11668
5.23333	11667
5.23400	11665
5.23467	11662
5.23533	11660
5.23600	11657
5.23667	11654
5.23733	11650
5.23800	11647
5.23867	11643
5.23933	11639
5.24000	11635
5.24067	11630
5.24133	11625
5.24200	11621
5.24267	11615
5.24333	11610
5.24400	11605
5.24467	11599
5.24533	11593
5.24600	11587
5.24667	11580
5.24733	11574
5.24800	11567
5.24867	11560
5.24933	11552
5.25000	11544
5.25067	11536
5.25133	11528
5.25200	11520
5.25267	11511
5.25333	11502
5.25400	11493
5.25467	11484
5.25533	11474
5.25600	11464
5.25667	11454
5.25733	11443
5.25800	11433
5.25867	11422
5.25933	11411
5.26000	11399
5.26067	11388
5.26133	11376
5.26200	11364
5.26267	11352
5.26333	11340
5.26400	11328
5.26467	11315
5.26533	11302
5.26600	11289
5.26667	11276
5.26733	11263
5.26800	11250
5.26867	11236
5.26933	11223
5.27000	11209
5.27067	11195
5.27133	11181
5.27200	11167
5.27267	11153
5.27333	11138
5.27400	11124
5.27467	11109
5.27533	11095
5.27600	11080
5.27667	11065
5.27733	11051
5.27800	11036
5.27867	11021
5.27933	11007
5.28000	10992
5.28067	10977
5.28133	10962
5.28200	10947
5.28267	10932
5.28333	10918
5.28400	10903
5.28467	10888
5.28533	10874
5.28600	10859
5.28667	10844
5.28733	10830
5.28800	10815
5.28867	10801
5.28933	10787
5.29000	10772
5.29067	10758
5.29133	10744
5.29200	10730
5.29267	10716
5.29333	10702
5.29400	10689
5.29467	10675
5.29533	10661
5.29600	10648
5.29667	10635
5.29733	10621
5.29800	10608
5.29867	10595
5.29933	10582
5.30000	10569
5.30067	10556
5.30133	10544
5.30200	10531
5.30267	10519
5.30333	10506
5.30400	10494
5.30467	10482
5.30533	10470
5.30600	10458
5.30667	10446
5.30733	10434
5.30800	10422
5.30867	10410
5.30933	10399
5.31000	10387
5.31067	10375
5.31133	10364
5.31200	10352
5.31267	10340
5.31333	10329
5.31400	10317
5.31467	10305
5.31533	10294
5.31600	10282
5.31667	10271
5.31733	10259
5.31800	10248
5.31867	10237
5.31933	10225
5.32000	10214
5.32067	10203
5.32133	10192
5.32200	10181
5.32267	10170
5.32333	10159
5.32400	10148
5.32467	10138
5.32533	10127
5.32600	10116
5.32667	10106
5.32733	10095
5.32800	10085
5.32867	10074
5.32933	10064
5.33000	10054
5.33067	10044
5.33133	10034
5.33200	10024
5.33267	10013
5.33333	10003
5.33400	9993
5.33467	9983
5.33533	9974
5.33600	9964
5.33667	9954
5.33733	9944
5.33800	9934
5.33867	9924
5.33933	9914
5.34000	9905
5.34067	9895
5.34133	9885
5.34200	9876
5.34267	9866
5.34333	9856
5.34400	9847
5.34467	9837
5.34533	9828
5.34600	9818
5.34667	9809
5.34733	9799
5.34800	9790
5.34867	9780
5.34933	9771
5.35000	9761
5.35067	9752
5.35133	9743
5.35200	9733
5.35267	9724
5.35333	9714
5.35400	9705
5.35467	9696
5.35533	9686
5.35600	9677
5.35667	9668
5.35733	9658
5.35800	9649
5.35867	9640
5.35933	9631
5.36000	9622
5.36067	9612
5.36133	9603
5.36200	9594
5.36267	9585
5.36333	9576
5.36400	9567
5.36467	9558
5.36533	9550
5.36600	9541
5.36667	9532
5.36733	9524
5.36800	9515
5.36867	9507
5.36933	9498
5.37000	9490
5.37067	9481
5.37133	9473
5.37200	9465
5.37267	9456
5.37333	9448
5.37400	9440
5.37467	9432
5.37533	9424
5.37600	9415
5.37667	9407
5.37733	9399
5.37800	9391
5.37867	9383
5.37933	9375
5.38000	9368
5.38067	9360
5.38133	9352
5.38200	9344
5.38267	9336
5.38333	9329
5.38400	9321
5.38467	9313
5.38533	9306
5.38600	9298
5.38667	9291
5.38733	9283
5.38800	9276
5.38867	9269
5.38933	9261
5.39000	9254
5.39067	9247
5.39133	9240
5.39200	9233
5.39267	9226
5.39333	9220
5.39400	9213
5.39467	9206
5.39533	9200
5.39600	9193
5.39667	9187
5.39733	9180
5.39800	9174
5.39867	9168
5.39933	9161
5.40000	9155
5.40067	9149
5.40133	9142
5.40200	9136
5.40267	9130
5.40333	9123
5.40400	9117
5.40467	9111
5.40533	9105
5.40600	9099
5.40667	9093
5.40733	9087
5.40800	9081
5.40867	9075
5.40933	9069
5.41000	9063
5.41067	9057
5.41133	9051
5.41200	9045
5.41267	9039
5.41333	9033
5.41400	9027
5.41467	9020
5.41533	9014
5.41600	9008
5.41667	9002
5.41733	8996
5.41800	8990
5.41867	8984
5.41933	8978
5.42000	8972
5.42067	8966
5.42133	8960
5.42200	8954
5.42267	8948
5.42333	8942
5.42400	8936
5.42467	8930
5.42533	8924
5.42600	8919
5.42667	8913
5.42733	8907
5.42800	8901
5.42867	8895
5.42933	8889
5.43000	8883
5.43067	8877
5.43133	8872
5.43200	8866
5.43267	8860
5.43333	8853
5.43400	8847
5.43467	8841
5.43533	8835
5.43600	8829
5.43667	8823
5.43733	8816
5.43800	8810
5.43867	8804
5.43933	8797
5.44000	8791
5.44067	8785
5.44133	8778
5.44200	8772
5.44267	8765
5.44333	8759
5.44400	8752
5.44467	8746
5.44533	8739
5.44600	8733
5.44667	8726
5.44733	8720
5.44800	8713
5.44867	8707
5.44933	8700
5.45000	8694
5.45067	8687
5.45133	8681
5.45200	8675
5.45267	8668
5.45333	8662
5.45400	8656
5.45467	8650
5.45533	8644
5.45600	8637
5.45667	8631
5.45733	8625
5.45800	8619
5.45867	8613
5.45933	8607
5.46000	8600
5.46067	8594
5.46133	8588
5.46200	8582
5.46267	8576
5.46333	8570
5.46400	8564
5.46467	8558
5.46533	8553
5.46600	8547
5.46667	8541
5.46733	8535
5.46800	8530
5.46867	8524
5.46933	8519
5.47000	8514
5.47067	8508
5.47133	8503
5.47200	8498
5.47267	8493
5.47333	8488
5.47400	8483
5.47467	8478
5.47533	8473
5.47600	8468
5.47667	8463
5.47733	8458
5.47800	8453
5.47867	8448
5.47933	8444
5.48000	8439
5.48067	8434
5.48133	8430
5.48200	8425
5.48267	8420
5.48333	8416
5.48400	8411
5.48467	8407
5.48533	8402
5.48600	8397
5.48667	8393
5.48733	8388
5.48800	8384
5.48867	8379
5.48933	8374
5.49000	8370
5.49067	8365
5.49133	8360
5.49200	8355
5.49267	8351
5.49333	8346
5.49400	8341
5.49467	8337
5.49533	8332
5.49600	8327
5.49667	8323
5.49733	8318
5.49800	8314
5.49867	8309
5.49933	8305
5.50000	8300
5.50067	8296
5.50133	8291
5.50200	8287
5.50267	8283
5.50333	8278
5.50400	8274
5.50467	8270
5.50533	8265
5.50600	8261
5.50667	8256
5.50733	8252
5.50800	8247
5.50867	8243
5.50933	8238
5.51000	8234
5.51067	8229
5.51133	8224
5.51200	8219
5.51267	8215
5.51333	8210
5.51400	8205
5.51467	8200
5.51533	8195
5.51600	8191
5.51667	8186
5.51733	8181
5.51800	8176
5.51867	8171
5.51933	8167
5.52000	8162
5.52067	8157
5.52133	8152
5.52200	8147
5.52267	8142
5.52333	8137
5.52400	8132
5.52467	8127
5.52533	8123
5.52600	8118
5.52667	8113
5.52733	8108
5.52800	8103
5.52867	8098
5.52933	8094
5.53000	8089
5.53067	8084
5.53133	8080
5.53200	8075
5.53267	8070
5.53333	8066
5.53400	8061
5.53467	8057
5.53533	8052
5.53600	8047
5.53667	8043
5.53733	8038
5.53800	8034
5.53867	8029
5.53933	8025
5.54000	8020
5.54067	8016
5.54133	8012
5.54200	8007
5.54267	8003
5.54333	7999
5.54400	7995
5.54467	7991
5.54533	7986
5.54600	7982
5.54667	7978
5.54733	7974
5.54800	7970
5.54867	7966
5.54933	7962
5.55000	7958
5.55067	7954
5.55133	7950
5.55200	7946
5.55267	7942
5.55333	7938
5.55400	7934
5.55467	7931
5.55533	7927
5.55600	7923
5.55667	7919
5.55733	7916
5.55800	7912
5.55867	7908
5.55933	7905
5.56000	7901
5.56067	7898
5.56133	7894
5.56200	7891
5.56267	7887
5.56333	7884
5.56400	7880
5.56467	7877
5.56533	7873
5.56600	7870
5.56667	7867
5.56733	7863
5.56800	7860
5.56867	7856
5.56933	7853
5.57000	7849
5.57067	7846
5.57133	7842
5.57200	7838
5.57267	7835
5.57333	7831
5.57400	7827
5.57467	7824
5.57533	7820
5.57600	7816
5.57667	7812
5.57733	7808
5.57800	7804
5.57867	7800
5.57933	7797
5.58000	7793
5.58067	7789
5.58133	7785
5.58200	7781
5.58267	7777
5.58333	7773
5.58400	7769
5.58467	7766
5.58533	7762
5.58600	7758
5.58667	7754
5.58733	7750
5.58800	7747
5.58867	7743
5.58933	7739
5.59000	7735
5.59067	7731
5.59133	7728
5.59200	7724
5.59267	7720
5.59333	7717
5.59400	7713
5.59467	7709
5.59533	7705
5.59600	7702
5.59667	7698
5.59733	7694
5.59800	7691
5.59867	7687
5.59933	7684
5.60000	7680
5.60067	7677
5.60133	7673
5.60200	7669
5.60267	7666
5.60333	7662
5.60400	7659
5.60467	7655
5.60533	7652
5.60600	7648
5.60667	7645
5.60733	7641
5.60800	7638
5.60867	7634
5.60933	7631
5.61000	7627
5.61067	7624
5.61133	7620
5.61200	7617
5.61267	7613
5.61333	7609
5.61400	7606
5.61467	7602
5.61533	7599
5.61600	7595
5.61667	7592
5.61733	7588
5.61800	7585
5.61867	7581
5.61933	7578
5.62000	7575
5.62067	7571
5.62133	7568
5.62200	7565
5.62267	7562
5.62333	7558
5.62400	7555
5.62467	7552
5.62533	7549
5.62600	7546
5.62667	7543
5.62733	7539
5.62800	7536
5.62867	7533
5.62933	7530
5.63000	7527
5.63067	7524
5.63133	7521
5.63200	7518
5.63267	7515
5.63333	7512
5.63400	7509
5.63467	7506
5.63533	7504
5.63600	7501
5.63667	7498
5.63733	7495
5.63800	7492
5.63867	7489
5.63933	7486
5.64000	7483
5.64067	7480
5.64133	7477
5.64200	7474
5.64267	7471
5.64333	7468
5.64400	7465
5.64467	7462
5.64533	7459
5.64600	7456
5.64667	7453
5.64733	7450
5.64800	7446
5.64867	7443
5.64933	7440
5.65000	7437
5.65067	7434
5.65133	7431
5.65200	7428
5.65267	7424
5.65333	7421
5.65400	7418
5.65467	7415
5.65533	7411
5.65600	7408
5.65667	7405
5.65733	7401
5.65800	7398
5.65867	7395
5.65933	7391
5.66000	7388
5.66067	7385
5.66133	7381
5.66200	7378
5.66267	7375
5.66333	7371
5.66400	7368
5.66467	7365
5.66533	7361
5.66600	7358
5.66667	7355
5.66733	7351
5.66800	7348
5.66867	7345
5.66933	7341
5.67000	7338
5.67067	7335
5.67133	7332
5.67200	7329
5.67267	7325
5.67333	7322
5.67400	7319
5.67467	7316
5.67533	7313
5.67600	7309
5.67667	7306
5.67733	7303
5.67800	7300
5.67867	7297
5.67933	7294
5.68000	7290
5.68067	7287
5.68133	7284
5.68200	7280
5.68267	7277
5.68333	7274
5.68400	7270
5.68467	7267
5.68533	7264
5.68600	7260
5.68667	7257
5.68733	7254
5.68800	7250
5.68867	7247
5.68933	7244
5.69000	7240
5.69067	7237
5.69133	7234
5.69200	7231
5.69267	7227
5.69333	7224
5.69400	7222
5.69467	7219
5.69533	7216
5.69600	7213
5.69667	7210
5.69733	7208
5.69800	7205
5.69867	7202
5.69933	7200
5.70000	7197
5.70067	7195
5.70133	7192
5.70200	7189
5.70267	7187
5.70333	7184
5.70400	7181
5.70467	7178
5.70533	7176
5.70600	7173
5.70667	7170
5.70733	7168
5.70800	7165
5.70867	7162
5.70933	7160
5.71000	7157
5.71067	7155
5.71133	7152
5.71200	7149
5.71267	7147
5.71333	7144
5.71400	7142
5.71467	7139
5.71533	7137
5.71600	7134
5.71667	7131
5.71733	7129
5.71800	7126
5.71867	7124
5.71933	7121
5.72000	7119
5.72067	7116
5.72133	7114
5.72200	7111
5.72267	7109
5.72333	7106
5.72400	7104
5.72467	7101
5.72533	7099
5.72600	7097
5.72667	7095
5.72733	7092
5.72800	7090
5.72867	7088
5.72933	7086
5.73000	7083
5.73067	7081
5.73133	7079
5.73200	7076
5.73267	7074
5.73333	7072
5.73400	7070
5.73467	7067
5.73533	7065
5.73600	7063
5.73667	7060
5.73733	7058
5.73800	7055
5.73867	7053
5.73933	7050
5.74000	7048
5.74067	7045
5.74133	7043
5.74200	7040
5.74267	7038
5.74333	7035
5.74400	7033
5.74467	7030
5.74533	7028
5.74600	7025
5.74667	7023
5.74733	7020
5.74800	7018
5.74867	7015
5.74933	7013
5.75000	7010
5.75067	7008
5.75133	7005
5.75200	7002
5.75267	7000
5.75333	6997
5.75400	6994
5.75467	6992
5.75533	6989
5.75600	6986
5.75667	6984
5.75733	6981
5.75800	6978
5.75867	6976
5.75933	6973
5.76000	6970
5.76067	6968
5.76133	6965
5.76200	6963
5.76267	6960
5.76333	6958
5.76400	6956
5.76467	6953
5.76533	6951
5.76600	6949
5.76667	6947
5.76733	6945
5.76800	6942
5.76867	6940
5.76933	6938
5.77000	6936
5.77067	6934
5.77133	6932
5.77200	6930
5.77267	6928
5.77333	6927
5.77400	6925
5.77467	6923
5.77533	6921
5.77600	6920
5.77667	6918
5.77733	6917
5.77800	6915
5.77867	6913
5.77933	6912
5.78000	6910
5.78067	6908
5.78133	6907
5.78200	6905
5.78267	6904
5.78333	6902
5.78400	6901
5.78467	6899
5.78533	6898
5.78600	6896
5.78667	6895
5.78733	6894
5.78800	6892
5.78867	6891
5.78933	6890
5.79000	6888
5.79067	6887
5.79133	6886
5.79200	6884
5.79267	6883
5.79333	6882
5.79400	6880
5.79467	6879
5.79533	6878
5.79600	6877
5.79667	6876
5.79733	6875
5.79800	6874
5.79867	6872
5.79933	6871
5.80000	6870
5.80067	6869
5.80133	6869
5.80200	6868
5.80267	6867
5.80333	6866
5.80400	6865
5.80467	6864
5.80533	6863
5.80600	6862
5.80667	6861
5.80733	6860
5.80800	6859
5.80867	6859
5.80933	6858
5.81000	6857
5.81067	6856
5.81133	6855
5.81200	6854
5.81267	6853
5.81333	6852
5.81400	6851
5.81467	6850
5.81533	6849
5.81600	6848
5.81667	6848
5.81733	6847
5.81800	6846
5.81867	6845
5.81933	6843
5.82000	6842
5.82067	6841
5.82133	6840
5.82200	6839
5.82267	6838
5.82333	6837
5.82400	6836
5.82467	6835
5.82533	6834
5.82600	6833
5.82667	6831
5.82733	6830
5.82800	6829
5.82867	6827
5.82933	6826
5.83000	6825
5.83067	6823
5.83133	6822
5.83200	6821
5.83267	6819
5.83333	6818
5.83400	6816
5.83467	6815
5.83533	6813
5.83600	6812
5.83667	6810
5.83733	6808
5.83800	6807
5.83867	6805
5.83933	6804
5.84000	6802
5.84067	6801
5.84133	6799
5.84200	6797
5.84267	6796
5.84333	6794
5.84400	6793
5.84467	6791
5.84533	6790
5.84600	6788
5.84667	6787
5.84733	6785
5.84800	6784
5.84867	6782
5.84933	6780
5.85000	6779
5.85067	6777
5.85133	6776
5.85200	6774
5.85267	6772
5.85333	6771
5.85400	6769
5.85467	6767
5.85533	6765
5.85600	6764
5.85667	6762
5.85733	6760
5.85800	6759
5.85867	6757
5.85933	6755
5.86000	6753
5.86067	6752
5.86133	6750
5.86200	6748
5.86267	6747
5.86333	6745
5.86400	6743
5.86467	6741
5.86533	6740
5.86600	6738
5.86667	6736
5.86733	6735
5.86800	6733
5.86867	6731
5.86933	6729
5.87000	6727
5.87067	6726
5.87133	6724
5.87200	6722
5.87267	6720
5.87333	6718
5.87400	6716
5.87467	6714
5.87533	6712
5.87600	6710
5.87667	6708
5.87733	6706
5.87800	6704
5.87867	6702
5.87933	6700
5.88000	6698
5.88067	6695
5.88133	6693
5.88200	6691
5.88267	6689
5.88333	6687
5.88400	6684
5.88467	6682
5.88533	6680
5.88600	6677
5.88667	6675
5.88733	6673
5.88800	6671
5.88867	6668
5.88933	6666
5.89000	6663
5.89067	6661
5.89133	6658
5.89200	6656
5.89267	6653
5.89333	6651
5.89400	6648
5.89467	6645
5.89533	6643
5.89600	6640
5.89667	6637
5.89733	6635
5.89800	6632
5.89867	6629
5.89933	6627
5.90000	6624
5.90067	6622
5.90133	6619
5.90200	6616
5.90267	6614
5.90333	6611
5.90400	6609
5.90467	6606
5.90533	6603
5.90600	6601
5.90667	6598
5.90733	6596
5.90800	6593
5.90867	6590
5.90933	6588
5.91000	6585
5.91067	6582
5.91133	6580
5.91200	6577
5.91267	6574
5.91333	6572
5.91400	6569
5.91467	6566
5.91533	6564
5.91600	6561
5.91667	6559
5.91733	6556
5.91800	6554
5.91867	6551
5.91933	6549
5.92000	6546
5.92067	6544
5.92133	6541
5.92200	6539
5.92267	6537
5.92333	6535
5.92400	6532
5.92467	6530
5.92533	6528
5.92600	6526
5.92667	6524
5.92733	6522
5.92800	6520
5.92867	6518
5.92933	6516
5.93000	6514
5.93067	6512
5.93133	6510
5.93200	6508
5.93267	6506
5.93333	6504
5.93400	6502
5.93467	6500
5.93533	6499
5.93600	6497
5.93667	6495
5.93733	6493
5.93800	6491
5.93867	6489
5.93933	6487
5.94000	6486
5.94067	6484
5.94133	6482
5.94200	6480
5.94267	6478
5.94333	6476
5.94400	6475
5.94467	6473
5.94533	6471
5.94600	6469
5.94667	6468
5.94733	6466
5.94800	6464
5.94867	6462
5.94933	6460
5.95000	6459
5.95067	6457
5.95133	6455
5.95200	6453
5.95267	6451
5.95333	6450
5.95400	6448
5.95467	6446
5.95533	6444
5.95600	6443
5.95667	6441
5.95733	6439
5.95800	6437
5.95867	6436
5.95933	6434
5.96000	6432
5.96067	6430
5.96133	6429
5.96200	6427
5.96267	6425
5.96333	6423
5.96400	6422
5.96467	6420
5.96533	6419
5.96600	6417
5.96667	6415
5.96733	6414
5.96800	6412
5.96867	6411
5.96933	6409
5.97000	6408
5.97067	6406
5.97133	6405
5.97200	6403
5.97267	6402
5.97333	6400
5.97400	6399
5.97467	6397
5.97533	6395
5.97600	6394
5.97667	6393
5.97733	6391
5.97800	6390
5.97867	6388
5.97933	6387
5.98000	6385
5.98067	6384
5.98133	6382
5.98200	6380
5.98267	6379
5.98333	6377
5.98400	6376
5.98467	6374
5.98533	6373
5.98600	6371
5.98667	6370
5.98733	6368
5.98800	6366
5.98867	6365
5.98933	6363
5.99000	6362
5.99067	6360
5.99133	6359
5.99200	6357
5.99267	6356
5.99333	6354
5.99400	6353
5.99467	6351
5.99533	6350
5.99600	6348
5.99667	6347
5.99733	6345
5.99800	6344
5.99867	6342
5.99933	6341
6.00000	6339
6.00067	6338
6.00133	6337
6.00200	6335
6.00267	6334
6.00333	6333
6.00400	6331
6.00467	6330
6.00533	6329
6.00600	6328
6.00667	6326
6.00733	6325
6.00800	6324
6.00867	6323
6.00933	6321
6.01000	6320
6.01067	6319
6.01133	6318
6.01200	6317
6.01267	6315
6.01333	6314
6.01400	6313
6.01467	6312
6.01533	6311
6.01600	6310
6.01667	6309
6.01733	6308
6.01800	6307
6.01867	6306
6.01933	6305
6.02000	6304
6.02067	6304
6.02133	6303
6.02200	6302
6.02267	6301
6.02333	6300
6.02400	6300
6.02467	6299
6.02533	6298
6.02600	6297
6.02667	6296
6.02733	6296
6.02800	6295
6.02867	6294
6.02933	6293
6.03000	6292
6.03067	6291
6.03133	6290
6.03200	6289
6.03267	6288
6.03333	6287
6.03400	6286
6.03467	6285
6.03533	6284
6.03600	6283
6.03667	6282
6.03733	6281
6.03800	6279
6.03867	6278
6.03933	6277
6.04000	6276
6.04067	6275
6.04133	6273
6.04200	6272
6.04267	6270
6.04333	6269
6.04400	6268
6.04467	6266
6.04533	6265
6.04600	6263
6.04667	6262
6.04733	6260
6.04800	6259
6.04867	6257
6.04933	6256
6.05000	6254
6.05067	6253
6.05133	6251
6.05200	6250
6.05267	6248
6.05333	6247
6.05400	6245
6.05467	6244
6.05533	6242
6.05600	6241
6.05667	6239
6.05733	6238
6.05800	6237
6.05867	6235
6.05933	6234
6.06000	6232
6.06067	6231
6.06133	6229
6.06200	6228
6.06267	6226
6.06333	6225
6.06400	6223
6.06467	6222
6.06533	6220
6.06600	6219
6.06667	6217
6.06733	6216
6.06800	6214
6.06867	6213
6.06933	6211
6.07000	6210
6.07067	6208
6.07133	6207
6.07200	6206
6.07267	6204
6.07333	6203
6.07400	6202
6.07467	6200
6.07533	6199
6.07600	6198
6.07667	6196
6.07733	6195
6.07800	6194
6.07867	6193
6.07933	6191
6.08000	6190
6.08067	6189
6.08133	6188
6.08200	6187
6.08267	6186
6.08333	6185
6.08400	6183
6.08467	6182
6.08533	6181
6.08600	6180
6.08667	6179
6.08733	6179
6.08800	6178
6.08867	6177
6.08933	6176
6.09000	6175
6.09067	6174
6.09133	6173
6.09200	6172
6.09267	6171
6.09333	6170
6.09400	6169
6.09467	6168
6.09533	6167
6.09600	6166
6.09667	6165
6.09733	6164
6.09800	6163
6.09867	6162
6.09933	6161
6.10000	6160
6.10067	6159
6.10133	6158
6.10200	6157
6.10267	6156
6.10333	6154
6.10400	6153
6.10467	6152
6.10533	6151
6.10600	6149
6.10667	6148
6.10733	6147
6.10800	6145
6.10867	6144
6.10933	6142
6.11000	6141
6.11067	6140
6.11133	6138
6.11200	6137
6.11267	6136
6.11333	6135
6.11400	6133
6.11467	6132
6.11533	6131
6.11600	6129
6.11667	6128
6.11733	6127
6.11800	6125
6.11867	6124
6.11933	6123
6.12000	6122
6.12067	6120
6.12133	6119
6.12200	6118
6.12267	6117
6.12333	6116
6.12400	6115
6.12467	6114
6.12533	6113
6.12600	6112
6.12667	6110
6.12733	6109
6.12800	6108
6.12867	6107
6.12933	6106
6.13000	6105
6.13067	6104
6.13133	6103
6.13200	6102
6.13267	6101
6.13333	6099
6.13400	6098
6.13467	6097
6.13533	6096
6.13600	6095
6.13667	6094
6.13733	6093
6.13800	6092
6.13867	6091
6.13933	6090
6.14000	6089
6.14067	6088
6.14133	6087
6.14200	6086
6.14267	6085
6.14333	6084
6.14400	6083
6.14467	6081
6.14533	6080
6.14600	6079
6.14667	6078
6.14733	6077
6.14800	6076
6.14867	6075
6.14933	6074
6.15000	6073
6.15067	6072
6.15133	6071
6.15200	6070
6.15267	6069
6.15333	6068
6.15400	6067
6.15467	6066
6.15533	6065
6.15600	6064
6.15667	6063
6.15733	6062
6.15800	6061
6.15867	6060
6.15933	6059
6.16000	6058
6.16067	6057
6.16133	6056
6.16200	6055
6.16267	6054
6.16333	6053
6.16400	6052
6.16467	6051
6.16533	6050
6.16600	6048
6.16667	6047
6.16733	6046
6.16800	6045
6.16867	6044
6.16933	6043
6.17000	6042
6.17067	6040
6.17133	6039
6.17200	6038
6.17267	6037
6.17333	6035
6.17400	6034
6.17467	6033
6.17533	6032
6.17600	6030
6.17667	6029
6.17733	6028
6.17800	6027
6.17867	6026
6.17933	6024
6.18000	6023
6.18067	6022
6.18133	6021
6.18200	6020
6.18267	6019
6.18333	6018
6.18400	6017
6.18467	6016
6.18533	6015
6.18600	6014
6.18667	6013
6.18733	6012
6.18800	6012
6.18867	6011
6.18933	6010
6.19000	6009
6.19067	6008
6.19133	6007
6.19200	6006
6.19267	6006
6.19333	6005
6.19400	6004
6.19467	6003
6.19533	6002
6.19600	6001
6.19667	6000
6.19733	6000
6.19800	5999
6.19867	5998
6.19933	5997
6.20000	5996
6.20067	5996
6.20133	5995
6.20200	5994
6.20267	5993
6.20333	5993
6.20400	5992
6.20467	5992
6.20533	5991
6.20600	5990
6.20667	5990
6.20733	5989
6.20800	5989
6.20867	5988
6.20933	5987
6.21000	5987
6.21067	5986
6.21133	5986
6.21200	5985
6.21267	5985
6.21333	5984
6.21400	5984
6.21467	5983
6.21533	5983
6.21600	5982
6.21667	5982
6.21733	5982
6.21800	5981
6.21867	5981
6.21933	5981
6.22000	5980
6.22067	5980
6.22133	5980
6.22200	5979
6.22267	5979
6.22333	5979
6.22400	5979
6.22467	5978
6.22533	5978
6.22600	5978
6.22667	5978
6.22733	5977
6.22800	5977
6.22867	5977
6.22933	5977
6.23000	5977
6.23067	5976
6.23133	5976
6.23200	5976
6.23267	5976
6.23333	5975
6.23400	5975
6.23467	5975
6.23533	5975
6.23600	5974
6.23667	5974
6.23733	5974
6.23800	5974
6.23867	5974
6.23933	5973
6.24000	5973
6.24067	5973
6.24133	5973
6.24200	5973
6.24267	5973
6.24333	5973
6.24400	5973
6.24467	5973
6.24533	5974
6.24600	5974
6.24667	5974
6.24733	5974
6.24800	5974
6.24867	5974
6.24933	5975
6.25000	5975
6.25067	5975
6.25133	5975
6.25200	5975
6.25267	5976
6.25333	5976
6.25400	5976
6.25467	5976
6.25533	5976
6.25600	5977
6.25667	5977
6.25733	5977
6.25800	5977
6.25867	5977
6.25933	5977
6.26000	5977
6.26067	5977
6.26133	5978
6.26200	5978
6.26267	5978
6.26333	5978
6.26400	5978
6.26467	5978
6.26533	5978
6.26600	5978
6.26667	5978
6.26733	5978
6.26800	5978
6.26867	5979
6.26933	5979
6.27000	5979
6.27067	5979
6.27133	5979
6.27200	5979
6.27267	5979
6.27333	5979
6.27400	5979
6.27467	5980
6.27533	5980
6.27600	5980
6.27667	5980
6.27733	5980
6.27800	5980
6.27867	5979
6.27933	5979
6.28000	5979
6.28067	5979
6.28133	5979
6.28200	5979
6.28267	5979
6.28333	5978
6.28400	5978
6.28467	5978
6.28533	5977
6.28600	5977
6.28667	5977
6.28733	5976
6.28800	5976
6.28867	5975
6.28933	5975
6.29000	5975
6.29067	5974
6.29133	5974
6.29200	5973
6.29267	5973
6.29333	5972
6.29400	5972
6.29467	5971
6.29533	5971
6.29600	5970
6.29667	5969
6.29733	5969
6.29800	5968
6.29867	5968
6.29933	5967
6.30000	5967
6.30067	5966
6.30133	5965
6.30200	5965
6.30267	5964
6.30333	5963
6.30400	5963
6.30467	5962
6.30533	5961
6.30600	5961
6.30667	5960
6.30733	5960
6.30800	5959
6.30867	5958
6.30933	5958
6.31000	5957
6.31067	5957
6.31133	5956
6.31200	5955
6.31267	5955
6.31333	5954
6.31400	5953
6.31467	5953
6.31533	5952
6.31600	5951
6.31667	5950
6.31733	5950
6.31800	5949
6.31867	5948
6.31933	5947
6.32000	5947
6.32067	5946
6.32133	5945
6.32200	5944
6.32267	5944
6.32333	5943
6.32400	5942
6.32467	5941
6.32533	5940
6.32600	5940
6.32667	5939
6.32733	5938
6.32800	5937
6.32867	5936
6.32933	5935
6.33000	5934
6.33067	5934
6.33133	5933
6.33200	5932
6.33267	5931
6.33333	5930
6.33400	5929
6.33467	5929
6.33533	5928
6.33600	5927
6.33667	5926
6.33733	5925
6.33800	5924
6.33867	5923
6.33933	5922
6.34000	5921
6.34067	5920
6.34133	5919
6.34200	5918
6.34267	5917
6.34333	5916
6.34400	5915
6.34467	5914
6.34533	5913
6.34600	5912
6.34667	5911
6.34733	5910
6.34800	5909
6.34867	5908
6.34933	5907
6.35000	5906
6.35067	5904
6.35133	5903
6.35200	5902
6.35267	5901
6.35333	5900
6.35400	5899
6.35467	5898
6.35533	5897
6.35600	5896
6.35667	5895
6.35733	5894
6.35800	5892
6.35867	5891
6.35933	5890
6.36000	5889
6.36067	5888
6.36133	5887
6.36200	5886
6.36267	5885
6.36333	5884
6.36400	5883
6.36467	5883
6.36533	5882
6.36600	5881
6.36667	5880
6.36733	5879
6.36800	5878
6.36867	5877
6.36933	5877
6.37000	5876
6.37067	5875
6.37133	5874
6.37200	5873
6.37267	5872
6.37333	5871
6.37400	5870
6.37467	5870
6.37533	5869
6.37600	5868
6.37667	5867
6.37733	5866
6.37800	5865
6.37867	5864
6.37933	5863
6.38000	5862
6.38067	5861
6.38133	5860
6.38200	5859
6.38267	5858
6.38333	5857
6.38400	5856
6.38467	5855
6.38533	5855
6.38600	5854
6.38667	5853
6.38733	5852
6.38800	5852
6.38867	5851
6.38933	5850
6.39000	5849
6.39067	5849
6.39133	5848
6.39200	5847
6.39267	5847
6.39333	5846
6.39400	5845
6.39467	5845
6.39533	5844
6.39600	5843
6.39667	5843
6.39733	5842
6.39800	5841
6.39867	5841
6.39933	5840

