[Header]
Application Name	LabSolutions
Version	5.73
Data File Name	C:\LabSolutions\Data\Project1\stephen\2016-01-06\33.gcd
Output Date	1/11/2016
Output Time	1:19:45 PM

[Configuration]
Instrument Name	WEISSTA-PC-Instrument1
Instrument #	1
Line #	1
# of Detectors	1
Detector ID	DET#2
Detector Name	DFID1
# of Channels	1

[Chromatogram (Ch1)]
Interval(msec)	40
# of Points	9600
Start Time(min)	0.000
End Time(min)	6.400
R.Time (min)	Intensity
0.00033	15
0.00100	15
0.00167	15
0.00233	15
0.00300	15
0.00367	15
0.00433	15
0.00500	15
0.00567	15
0.00633	15
0.00700	15
0.00767	15
0.00833	14
0.00900	14
0.00967	13
0.01033	12
0.01100	10
0.01167	8
0.01233	6
0.01300	4
0.01367	1
0.01433	-2
0.01500	-6
0.01567	-10
0.01633	-14
0.01700	-18
0.01767	-23
0.01833	-28
0.01900	-33
0.01967	-39
0.02033	-44
0.02100	-50
0.02167	-55
0.02233	-61
0.02300	-66
0.02367	-71
0.02433	-76
0.02500	-81
0.02567	-86
0.02633	-91
0.02700	-95
0.02767	-100
0.02833	-104
0.02900	-108
0.02967	-112
0.03033	-116
0.03100	-119
0.03167	-122
0.03233	-125
0.03300	-128
0.03367	-131
0.03433	-134
0.03500	-136
0.03567	-138
0.03633	-141
0.03700	-143
0.03767	-144
0.03833	-146
0.03900	-148
0.03967	-149
0.04033	-151
0.04100	-152
0.04167	-153
0.04233	-155
0.04300	-156
0.04367	-157
0.04433	-157
0.04500	-158
0.04567	-159
0.04633	-160
0.04700	-160
0.04767	-161
0.04833	-162
0.04900	-162
0.04967	-163
0.05033	-163
0.05100	-163
0.05167	-164
0.05233	-164
0.05300	-165
0.05367	-165
0.05433	-165
0.05500	-165
0.05567	-166
0.05633	-166
0.05700	-166
0.05767	-166
0.05833	-166
0.05900	-167
0.05967	-167
0.06033	-167
0.06100	-167
0.06167	-167
0.06233	-167
0.06300	-167
0.06367	-167
0.06433	-167
0.06500	-167
0.06567	-167
0.06633	-166
0.06700	-166
0.06767	-166
0.06833	-166
0.06900	-166
0.06967	-166
0.07033	-165
0.07100	-165
0.07167	-165
0.07233	-165
0.07300	-164
0.07367	-164
0.07433	-164
0.07500	-163
0.07567	-163
0.07633	-163
0.07700	-162
0.07767	-162
0.07833	-162
0.07900	-161
0.07967	-161
0.08033	-161
0.08100	-160
0.08167	-160
0.08233	-159
0.08300	-159
0.08367	-158
0.08433	-158
0.08500	-157
0.08567	-154
0.08633	-151
0.08700	-145
0.08767	-134
0.08833	-109
0.08900	-66
0.08967	-5
0.09033	63
0.09100	143
0.09167	247
0.09233	378
0.09300	526
0.09367	696
0.09433	884
0.09500	1094
0.09567	1333
0.09633	1602
0.09700	1900
0.09767	2217
0.09833	2547
0.09900	2889
0.09967	3249
0.10033	3646
0.10100	4081
0.10167	4545
0.10233	5015
0.10300	5530
0.10367	6109
0.10433	6705
0.10500	7352
0.10567	8030
0.10633	8718
0.10700	9383
0.10767	10051
0.10833	10726
0.10900	11398
0.10967	12076
0.11033	12751
0.11100	13398
0.11167	14025
0.11233	14626
0.11300	15227
0.11367	15816
0.11433	16401
0.11500	16951
0.11567	17463
0.11633	17936
0.11700	18404
0.11767	18886
0.11833	19378
0.11900	19900
0.11967	20455
0.12033	21004
0.12100	21510
0.12167	21971
0.12233	22380
0.12300	22756
0.12367	23124
0.12433	23462
0.12500	23772
0.12567	24052
0.12633	24297
0.12700	24505
0.12767	24672
0.12833	24807
0.12900	24929
0.12967	25043
0.13033	25144
0.13100	25223
0.13167	25275
0.13233	25294
0.13300	25295
0.13367	25376
0.13433	25933
0.13500	28187
0.13567	35172
0.13633	53312
0.13700	94137
0.13767	176537
0.13833	325869
0.13900	573830
0.13967	951666
0.14033	1488274
0.14100	2208772
0.14167	3135163
0.14233	4284011
0.14300	5666696
0.14367	7290398
0.14433	9159450
0.14500	11275964
0.14567	13639908
0.14633	16256071
0.14700	19135401
0.14767	22286673
0.14833	25706391
0.14900	29380360
0.14967	33287160
0.15033	37401559
0.15100	41697781
0.15167	46150535
0.15233	50735372
0.15300	55429782
0.15367	60212691
0.15433	65063610
0.15500	69963722
0.15567	74894901
0.15633	79840306
0.15700	84784324
0.15767	89712538
0.15833	94611547
0.15900	99467867
0.15967	104268306
0.16033	109000050
0.16100	113651151
0.16167	118209930
0.16233	122665080
0.16300	127005370
0.16367	131220013
0.16433	135298559
0.16500	139231365
0.16567	143009164
0.16633	146624111
0.16700	150069292
0.16767	153339062
0.16833	156428686
0.16900	159334770
0.16967	162054653
0.17033	164586640
0.17100	166929822
0.17167	169084296
0.17233	171051206
0.17300	172833284
0.17367	174433797
0.17433	175855462
0.17500	177100497
0.17567	178171096
0.17633	179070059
0.17700	179800680
0.17767	180367011
0.17833	180773448
0.17900	181024808
0.17967	181125960
0.18033	181082118
0.18100	180898507
0.18167	180580568
0.18233	180133614
0.18300	179563028
0.18367	178874112
0.18433	178072217
0.18500	177162559
0.18567	176150382
0.18633	175040880
0.18700	173839219
0.18767	172550502
0.18833	171179763
0.18900	169731920
0.18967	168211761
0.19033	166623972
0.19100	164973108
0.19167	163263647
0.19233	161499899
0.19300	159686069
0.19367	157826191
0.19433	155924238
0.19500	153983985
0.19567	152009131
0.19633	150003223
0.19700	147969731
0.19767	145911952
0.19833	143833072
0.19900	141736132
0.19967	139624079
0.20033	137499744
0.20100	135365914
0.20167	133225367
0.20233	131081052
0.20300	128935898
0.20367	126792429
0.20433	124652592
0.20500	122517842
0.20567	120389399
0.20633	118268355
0.20700	116155789
0.20767	114052776
0.20833	111960426
0.20900	109879851
0.20967	107812179
0.21033	105758493
0.21100	103719867
0.21167	101697314
0.21233	99691825
0.21300	97704328
0.21367	95735708
0.21433	93786789
0.21500	91858347
0.21567	89951096
0.21633	88065706
0.21700	86202793
0.21767	84362927
0.21833	82546626
0.21900	80754361
0.21967	78986556
0.22033	77243592
0.22100	75525802
0.22167	73833483
0.22233	72166892
0.22300	70526246
0.22367	68911730
0.22433	67323487
0.22500	65761626
0.22567	64226222
0.22633	62717325
0.22700	61234954
0.22767	59779099
0.22833	58349720
0.22900	56946755
0.22967	55570110
0.23033	54219672
0.23100	52895302
0.23167	51596845
0.23233	50324124
0.23300	49076950
0.23367	47855119
0.23433	46658411
0.23500	45486589
0.23567	44339402
0.23633	43216587
0.23700	42117867
0.23767	41042954
0.23833	39991552
0.23900	38963356
0.23967	37958054
0.24033	36975328
0.24100	36014854
0.24167	35076303
0.24233	34159339
0.24300	33263625
0.24367	32388820
0.24433	31534581
0.24500	30700559
0.24567	29886405
0.24633	29091773
0.24700	28316313
0.24767	27559675
0.24833	26821511
0.24900	26101473
0.24967	25399214
0.25033	24714391
0.25100	24046660
0.25167	23395679
0.25233	22761111
0.25300	22142618
0.25367	21539866
0.25433	20952522
0.25500	20380256
0.25567	19822746
0.25633	19279694
0.25700	18750834
0.25767	18235940
0.25833	17734792
0.25900	17247153
0.25967	16772751
0.26033	16311292
0.26100	15862474
0.26167	15425988
0.26233	15001516
0.26300	14588726
0.26367	14187278
0.26433	13796826
0.26500	13417033
0.26567	13047574
0.26633	12688139
0.26700	12338434
0.26767	11998182
0.26833	11667122
0.26900	11345004
0.26967	11031595
0.27033	10726669
0.27100	10430009
0.27167	10141407
0.27233	9860661
0.27300	9587577
0.27367	9321966
0.27433	9063642
0.27500	8812427
0.27567	8568146
0.27633	8330628
0.27700	8099703
0.27767	7875207
0.27833	7656977
0.27900	7444855
0.27967	7238684
0.28033	7038314
0.28100	6843595
0.28167	6654382
0.28233	6470532
0.28300	6291907
0.28367	6118368
0.28433	5949784
0.28500	5786023
0.28567	5626958
0.28633	5472464
0.28700	5322419
0.28767	5176703
0.28833	5035198
0.28900	4897791
0.28967	4764369
0.29033	4634824
0.29100	4509049
0.29167	4386942
0.29233	4268398
0.29300	4153318
0.29367	4041606
0.29433	3933165
0.29500	3827902
0.29567	3725728
0.29633	3626553
0.29700	3530294
0.29767	3436866
0.29833	3346187
0.29900	3258180
0.29967	3172766
0.30033	3089872
0.30100	3009424
0.30167	2931353
0.30233	2855589
0.30300	2782068
0.30367	2710723
0.30433	2641493
0.30500	2574316
0.30567	2509134
0.30633	2445888
0.30700	2384522
0.30767	2324981
0.30833	2267212
0.30900	2211163
0.30967	2156785
0.31033	2104029
0.31100	2052847
0.31167	2003195
0.31233	1955027
0.31300	1908299
0.31367	1862971
0.31433	1819002
0.31500	1776353
0.31567	1734985
0.31633	1694861
0.31700	1655947
0.31767	1618209
0.31833	1581616
0.31900	1546137
0.31967	1511744
0.32033	1478412
0.32100	1446115
0.32167	1414833
0.32233	1384544
0.32300	1355228
0.32367	1326869
0.32433	1299448
0.32500	1272950
0.32567	1247359
0.32633	1222660
0.32700	1198841
0.32767	1175889
0.32833	1153793
0.32900	1132542
0.32967	1112127
0.33033	1092537
0.33100	1073763
0.33167	1055795
0.33233	1038620
0.33300	1022228
0.33367	1006605
0.33433	991738
0.33500	977614
0.33567	964221
0.33633	951543
0.33700	939569
0.33767	928287
0.33833	917685
0.33900	907750
0.33967	898469
0.34033	889829
0.34100	881815
0.34167	874410
0.34233	867597
0.34300	861356
0.34367	855666
0.34433	850502
0.34500	845837
0.34567	841643
0.34633	837894
0.34700	834562
0.34767	831620
0.34833	829043
0.34900	826803
0.34967	824875
0.35033	823237
0.35100	821866
0.35167	820740
0.35233	819842
0.35300	819154
0.35367	818660
0.35433	818346
0.35500	818200
0.35567	818212
0.35633	818372
0.35700	818675
0.35767	819115
0.35833	819685
0.35900	820379
0.35967	821188
0.36033	822105
0.36100	823122
0.36167	824230
0.36233	825423
0.36300	826693
0.36367	828034
0.36433	829440
0.36500	830905
0.36567	832424
0.36633	833993
0.36700	835611
0.36767	837275
0.36833	838986
0.36900	840744
0.36967	842550
0.37033	844407
0.37100	846315
0.37167	848276
0.37233	850290
0.37300	852357
0.37367	854478
0.37433	856650
0.37500	858870
0.37567	861136
0.37633	863446
0.37700	865798
0.37767	868192
0.37833	870630
0.37900	873112
0.37967	875641
0.38033	878222
0.38100	880860
0.38167	883561
0.38233	886328
0.38300	889166
0.38367	892074
0.38433	895052
0.38500	898095
0.38567	901195
0.38633	904345
0.38700	907534
0.38767	910751
0.38833	913986
0.38900	917229
0.38967	920475
0.39033	923716
0.39100	926948
0.39167	930164
0.39233	933361
0.39300	936536
0.39367	939685
0.39433	942807
0.39500	945897
0.39567	948949
0.39633	951960
0.39700	954927
0.39767	957842
0.39833	960699
0.39900	963487
0.39967	966192
0.40033	968800
0.40100	971291
0.40167	973645
0.40233	975841
0.40300	977857
0.40367	979673
0.40433	981268
0.40500	982620
0.40567	983707
0.40633	984506
0.40700	984991
0.40767	985139
0.40833	984921
0.40900	984312
0.40967	983283
0.41033	981809
0.41100	979863
0.41167	977424
0.41233	974465
0.41300	970967
0.41367	966912
0.41433	962286
0.41500	957082
0.41567	951297
0.41633	944938
0.41700	938018
0.41767	930556
0.41833	922577
0.41900	914108
0.41967	905180
0.42033	895827
0.42100	886082
0.42167	875978
0.42233	865549
0.42300	854826
0.42367	843841
0.42433	832624
0.42500	821204
0.42567	809609
0.42633	797866
0.42700	785999
0.42767	774032
0.42833	761987
0.42900	749885
0.42967	737747
0.43033	725591
0.43100	713433
0.43167	701291
0.43233	689177
0.43300	677108
0.43367	665094
0.43433	653147
0.43500	641279
0.43567	629499
0.43633	617816
0.43700	606238
0.43767	594773
0.43833	583426
0.43900	572205
0.43967	561115
0.44033	550161
0.44100	539347
0.44167	528679
0.44233	518160
0.44300	507795
0.44367	497586
0.44433	487536
0.44500	477648
0.44567	467923
0.44633	458364
0.44700	448972
0.44767	439748
0.44833	430693
0.44900	421806
0.44967	413090
0.45033	404543
0.45100	396166
0.45167	387959
0.45233	379921
0.45300	372052
0.45367	364352
0.45433	356821
0.45500	349456
0.45567	342260
0.45633	335230
0.45700	328366
0.45767	321669
0.45833	315136
0.45900	308769
0.45967	302567
0.46033	296528
0.46100	290650
0.46167	284930
0.46233	279365
0.46300	273952
0.46367	268685
0.46433	263563
0.46500	258583
0.46567	253740
0.46633	249031
0.46700	244454
0.46767	240003
0.46833	235677
0.46900	231470
0.46967	227380
0.47033	223404
0.47100	219538
0.47167	215779
0.47233	212124
0.47300	208570
0.47367	205114
0.47433	201753
0.47500	198485
0.47567	195307
0.47633	192216
0.47700	189209
0.47767	186284
0.47833	183439
0.47900	180671
0.47967	177978
0.48033	175358
0.48100	172809
0.48167	170328
0.48233	167912
0.48300	165561
0.48367	163272
0.48433	161042
0.48500	158871
0.48567	156755
0.48633	154693
0.48700	152683
0.48767	150723
0.48833	148812
0.48900	146948
0.48967	145130
0.49033	143356
0.49100	141624
0.49167	139934
0.49233	138283
0.49300	136670
0.49367	135095
0.49433	133556
0.49500	132052
0.49567	130582
0.49633	129144
0.49700	127738
0.49767	126362
0.49833	125017
0.49900	123699
0.49967	122410
0.50033	121147
0.50100	119911
0.50167	118699
0.50233	117512
0.50300	116349
0.50367	115209
0.50433	114090
0.50500	112993
0.50567	111917
0.50633	110861
0.50700	109825
0.50767	108807
0.50833	107808
0.50900	106826
0.50967	105862
0.51033	104915
0.51100	103984
0.51167	103068
0.51233	102168
0.51300	101283
0.51367	100412
0.51433	99555
0.51500	98712
0.51567	97881
0.51633	97064
0.51700	96260
0.51767	95467
0.51833	94687
0.51900	93917
0.51967	93159
0.52033	92412
0.52100	91676
0.52167	90949
0.52233	90233
0.52300	89527
0.52367	88830
0.52433	88143
0.52500	87465
0.52567	86796
0.52633	86135
0.52700	85483
0.52767	84840
0.52833	84204
0.52900	83576
0.52967	82957
0.53033	82344
0.53100	81739
0.53167	81141
0.53233	80550
0.53300	79967
0.53367	79390
0.53433	78820
0.53500	78256
0.53567	77698
0.53633	77147
0.53700	76602
0.53767	76063
0.53833	75530
0.53900	75003
0.53967	74482
0.54033	73966
0.54100	73455
0.54167	72950
0.54233	72451
0.54300	71956
0.54367	71467
0.54433	70982
0.54500	70503
0.54567	70028
0.54633	69559
0.54700	69094
0.54767	68634
0.54833	68178
0.54900	67727
0.54967	67281
0.55033	66839
0.55100	66402
0.55167	65969
0.55233	65540
0.55300	65116
0.55367	64696
0.55433	64280
0.55500	63869
0.55567	63461
0.55633	63058
0.55700	62659
0.55767	62264
0.55833	61873
0.55900	61486
0.55967	61103
0.56033	60724
0.56100	60349
0.56167	59977
0.56233	59610
0.56300	59246
0.56367	58885
0.56433	58529
0.56500	58176
0.56567	57826
0.56633	57479
0.56700	57136
0.56767	56797
0.56833	56460
0.56900	56127
0.56967	55796
0.57033	55469
0.57100	55144
0.57167	54823
0.57233	54504
0.57300	54188
0.57367	53874
0.57433	53564
0.57500	53255
0.57567	52949
0.57633	52646
0.57700	52345
0.57767	52046
0.57833	51750
0.57900	51456
0.57967	51165
0.58033	50875
0.58100	50588
0.58167	50304
0.58233	50021
0.58300	49741
0.58367	49463
0.58433	49187
0.58500	48913
0.58567	48642
0.58633	48372
0.58700	48105
0.58767	47840
0.58833	47578
0.58900	47317
0.58967	47058
0.59033	46802
0.59100	46548
0.59167	46295
0.59233	46045
0.59300	45798
0.59367	45552
0.59433	45308
0.59500	45067
0.59567	44828
0.59633	44591
0.59700	44357
0.59767	44125
0.59833	43895
0.59900	43668
0.59967	43443
0.60033	43221
0.60100	43002
0.60167	42785
0.60233	42572
0.60300	42362
0.60367	42155
0.60433	41951
0.60500	41751
0.60567	41556
0.60633	41365
0.60700	41179
0.60767	40999
0.60833	40824
0.60900	40656
0.60967	40495
0.61033	40342
0.61100	40197
0.61167	40061
0.61233	39935
0.61300	39819
0.61367	39714
0.61433	39621
0.61500	39538
0.61567	39468
0.61633	39410
0.61700	39363
0.61767	39328
0.61833	39303
0.61900	39289
0.61967	39285
0.62033	39288
0.62100	39299
0.62167	39316
0.62233	39337
0.62300	39361
0.62367	39388
0.62433	39414
0.62500	39440
0.62567	39464
0.62633	39485
0.62700	39502
0.62767	39513
0.62833	39518
0.62900	39517
0.62967	39508
0.63033	39491
0.63100	39466
0.63167	39432
0.63233	39389
0.63300	39338
0.63367	39278
0.63433	39210
0.63500	39133
0.63567	39048
0.63633	38955
0.63700	38855
0.63767	38748
0.63833	38634
0.63900	38514
0.63967	38388
0.64033	38255
0.64100	38118
0.64167	37976
0.64233	37829
0.64300	37678
0.64367	37523
0.64433	37365
0.64500	37203
0.64567	37039
0.64633	36871
0.64700	36702
0.64767	36530
0.64833	36356
0.64900	36181
0.64967	36004
0.65033	35826
0.65100	35646
0.65167	35466
0.65233	35284
0.65300	35102
0.65367	34920
0.65433	34737
0.65500	34553
0.65567	34370
0.65633	34186
0.65700	34003
0.65767	33819
0.65833	33636
0.65900	33453
0.65967	33270
0.66033	33088
0.66100	32906
0.66167	32725
0.66233	32544
0.66300	32364
0.66367	32185
0.66433	32006
0.66500	31829
0.66567	31652
0.66633	31476
0.66700	31301
0.66767	31127
0.66833	30955
0.66900	30783
0.66967	30613
0.67033	30444
0.67100	30276
0.67167	30110
0.67233	29945
0.67300	29781
0.67367	29619
0.67433	29459
0.67500	29299
0.67567	29142
0.67633	28986
0.67700	28832
0.67767	28679
0.67833	28528
0.67900	28379
0.67967	28231
0.68033	28086
0.68100	27942
0.68167	27800
0.68233	27660
0.68300	27523
0.68367	27387
0.68433	27253
0.68500	27122
0.68567	26993
0.68633	26866
0.68700	26742
0.68767	26620
0.68833	26502
0.68900	26386
0.68967	26274
0.69033	26164
0.69100	26059
0.69167	25957
0.69233	25859
0.69300	25764
0.69367	25674
0.69433	25588
0.69500	25507
0.69567	25430
0.69633	25357
0.69700	25289
0.69767	25226
0.69833	25167
0.69900	25112
0.69967	25061
0.70033	25014
0.70100	24971
0.70167	24931
0.70233	24894
0.70300	24859
0.70367	24827
0.70433	24796
0.70500	24767
0.70567	24739
0.70633	24711
0.70700	24683
0.70767	24655
0.70833	24626
0.70900	24597
0.70967	24565
0.71033	24533
0.71100	24498
0.71167	24461
0.71233	24422
0.71300	24381
0.71367	24337
0.71433	24290
0.71500	24241
0.71567	24189
0.71633	24135
0.71700	24078
0.71767	24019
0.71833	23957
0.71900	23892
0.71967	23826
0.72033	23757
0.72100	23687
0.72167	23614
0.72233	23540
0.72300	23464
0.72367	23387
0.72433	23308
0.72500	23228
0.72567	23147
0.72633	23065
0.72700	22982
0.72767	22899
0.72833	22814
0.72900	22730
0.72967	22644
0.73033	22559
0.73100	22473
0.73167	22386
0.73233	22300
0.73300	22213
0.73367	22126
0.73433	22040
0.73500	21953
0.73567	21867
0.73633	21781
0.73700	21695
0.73767	21609
0.73833	21524
0.73900	21439
0.73967	21354
0.74033	21270
0.74100	21186
0.74167	21103
0.74233	21020
0.74300	20938
0.74367	20856
0.74433	20775
0.74500	20694
0.74567	20614
0.74633	20534
0.74700	20455
0.74767	20377
0.74833	20299
0.74900	20222
0.74967	20146
0.75033	20070
0.75100	19995
0.75167	19920
0.75233	19846
0.75300	19773
0.75367	19700
0.75433	19628
0.75500	19557
0.75567	19486
0.75633	19416
0.75700	19347
0.75767	19278
0.75833	19210
0.75900	19143
0.75967	19076
0.76033	19010
0.76100	18945
0.76167	18880
0.76233	18816
0.76300	18752
0.76367	18690
0.76433	18627
0.76500	18566
0.76567	18505
0.76633	18445
0.76700	18385
0.76767	18326
0.76833	18268
0.76900	18210
0.76967	18153
0.77033	18097
0.77100	18041
0.77167	17985
0.77233	17931
0.77300	17877
0.77367	17823
0.77433	17770
0.77500	17718
0.77567	17666
0.77633	17615
0.77700	17564
0.77767	17514
0.77833	17465
0.77900	17416
0.77967	17367
0.78033	17319
0.78100	17272
0.78167	17225
0.78233	17179
0.78300	17133
0.78367	17087
0.78433	17042
0.78500	16998
0.78567	16954
0.78633	16910
0.78700	16867
0.78767	16824
0.78833	16782
0.78900	16740
0.78967	16698
0.79033	16657
0.79100	16616
0.79167	16575
0.79233	16535
0.79300	16495
0.79367	16455
0.79433	16416
0.79500	16377
0.79567	16339
0.79633	16300
0.79700	16262
0.79767	16224
0.79833	16187
0.79900	16150
0.79967	16113
0.80033	16077
0.80100	16040
0.80167	16004
0.80233	15969
0.80300	15933
0.80367	15898
0.80433	15863
0.80500	15829
0.80567	15794
0.80633	15760
0.80700	15726
0.80767	15692
0.80833	15659
0.80900	15625
0.80967	15592
0.81033	15559
0.81100	15527
0.81167	15494
0.81233	15462
0.81300	15431
0.81367	15399
0.81433	15368
0.81500	15337
0.81567	15306
0.81633	15275
0.81700	15245
0.81767	15215
0.81833	15185
0.81900	15156
0.81967	15127
0.82033	15098
0.82100	15069
0.82167	15040
0.82233	15012
0.82300	14984
0.82367	14956
0.82433	14928
0.82500	14901
0.82567	14874
0.82633	14846
0.82700	14819
0.82767	14792
0.82833	14766
0.82900	14739
0.82967	14713
0.83033	14686
0.83100	14660
0.83167	14634
0.83233	14609
0.83300	14583
0.83367	14557
0.83433	14532
0.83500	14506
0.83567	14481
0.83633	14456
0.83700	14431
0.83767	14406
0.83833	14382
0.83900	14357
0.83967	14333
0.84033	14308
0.84100	14284
0.84167	14260
0.84233	14236
0.84300	14212
0.84367	14188
0.84433	14164
0.84500	14141
0.84567	14117
0.84633	14093
0.84700	14070
0.84767	14047
0.84833	14023
0.84900	14000
0.84967	13977
0.85033	13953
0.85100	13930
0.85167	13907
0.85233	13884
0.85300	13861
0.85367	13838
0.85433	13815
0.85500	13792
0.85567	13770
0.85633	13747
0.85700	13724
0.85767	13701
0.85833	13678
0.85900	13656
0.85967	13633
0.86033	13610
0.86100	13588
0.86167	13565
0.86233	13542
0.86300	13520
0.86367	13498
0.86433	13475
0.86500	13453
0.86567	13431
0.86633	13409
0.86700	13387
0.86767	13365
0.86833	13343
0.86900	13321
0.86967	13300
0.87033	13278
0.87100	13256
0.87167	13235
0.87233	13213
0.87300	13192
0.87367	13170
0.87433	13149
0.87500	13128
0.87567	13107
0.87633	13086
0.87700	13065
0.87767	13044
0.87833	13023
0.87900	13003
0.87967	12982
0.88033	12962
0.88100	12942
0.88167	12921
0.88233	12901
0.88300	12882
0.88367	12862
0.88433	12842
0.88500	12823
0.88567	12803
0.88633	12784
0.88700	12765
0.88767	12746
0.88833	12728
0.88900	12709
0.88967	12691
0.89033	12672
0.89100	12654
0.89167	12637
0.89233	12619
0.89300	12602
0.89367	12584
0.89433	12567
0.89500	12551
0.89567	12534
0.89633	12518
0.89700	12502
0.89767	12487
0.89833	12472
0.89900	12457
0.89967	12442
0.90033	12428
0.90100	12414
0.90167	12400
0.90233	12387
0.90300	12374
0.90367	12362
0.90433	12349
0.90500	12337
0.90567	12326
0.90633	12315
0.90700	12303
0.90767	12293
0.90833	12282
0.90900	12272
0.90967	12261
0.91033	12251
0.91100	12241
0.91167	12231
0.91233	12222
0.91300	12212
0.91367	12202
0.91433	12192
0.91500	12182
0.91567	12172
0.91633	12162
0.91700	12151
0.91767	12141
0.91833	12130
0.91900	12120
0.91967	12109
0.92033	12098
0.92100	12086
0.92167	12075
0.92233	12063
0.92300	12051
0.92367	12039
0.92433	12027
0.92500	12014
0.92567	12002
0.92633	11989
0.92700	11976
0.92767	11963
0.92833	11949
0.92900	11936
0.92967	11922
0.93033	11908
0.93100	11894
0.93167	11880
0.93233	11865
0.93300	11851
0.93367	11836
0.93433	11822
0.93500	11807
0.93567	11792
0.93633	11777
0.93700	11762
0.93767	11747
0.93833	11732
0.93900	11717
0.93967	11702
0.94033	11686
0.94100	11671
0.94167	11655
0.94233	11640
0.94300	11624
0.94367	11609
0.94433	11593
0.94500	11577
0.94567	11562
0.94633	11546
0.94700	11530
0.94767	11515
0.94833	11499
0.94900	11483
0.94967	11468
0.95033	11452
0.95100	11436
0.95167	11421
0.95233	11405
0.95300	11390
0.95367	11375
0.95433	11359
0.95500	11344
0.95567	11329
0.95633	11314
0.95700	11299
0.95767	11285
0.95833	11270
0.95900	11255
0.95967	11241
0.96033	11227
0.96100	11213
0.96167	11199
0.96233	11186
0.96300	11172
0.96367	11159
0.96433	11145
0.96500	11132
0.96567	11119
0.96633	11106
0.96700	11094
0.96767	11081
0.96833	11068
0.96900	11056
0.96967	11044
0.97033	11031
0.97100	11019
0.97167	11007
0.97233	10995
0.97300	10983
0.97367	10971
0.97433	10958
0.97500	10946
0.97567	10934
0.97633	10922
0.97700	10910
0.97767	10898
0.97833	10885
0.97900	10873
0.97967	10860
0.98033	10848
0.98100	10835
0.98167	10823
0.98233	10810
0.98300	10798
0.98367	10785
0.98433	10772
0.98500	10759
0.98567	10746
0.98633	10733
0.98700	10721
0.98767	10708
0.98833	10695
0.98900	10681
0.98967	10668
0.99033	10655
0.99100	10642
0.99167	10629
0.99233	10616
0.99300	10603
0.99367	10590
0.99433	10577
0.99500	10564
0.99567	10550
0.99633	10537
0.99700	10524
0.99767	10511
0.99833	10498
0.99900	10485
0.99967	10472
1.00033	10459
1.00100	10446
1.00167	10433
1.00233	10420
1.00300	10407
1.00367	10394
1.00433	10382
1.00500	10369
1.00567	10356
1.00633	10343
1.00700	10331
1.00767	10318
1.00833	10306
1.00900	10293
1.00967	10281
1.01033	10269
1.01100	10257
1.01167	10244
1.01233	10232
1.01300	10220
1.01367	10208
1.01433	10197
1.01500	10185
1.01567	10173
1.01633	10162
1.01700	10151
1.01767	10140
1.01833	10129
1.01900	10118
1.01967	10107
1.02033	10096
1.02100	10086
1.02167	10075
1.02233	10065
1.02300	10055
1.02367	10045
1.02433	10035
1.02500	10025
1.02567	10015
1.02633	10006
1.02700	9996
1.02767	9987
1.02833	9978
1.02900	9968
1.02967	9959
1.03033	9950
1.03100	9941
1.03167	9932
1.03233	9923
1.03300	9914
1.03367	9905
1.03433	9895
1.03500	9886
1.03567	9877
1.03633	9868
1.03700	9859
1.03767	9850
1.03833	9841
1.03900	9832
1.03967	9823
1.04033	9814
1.04100	9804
1.04167	9795
1.04233	9786
1.04300	9777
1.04367	9767
1.04433	9758
1.04500	9749
1.04567	9739
1.04633	9730
1.04700	9721
1.04767	9711
1.04833	9702
1.04900	9692
1.04967	9683
1.05033	9674
1.05100	9664
1.05167	9655
1.05233	9646
1.05300	9636
1.05367	9627
1.05433	9618
1.05500	9609
1.05567	9599
1.05633	9590
1.05700	9581
1.05767	9572
1.05833	9563
1.05900	9553
1.05967	9544
1.06033	9535
1.06100	9526
1.06167	9517
1.06233	9508
1.06300	9500
1.06367	9491
1.06433	9482
1.06500	9473
1.06567	9465
1.06633	9456
1.06700	9447
1.06767	9439
1.06833	9430
1.06900	9422
1.06967	9413
1.07033	9405
1.07100	9396
1.07167	9388
1.07233	9380
1.07300	9371
1.07367	9363
1.07433	9355
1.07500	9347
1.07567	9338
1.07633	9330
1.07700	9322
1.07767	9314
1.07833	9306
1.07900	9298
1.07967	9290
1.08033	9282
1.08100	9273
1.08167	9265
1.08233	9257
1.08300	9249
1.08367	9241
1.08433	9233
1.08500	9225
1.08567	9216
1.08633	9208
1.08700	9200
1.08767	9192
1.08833	9184
1.08900	9176
1.08967	9168
1.09033	9159
1.09100	9151
1.09167	9143
1.09233	9135
1.09300	9127
1.09367	9119
1.09433	9111
1.09500	9102
1.09567	9094
1.09633	9086
1.09700	9078
1.09767	9070
1.09833	9062
1.09900	9054
1.09967	9046
1.10033	9038
1.10100	9030
1.10167	9022
1.10233	9014
1.10300	9006
1.10367	8999
1.10433	8991
1.10500	8983
1.10567	8976
1.10633	8968
1.10700	8960
1.10767	8953
1.10833	8945
1.10900	8938
1.10967	8930
1.11033	8923
1.11100	8915
1.11167	8908
1.11233	8901
1.11300	8893
1.11367	8886
1.11433	8879
1.11500	8872
1.11567	8865
1.11633	8858
1.11700	8852
1.11767	8845
1.11833	8838
1.11900	8831
1.11967	8825
1.12033	8818
1.12100	8812
1.12167	8805
1.12233	8798
1.12300	8792
1.12367	8786
1.12433	8779
1.12500	8773
1.12567	8767
1.12633	8761
1.12700	8755
1.12767	8749
1.12833	8743
1.12900	8737
1.12967	8732
1.13033	8726
1.13100	8721
1.13167	8715
1.13233	8710
1.13300	8705
1.13367	8700
1.13433	8695
1.13500	8690
1.13567	8686
1.13633	8681
1.13700	8677
1.13767	8672
1.13833	8668
1.13900	8664
1.13967	8659
1.14033	8655
1.14100	8651
1.14167	8647
1.14233	8643
1.14300	8639
1.14367	8635
1.14433	8631
1.14500	8627
1.14567	8623
1.14633	8619
1.14700	8615
1.14767	8612
1.14833	8608
1.14900	8604
1.14967	8600
1.15033	8596
1.15100	8592
1.15167	8588
1.15233	8584
1.15300	8580
1.15367	8576
1.15433	8572
1.15500	8568
1.15567	8563
1.15633	8559
1.15700	8555
1.15767	8550
1.15833	8546
1.15900	8542
1.15967	8537
1.16033	8533
1.16100	8528
1.16167	8524
1.16233	8519
1.16300	8514
1.16367	8509
1.16433	8505
1.16500	8500
1.16567	8495
1.16633	8490
1.16700	8485
1.16767	8479
1.16833	8474
1.16900	8469
1.16967	8464
1.17033	8458
1.17100	8453
1.17167	8448
1.17233	8442
1.17300	8437
1.17367	8432
1.17433	8426
1.17500	8421
1.17567	8415
1.17633	8410
1.17700	8404
1.17767	8399
1.17833	8394
1.17900	8388
1.17967	8383
1.18033	8377
1.18100	8372
1.18167	8367
1.18233	8361
1.18300	8356
1.18367	8351
1.18433	8346
1.18500	8341
1.18567	8336
1.18633	8331
1.18700	8326
1.18767	8321
1.18833	8317
1.18900	8312
1.18967	8307
1.19033	8302
1.19100	8298
1.19167	8293
1.19233	8289
1.19300	8284
1.19367	8280
1.19433	8275
1.19500	8271
1.19567	8267
1.19633	8263
1.19700	8258
1.19767	8254
1.19833	8250
1.19900	8246
1.19967	8242
1.20033	8238
1.20100	8234
1.20167	8230
1.20233	8227
1.20300	8223
1.20367	8219
1.20433	8216
1.20500	8212
1.20567	8209
1.20633	8205
1.20700	8202
1.20767	8199
1.20833	8195
1.20900	8192
1.20967	8189
1.21033	8186
1.21100	8183
1.21167	8180
1.21233	8177
1.21300	8175
1.21367	8172
1.21433	8169
1.21500	8167
1.21567	8164
1.21633	8162
1.21700	8159
1.21767	8157
1.21833	8154
1.21900	8152
1.21967	8149
1.22033	8147
1.22100	8145
1.22167	8142
1.22233	8140
1.22300	8138
1.22367	8136
1.22433	8134
1.22500	8132
1.22567	8130
1.22633	8127
1.22700	8125
1.22767	8123
1.22833	8121
1.22900	8119
1.22967	8117
1.23033	8115
1.23100	8114
1.23167	8112
1.23233	8110
1.23300	8108
1.23367	8106
1.23433	8104
1.23500	8103
1.23567	8101
1.23633	8099
1.23700	8097
1.23767	8096
1.23833	8094
1.23900	8092
1.23967	8091
1.24033	8089
1.24100	8088
1.24167	8086
1.24233	8085
1.24300	8083
1.24367	8082
1.24433	8080
1.24500	8079
1.24567	8077
1.24633	8076
1.24700	8075
1.24767	8073
1.24833	8072
1.24900	8071
1.24967	8069
1.25033	8068
1.25100	8067
1.25167	8066
1.25233	8064
1.25300	8063
1.25367	8062
1.25433	8061
1.25500	8060
1.25567	8059
1.25633	8058
1.25700	8057
1.25767	8057
1.25833	8056
1.25900	8055
1.25967	8055
1.26033	8054
1.26100	8054
1.26167	8053
1.26233	8053
1.26300	8053
1.26367	8052
1.26433	8052
1.26500	8052
1.26567	8052
1.26633	8051
1.26700	8051
1.26767	8051
1.26833	8052
1.26900	8052
1.26967	8052
1.27033	8052
1.27100	8053
1.27167	8053
1.27233	8054
1.27300	8055
1.27367	8056
1.27433	8057
1.27500	8058
1.27567	8059
1.27633	8060
1.27700	8062
1.27767	8063
1.27833	8065
1.27900	8067
1.27967	8069
1.28033	8071
1.28100	8073
1.28167	8075
1.28233	8077
1.28300	8080
1.28367	8082
1.28433	8085
1.28500	8087
1.28567	8090
1.28633	8093
1.28700	8095
1.28767	8098
1.28833	8100
1.28900	8103
1.28967	8105
1.29033	8108
1.29100	8110
1.29167	8113
1.29233	8115
1.29300	8117
1.29367	8119
1.29433	8121
1.29500	8123
1.29567	8125
1.29633	8126
1.29700	8128
1.29767	8129
1.29833	8130
1.29900	8131
1.29967	8132
1.30033	8132
1.30100	8133
1.30167	8133
1.30233	8133
1.30300	8133
1.30367	8133
1.30433	8132
1.30500	8132
1.30567	8131
1.30633	8130
1.30700	8129
1.30767	8128
1.30833	8126
1.30900	8125
1.30967	8123
1.31033	8122
1.31100	8120
1.31167	8118
1.31233	8116
1.31300	8113
1.31367	8111
1.31433	8109
1.31500	8106
1.31567	8104
1.31633	8101
1.31700	8098
1.31767	8095
1.31833	8092
1.31900	8089
1.31967	8086
1.32033	8083
1.32100	8080
1.32167	8076
1.32233	8073
1.32300	8069
1.32367	8065
1.32433	8062
1.32500	8058
1.32567	8054
1.32633	8050
1.32700	8046
1.32767	8041
1.32833	8037
1.32900	8032
1.32967	8028
1.33033	8023
1.33100	8018
1.33167	8014
1.33233	8009
1.33300	8004
1.33367	7999
1.33433	7993
1.33500	7988
1.33567	7983
1.33633	7977
1.33700	7972
1.33767	7966
1.33833	7960
1.33900	7955
1.33967	7949
1.34033	7943
1.34100	7937
1.34167	7932
1.34233	7926
1.34300	7920
1.34367	7914
1.34433	7908
1.34500	7902
1.34567	7896
1.34633	7890
1.34700	7884
1.34767	7878
1.34833	7872
1.34900	7866
1.34967	7860
1.35033	7854
1.35100	7848
1.35167	7842
1.35233	7837
1.35300	7831
1.35367	7825
1.35433	7819
1.35500	7814
1.35567	7808
1.35633	7802
1.35700	7797
1.35767	7791
1.35833	7786
1.35900	7780
1.35967	7775
1.36033	7769
1.36100	7764
1.36167	7759
1.36233	7753
1.36300	7748
1.36367	7743
1.36433	7738
1.36500	7732
1.36567	7727
1.36633	7722
1.36700	7717
1.36767	7712
1.36833	7708
1.36900	7703
1.36967	7698
1.37033	7693
1.37100	7689
1.37167	7684
1.37233	7679
1.37300	7675
1.37367	7670
1.37433	7666
1.37500	7662
1.37567	7657
1.37633	7653
1.37700	7649
1.37767	7645
1.37833	7641
1.37900	7637
1.37967	7633
1.38033	7629
1.38100	7625
1.38167	7621
1.38233	7617
1.38300	7613
1.38367	7609
1.38433	7606
1.38500	7602
1.38567	7598
1.38633	7595
1.38700	7591
1.38767	7588
1.38833	7584
1.38900	7581
1.38967	7577
1.39033	7574
1.39100	7570
1.39167	7567
1.39233	7564
1.39300	7560
1.39367	7557
1.39433	7553
1.39500	7550
1.39567	7547
1.39633	7543
1.39700	7540
1.39767	7537
1.39833	7533
1.39900	7530
1.39967	7527
1.40033	7523
1.40100	7520
1.40167	7517
1.40233	7513
1.40300	7510
1.40367	7507
1.40433	7503
1.40500	7500
1.40567	7497
1.40633	7493
1.40700	7490
1.40767	7487
1.40833	7483
1.40900	7480
1.40967	7477
1.41033	7474
1.41100	7471
1.41167	7467
1.41233	7464
1.41300	7461
1.41367	7458
1.41433	7455
1.41500	7452
1.41567	7449
1.41633	7446
1.41700	7443
1.41767	7440
1.41833	7437
1.41900	7434
1.41967	7431
1.42033	7428
1.42100	7425
1.42167	7422
1.42233	7419
1.42300	7416
1.42367	7413
1.42433	7410
1.42500	7407
1.42567	7405
1.42633	7402
1.42700	7399
1.42767	7396
1.42833	7393
1.42900	7391
1.42967	7388
1.43033	7385
1.43100	7382
1.43167	7379
1.43233	7376
1.43300	7374
1.43367	7371
1.43433	7368
1.43500	7365
1.43567	7362
1.43633	7359
1.43700	7357
1.43767	7354
1.43833	7351
1.43900	7348
1.43967	7345
1.44033	7343
1.44100	7340
1.44167	7337
1.44233	7334
1.44300	7332
1.44367	7329
1.44433	7326
1.44500	7323
1.44567	7321
1.44633	7318
1.44700	7315
1.44767	7312
1.44833	7310
1.44900	7307
1.44967	7304
1.45033	7301
1.45100	7299
1.45167	7296
1.45233	7293
1.45300	7291
1.45367	7288
1.45433	7285
1.45500	7283
1.45567	7280
1.45633	7277
1.45700	7275
1.45767	7272
1.45833	7269
1.45900	7267
1.45967	7264
1.46033	7262
1.46100	7259
1.46167	7256
1.46233	7254
1.46300	7251
1.46367	7249
1.46433	7246
1.46500	7244
1.46567	7241
1.46633	7239
1.46700	7236
1.46767	7234
1.46833	7231
1.46900	7229
1.46967	7227
1.47033	7224
1.47100	7222
1.47167	7220
1.47233	7217
1.47300	7215
1.47367	7213
1.47433	7211
1.47500	7208
1.47567	7206
1.47633	7204
1.47700	7201
1.47767	7199
1.47833	7196
1.47900	7194
1.47967	7192
1.48033	7189
1.48100	7187
1.48167	7184
1.48233	7182
1.48300	7179
1.48367	7177
1.48433	7174
1.48500	7172
1.48567	7169
1.48633	7167
1.48700	7164
1.48767	7162
1.48833	7160
1.48900	7157
1.48967	7155
1.49033	7153
1.49100	7150
1.49167	7148
1.49233	7146
1.49300	7143
1.49367	7141
1.49433	7139
1.49500	7137
1.49567	7134
1.49633	7132
1.49700	7130
1.49767	7128
1.49833	7125
1.49900	7123
1.49967	7121
1.50033	7118
1.50100	7116
1.50167	7114
1.50233	7111
1.50300	7109
1.50367	7106
1.50433	7104
1.50500	7101
1.50567	7099
1.50633	7096
1.50700	7094
1.50767	7091
1.50833	7089
1.50900	7086
1.50967	7084
1.51033	7081
1.51100	7079
1.51167	7076
1.51233	7074
1.51300	7071
1.51367	7069
1.51433	7066
1.51500	7064
1.51567	7061
1.51633	7059
1.51700	7056
1.51767	7054
1.51833	7051
1.51900	7049
1.51967	7046
1.52033	7044
1.52100	7041
1.52167	7039
1.52233	7036
1.52300	7034
1.52367	7031
1.52433	7029
1.52500	7027
1.52567	7024
1.52633	7022
1.52700	7020
1.52767	7018
1.52833	7016
1.52900	7014
1.52967	7012
1.53033	7010
1.53100	7008
1.53167	7006
1.53233	7005
1.53300	7003
1.53367	7001
1.53433	7000
1.53500	6998
1.53567	6996
1.53633	6995
1.53700	6993
1.53767	6991
1.53833	6990
1.53900	6988
1.53967	6987
1.54033	6985
1.54100	6984
1.54167	6982
1.54233	6981
1.54300	6979
1.54367	6978
1.54433	6977
1.54500	6975
1.54567	6974
1.54633	6972
1.54700	6971
1.54767	6969
1.54833	6968
1.54900	6966
1.54967	6965
1.55033	6964
1.55100	6962
1.55167	6961
1.55233	6959
1.55300	6958
1.55367	6957
1.55433	6955
1.55500	6953
1.55567	6952
1.55633	6950
1.55700	6949
1.55767	6947
1.55833	6946
1.55900	6944
1.55967	6942
1.56033	6941
1.56100	6939
1.56167	6937
1.56233	6935
1.56300	6933
1.56367	6932
1.56433	6930
1.56500	6928
1.56567	6927
1.56633	6925
1.56700	6924
1.56767	6922
1.56833	6921
1.56900	6919
1.56967	6918
1.57033	6916
1.57100	6915
1.57167	6914
1.57233	6912
1.57300	6911
1.57367	6910
1.57433	6909
1.57500	6907
1.57567	6906
1.57633	6905
1.57700	6904
1.57767	6903
1.57833	6901
1.57900	6900
1.57967	6899
1.58033	6898
1.58100	6897
1.58167	6896
1.58233	6895
1.58300	6894
1.58367	6892
1.58433	6891
1.58500	6890
1.58567	6889
1.58633	6888
1.58700	6887
1.58767	6886
1.58833	6885
1.58900	6884
1.58967	6883
1.59033	6881
1.59100	6880
1.59167	6879
1.59233	6878
1.59300	6876
1.59367	6875
1.59433	6874
1.59500	6873
1.59567	6871
1.59633	6870
1.59700	6869
1.59767	6867
1.59833	6866
1.59900	6865
1.59967	6863
1.60033	6862
1.60100	6861
1.60167	6859
1.60233	6858
1.60300	6857
1.60367	6855
1.60433	6854
1.60500	6853
1.60567	6851
1.60633	6850
1.60700	6849
1.60767	6848
1.60833	6846
1.60900	6845
1.60967	6844
1.61033	6842
1.61100	6841
1.61167	6840
1.61233	6839
1.61300	6838
1.61367	6836
1.61433	6835
1.61500	6834
1.61567	6833
1.61633	6832
1.61700	6831
1.61767	6830
1.61833	6829
1.61900	6828
1.61967	6827
1.62033	6826
1.62100	6825
1.62167	6824
1.62233	6823
1.62300	6822
1.62367	6821
1.62433	6819
1.62500	6818
1.62567	6817
1.62633	6816
1.62700	6815
1.62767	6814
1.62833	6813
1.62900	6811
1.62967	6810
1.63033	6809
1.63100	6808
1.63167	6807
1.63233	6806
1.63300	6805
1.63367	6804
1.63433	6803
1.63500	6802
1.63567	6801
1.63633	6801
1.63700	6800
1.63767	6799
1.63833	6799
1.63900	6798
1.63967	6798
1.64033	6797
1.64100	6797
1.64167	6796
1.64233	6796
1.64300	6796
1.64367	6795
1.64433	6795
1.64500	6795
1.64567	6795
1.64633	6795
1.64700	6794
1.64767	6794
1.64833	6794
1.64900	6794
1.64967	6794
1.65033	6794
1.65100	6794
1.65167	6794
1.65233	6794
1.65300	6794
1.65367	6794
1.65433	6794
1.65500	6794
1.65567	6794
1.65633	6794
1.65700	6794
1.65767	6794
1.65833	6794
1.65900	6794
1.65967	6793
1.66033	6793
1.66100	6793
1.66167	6793
1.66233	6793
1.66300	6793
1.66367	6793
1.66433	6793
1.66500	6792
1.66567	6792
1.66633	6792
1.66700	6791
1.66767	6791
1.66833	6791
1.66900	6790
1.66967	6790
1.67033	6789
1.67100	6788
1.67167	6788
1.67233	6787
1.67300	6786
1.67367	6785
1.67433	6785
1.67500	6784
1.67567	6783
1.67633	6782
1.67700	6782
1.67767	6781
1.67833	6780
1.67900	6779
1.67967	6779
1.68033	6778
1.68100	6777
1.68167	6776
1.68233	6775
1.68300	6774
1.68367	6773
1.68433	6772
1.68500	6771
1.68567	6770
1.68633	6769
1.68700	6767
1.68767	6766
1.68833	6765
1.68900	6764
1.68967	6762
1.69033	6761
1.69100	6759
1.69167	6758
1.69233	6757
1.69300	6755
1.69367	6754
1.69433	6752
1.69500	6751
1.69567	6749
1.69633	6748
1.69700	6746
1.69767	6745
1.69833	6743
1.69900	6742
1.69967	6740
1.70033	6739
1.70100	6737
1.70167	6736
1.70233	6734
1.70300	6732
1.70367	6731
1.70433	6729
1.70500	6728
1.70567	6726
1.70633	6724
1.70700	6723
1.70767	6721
1.70833	6720
1.70900	6718
1.70967	6717
1.71033	6715
1.71100	6714
1.71167	6712
1.71233	6711
1.71300	6710
1.71367	6709
1.71433	6708
1.71500	6707
1.71567	6707
1.71633	6707
1.71700	6707
1.71767	6708
1.71833	6709
1.71900	6712
1.71967	6715
1.72033	6719
1.72100	6725
1.72167	6733
1.72233	6742
1.72300	6755
1.72367	6770
1.72433	6789
1.72500	6813
1.72567	6842
1.72633	6877
1.72700	6921
1.72767	6974
1.72833	7037
1.72900	7114
1.72967	7206
1.73033	7315
1.73100	7444
1.73167	7597
1.73233	7777
1.73300	7988
1.73367	8234
1.73433	8521
1.73500	8853
1.73567	9236
1.73633	9678
1.73700	10183
1.73767	10760
1.73833	11415
1.73900	12157
1.73967	12993
1.74033	13932
1.74100	14984
1.74167	16159
1.74233	17465
1.74300	18914
1.74367	20517
1.74433	22284
1.74500	24225
1.74567	26352
1.74633	28675
1.74700	31204
1.74767	33947
1.74833	36912
1.74900	40107
1.74967	43536
1.75033	47203
1.75100	51112
1.75167	55265
1.75233	59666
1.75300	64314
1.75367	69208
1.75433	74342
1.75500	79712
1.75567	85310
1.75633	91127
1.75700	97154
1.75767	103379
1.75833	109788
1.75900	116364
1.75967	123087
1.76033	129935
1.76100	136886
1.76167	143916
1.76233	150999
1.76300	158109
1.76367	165217
1.76433	172296
1.76500	179318
1.76567	186253
1.76633	193071
1.76700	199741
1.76767	206235
1.76833	212526
1.76900	218588
1.76967	224400
1.77033	229940
1.77100	235190
1.77167	240132
1.77233	244751
1.77300	249036
1.77367	252976
1.77433	256563
1.77500	259793
1.77567	262663
1.77633	265173
1.77700	267324
1.77767	269121
1.77833	270568
1.77900	271673
1.77967	272445
1.78033	272894
1.78100	273031
1.78167	272868
1.78233	272417
1.78300	271693
1.78367	270709
1.78433	269478
1.78500	268015
1.78567	266334
1.78633	264449
1.78700	262373
1.78767	260121
1.78833	257704
1.78900	255138
1.78967	252432
1.79033	249601
1.79100	246654
1.79167	243604
1.79233	240461
1.79300	237234
1.79367	233934
1.79433	230570
1.79500	227149
1.79567	223681
1.79633	220173
1.79700	216632
1.79767	213065
1.79833	209479
1.79900	205879
1.79967	202271
1.80033	198661
1.80100	195052
1.80167	191451
1.80233	187860
1.80300	184284
1.80367	180727
1.80433	177191
1.80500	173681
1.80567	170198
1.80633	166745
1.80700	163325
1.80767	159940
1.80833	156591
1.80900	153282
1.80967	150012
1.81033	146784
1.81100	143600
1.81167	140459
1.81233	137363
1.81300	134314
1.81367	131311
1.81433	128356
1.81500	125448
1.81567	122589
1.81633	119779
1.81700	117018
1.81767	114306
1.81833	111643
1.81900	109029
1.81967	106465
1.82033	103950
1.82100	101484
1.82167	99067
1.82233	96698
1.82300	94377
1.82367	92105
1.82433	89880
1.82500	87702
1.82567	85570
1.82633	83485
1.82700	81446
1.82767	79452
1.82833	77502
1.82900	75597
1.82967	73734
1.83033	71915
1.83100	70137
1.83167	68402
1.83233	66707
1.83300	65052
1.83367	63437
1.83433	61861
1.83500	60323
1.83567	58823
1.83633	57360
1.83700	55933
1.83767	54542
1.83833	53185
1.83900	51863
1.83967	50575
1.84033	49320
1.84100	48097
1.84167	46905
1.84233	45744
1.84300	44614
1.84367	43514
1.84433	42442
1.84500	41399
1.84567	40384
1.84633	39395
1.84700	38434
1.84767	37498
1.84833	36587
1.84900	35702
1.84967	34840
1.85033	34002
1.85100	33187
1.85167	32394
1.85233	31623
1.85300	30874
1.85367	30146
1.85433	29437
1.85500	28749
1.85567	28080
1.85633	27430
1.85700	26798
1.85767	26184
1.85833	25587
1.85900	25007
1.85967	24444
1.86033	23897
1.86100	23366
1.86167	22849
1.86233	22348
1.86300	21861
1.86367	21388
1.86433	20929
1.86500	20483
1.86567	20050
1.86633	19630
1.86700	19222
1.86767	18826
1.86833	18441
1.86900	18068
1.86967	17705
1.87033	17353
1.87100	17012
1.87167	16680
1.87233	16359
1.87300	16046
1.87367	15743
1.87433	15449
1.87500	15163
1.87567	14886
1.87633	14617
1.87700	14356
1.87767	14103
1.87833	13857
1.87900	13619
1.87967	13387
1.88033	13163
1.88100	12945
1.88167	12734
1.88233	12528
1.88300	12329
1.88367	12136
1.88433	11949
1.88500	11767
1.88567	11591
1.88633	11420
1.88700	11254
1.88767	11093
1.88833	10937
1.88900	10785
1.88967	10638
1.89033	10495
1.89100	10357
1.89167	10223
1.89233	10093
1.89300	9967
1.89367	9845
1.89433	9727
1.89500	9612
1.89567	9501
1.89633	9393
1.89700	9288
1.89767	9187
1.89833	9089
1.89900	8993
1.89967	8901
1.90033	8812
1.90100	8725
1.90167	8641
1.90233	8560
1.90300	8481
1.90367	8404
1.90433	8330
1.90500	8258
1.90567	8189
1.90633	8121
1.90700	8055
1.90767	7992
1.90833	7930
1.90900	7870
1.90967	7812
1.91033	7756
1.91100	7701
1.91167	7648
1.91233	7597
1.91300	7547
1.91367	7499
1.91433	7452
1.91500	7406
1.91567	7361
1.91633	7318
1.91700	7276
1.91767	7235
1.91833	7196
1.91900	7157
1.91967	7120
1.92033	7083
1.92100	7048
1.92167	7014
1.92233	6980
1.92300	6948
1.92367	6916
1.92433	6885
1.92500	6855
1.92567	6825
1.92633	6797
1.92700	6769
1.92767	6742
1.92833	6715
1.92900	6690
1.92967	6664
1.93033	6640
1.93100	6616
1.93167	6592
1.93233	6570
1.93300	6547
1.93367	6525
1.93433	6504
1.93500	6483
1.93567	6463
1.93633	6443
1.93700	6424
1.93767	6405
1.93833	6387
1.93900	6369
1.93967	6351
1.94033	6334
1.94100	6317
1.94167	6301
1.94233	6284
1.94300	6269
1.94367	6254
1.94433	6239
1.94500	6224
1.94567	6210
1.94633	6196
1.94700	6183
1.94767	6170
1.94833	6157
1.94900	6144
1.94967	6132
1.95033	6120
1.95100	6108
1.95167	6096
1.95233	6085
1.95300	6074
1.95367	6063
1.95433	6053
1.95500	6042
1.95567	6032
1.95633	6022
1.95700	6013
1.95767	6003
1.95833	5994
1.95900	5985
1.95967	5976
1.96033	5968
1.96100	5959
1.96167	5951
1.96233	5943
1.96300	5935
1.96367	5927
1.96433	5920
1.96500	5912
1.96567	5905
1.96633	5898
1.96700	5891
1.96767	5884
1.96833	5877
1.96900	5870
1.96967	5864
1.97033	5858
1.97100	5852
1.97167	5846
1.97233	5840
1.97300	5834
1.97367	5828
1.97433	5823
1.97500	5818
1.97567	5812
1.97633	5807
1.97700	5802
1.97767	5797
1.97833	5792
1.97900	5788
1.97967	5783
1.98033	5778
1.98100	5774
1.98167	5770
1.98233	5765
1.98300	5761
1.98367	5757
1.98433	5753
1.98500	5749
1.98567	5745
1.98633	5741
1.98700	5738
1.98767	5734
1.98833	5731
1.98900	5727
1.98967	5723
1.99033	5720
1.99100	5717
1.99167	5713
1.99233	5710
1.99300	5707
1.99367	5703
1.99433	5700
1.99500	5697
1.99567	5694
1.99633	5691
1.99700	5688
1.99767	5685
1.99833	5682
1.99900	5679
1.99967	5676
2.00033	5673
2.00100	5670
2.00167	5667
2.00233	5664
2.00300	5661
2.00367	5659
2.00433	5656
2.00500	5653
2.00567	5650
2.00633	5648
2.00700	5645
2.00767	5642
2.00833	5639
2.00900	5637
2.00967	5634
2.01033	5631
2.01100	5628
2.01167	5625
2.01233	5622
2.01300	5620
2.01367	5617
2.01433	5614
2.01500	5611
2.01567	5608
2.01633	5605
2.01700	5602
2.01767	5599
2.01833	5596
2.01900	5594
2.01967	5591
2.02033	5588
2.02100	5585
2.02167	5582
2.02233	5579
2.02300	5576
2.02367	5573
2.02433	5570
2.02500	5567
2.02567	5564
2.02633	5561
2.02700	5559
2.02767	5556
2.02833	5553
2.02900	5550
2.02967	5548
2.03033	5545
2.03100	5542
2.03167	5540
2.03233	5537
2.03300	5534
2.03367	5532
2.03433	5529
2.03500	5526
2.03567	5524
2.03633	5521
2.03700	5519
2.03767	5516
2.03833	5513
2.03900	5511
2.03967	5508
2.04033	5506
2.04100	5504
2.04167	5501
2.04233	5499
2.04300	5496
2.04367	5494
2.04433	5492
2.04500	5490
2.04567	5487
2.04633	5485
2.04700	5483
2.04767	5481
2.04833	5478
2.04900	5476
2.04967	5474
2.05033	5472
2.05100	5470
2.05167	5468
2.05233	5466
2.05300	5464
2.05367	5462
2.05433	5460
2.05500	5458
2.05567	5456
2.05633	5454
2.05700	5452
2.05767	5450
2.05833	5449
2.05900	5447
2.05967	5445
2.06033	5443
2.06100	5442
2.06167	5440
2.06233	5438
2.06300	5436
2.06367	5435
2.06433	5433
2.06500	5432
2.06567	5430
2.06633	5428
2.06700	5427
2.06767	5425
2.06833	5424
2.06900	5422
2.06967	5420
2.07033	5419
2.07100	5417
2.07167	5416
2.07233	5414
2.07300	5413
2.07367	5411
2.07433	5409
2.07500	5408
2.07567	5406
2.07633	5405
2.07700	5403
2.07767	5401
2.07833	5400
2.07900	5399
2.07967	5397
2.08033	5396
2.08100	5395
2.08167	5393
2.08233	5392
2.08300	5391
2.08367	5389
2.08433	5388
2.08500	5387
2.08567	5385
2.08633	5384
2.08700	5383
2.08767	5382
2.08833	5381
2.08900	5379
2.08967	5378
2.09033	5377
2.09100	5376
2.09167	5375
2.09233	5374
2.09300	5373
2.09367	5372
2.09433	5370
2.09500	5369
2.09567	5368
2.09633	5367
2.09700	5366
2.09767	5365
2.09833	5363
2.09900	5362
2.09967	5361
2.10033	5360
2.10100	5359
2.10167	5357
2.10233	5356
2.10300	5355
2.10367	5354
2.10433	5353
2.10500	5351
2.10567	5350
2.10633	5349
2.10700	5348
2.10767	5347
2.10833	5345
2.10900	5344
2.10967	5343
2.11033	5342
2.11100	5341
2.11167	5340
2.11233	5338
2.11300	5337
2.11367	5336
2.11433	5335
2.11500	5334
2.11567	5333
2.11633	5332
2.11700	5330
2.11767	5329
2.11833	5328
2.11900	5327
2.11967	5326
2.12033	5324
2.12100	5323
2.12167	5322
2.12233	5321
2.12300	5319
2.12367	5318
2.12433	5317
2.12500	5316
2.12567	5314
2.12633	5313
2.12700	5311
2.12767	5310
2.12833	5309
2.12900	5307
2.12967	5306
2.13033	5304
2.13100	5303
2.13167	5301
2.13233	5300
2.13300	5298
2.13367	5297
2.13433	5296
2.13500	5294
2.13567	5293
2.13633	5291
2.13700	5290
2.13767	5288
2.13833	5287
2.13900	5286
2.13967	5284
2.14033	5283
2.14100	5282
2.14167	5281
2.14233	5280
2.14300	5279
2.14367	5278
2.14433	5276
2.14500	5275
2.14567	5275
2.14633	5274
2.14700	5273
2.14767	5272
2.14833	5271
2.14900	5271
2.14967	5270
2.15033	5269
2.15100	5269
2.15167	5269
2.15233	5268
2.15300	5268
2.15367	5268
2.15433	5268
2.15500	5268
2.15567	5268
2.15633	5268
2.15700	5269
2.15767	5269
2.15833	5269
2.15900	5270
2.15967	5270
2.16033	5271
2.16100	5272
2.16167	5272
2.16233	5273
2.16300	5274
2.16367	5275
2.16433	5276
2.16500	5277
2.16567	5278
2.16633	5278
2.16700	5279
2.16767	5280
2.16833	5281
2.16900	5282
2.16967	5283
2.17033	5283
2.17100	5284
2.17167	5284
2.17233	5285
2.17300	5285
2.17367	5285
2.17433	5286
2.17500	5286
2.17567	5286
2.17633	5286
2.17700	5286
2.17767	5286
2.17833	5285
2.17900	5285
2.17967	5284
2.18033	5284
2.18100	5283
2.18167	5282
2.18233	5281
2.18300	5280
2.18367	5279
2.18433	5277
2.18500	5276
2.18567	5275
2.18633	5273
2.18700	5271
2.18767	5270
2.18833	5268
2.18900	5266
2.18967	5264
2.19033	5262
2.19100	5260
2.19167	5258
2.19233	5256
2.19300	5254
2.19367	5252
2.19433	5250
2.19500	5248
2.19567	5246
2.19633	5244
2.19700	5242
2.19767	5239
2.19833	5237
2.19900	5235
2.19967	5233
2.20033	5231
2.20100	5228
2.20167	5226
2.20233	5224
2.20300	5222
2.20367	5220
2.20433	5218
2.20500	5216
2.20567	5214
2.20633	5212
2.20700	5210
2.20767	5209
2.20833	5207
2.20900	5205
2.20967	5204
2.21033	5202
2.21100	5201
2.21167	5199
2.21233	5198
2.21300	5197
2.21367	5195
2.21433	5194
2.21500	5193
2.21567	5192
2.21633	5191
2.21700	5190
2.21767	5189
2.21833	5188
2.21900	5187
2.21967	5187
2.22033	5186
2.22100	5185
2.22167	5184
2.22233	5184
2.22300	5183
2.22367	5182
2.22433	5182
2.22500	5181
2.22567	5180
2.22633	5180
2.22700	5179
2.22767	5178
2.22833	5178
2.22900	5177
2.22967	5177
2.23033	5176
2.23100	5176
2.23167	5175
2.23233	5174
2.23300	5174
2.23367	5173
2.23433	5173
2.23500	5172
2.23567	5171
2.23633	5171
2.23700	5170
2.23767	5170
2.23833	5169
2.23900	5168
2.23967	5168
2.24033	5167
2.24100	5167
2.24167	5167
2.24233	5166
2.24300	5166
2.24367	5166
2.24433	5165
2.24500	5165
2.24567	5165
2.24633	5165
2.24700	5165
2.24767	5165
2.24833	5165
2.24900	5165
2.24967	5165
2.25033	5165
2.25100	5165
2.25167	5165
2.25233	5165
2.25300	5165
2.25367	5166
2.25433	5166
2.25500	5166
2.25567	5166
2.25633	5166
2.25700	5166
2.25767	5166
2.25833	5167
2.25900	5167
2.25967	5166
2.26033	5166
2.26100	5166
2.26167	5166
2.26233	5166
2.26300	5165
2.26367	5165
2.26433	5164
2.26500	5164
2.26567	5163
2.26633	5162
2.26700	5162
2.26767	5161
2.26833	5160
2.26900	5159
2.26967	5158
2.27033	5157
2.27100	5156
2.27167	5155
2.27233	5154
2.27300	5153
2.27367	5152
2.27433	5150
2.27500	5149
2.27567	5148
2.27633	5146
2.27700	5145
2.27767	5143
2.27833	5142
2.27900	5140
2.27967	5138
2.28033	5137
2.28100	5135
2.28167	5133
2.28233	5132
2.28300	5130
2.28367	5128
2.28433	5127
2.28500	5125
2.28567	5123
2.28633	5121
2.28700	5119
2.28767	5117
2.28833	5116
2.28900	5114
2.28967	5112
2.29033	5110
2.29100	5108
2.29167	5106
2.29233	5104
2.29300	5102
2.29367	5101
2.29433	5099
2.29500	5097
2.29567	5096
2.29633	5094
2.29700	5093
2.29767	5091
2.29833	5090
2.29900	5088
2.29967	5087
2.30033	5086
2.30100	5084
2.30167	5083
2.30233	5082
2.30300	5081
2.30367	5080
2.30433	5079
2.30500	5077
2.30567	5076
2.30633	5075
2.30700	5074
2.30767	5074
2.30833	5073
2.30900	5072
2.30967	5071
2.31033	5070
2.31100	5069
2.31167	5068
2.31233	5068
2.31300	5067
2.31367	5066
2.31433	5066
2.31500	5065
2.31567	5065
2.31633	5064
2.31700	5064
2.31767	5064
2.31833	5063
2.31900	5063
2.31967	5063
2.32033	5062
2.32100	5062
2.32167	5062
2.32233	5062
2.32300	5062
2.32367	5062
2.32433	5062
2.32500	5062
2.32567	5062
2.32633	5062
2.32700	5062
2.32767	5062
2.32833	5062
2.32900	5062
2.32967	5062
2.33033	5061
2.33100	5061
2.33167	5061
2.33233	5061
2.33300	5061
2.33367	5061
2.33433	5061
2.33500	5061
2.33567	5061
2.33633	5061
2.33700	5061
2.33767	5061
2.33833	5061
2.33900	5061
2.33967	5061
2.34033	5061
2.34100	5061
2.34167	5061
2.34233	5062
2.34300	5062
2.34367	5062
2.34433	5062
2.34500	5062
2.34567	5062
2.34633	5062
2.34700	5063
2.34767	5063
2.34833	5063
2.34900	5063
2.34967	5063
2.35033	5064
2.35100	5064
2.35167	5064
2.35233	5064
2.35300	5064
2.35367	5065
2.35433	5065
2.35500	5065
2.35567	5066
2.35633	5066
2.35700	5066
2.35767	5067
2.35833	5067
2.35900	5067
2.35967	5068
2.36033	5068
2.36100	5068
2.36167	5069
2.36233	5069
2.36300	5069
2.36367	5070
2.36433	5070
2.36500	5071
2.36567	5071
2.36633	5071
2.36700	5072
2.36767	5072
2.36833	5072
2.36900	5073
2.36967	5073
2.37033	5073
2.37100	5073
2.37167	5074
2.37233	5074
2.37300	5074
2.37367	5075
2.37433	5075
2.37500	5076
2.37567	5076
2.37633	5076
2.37700	5077
2.37767	5077
2.37833	5078
2.37900	5078
2.37967	5078
2.38033	5079
2.38100	5079
2.38167	5080
2.38233	5080
2.38300	5081
2.38367	5081
2.38433	5082
2.38500	5082
2.38567	5083
2.38633	5083
2.38700	5084
2.38767	5084
2.38833	5084
2.38900	5085
2.38967	5085
2.39033	5085
2.39100	5086
2.39167	5086
2.39233	5086
2.39300	5086
2.39367	5087
2.39433	5087
2.39500	5087
2.39567	5087
2.39633	5087
2.39700	5087
2.39767	5087
2.39833	5087
2.39900	5087
2.39967	5087
2.40033	5086
2.40100	5086
2.40167	5086
2.40233	5086
2.40300	5085
2.40367	5085
2.40433	5085
2.40500	5084
2.40567	5084
2.40633	5083
2.40700	5083
2.40767	5083
2.40833	5082
2.40900	5082
2.40967	5082
2.41033	5081
2.41100	5081
2.41167	5080
2.41233	5080
2.41300	5079
2.41367	5079
2.41433	5078
2.41500	5078
2.41567	5077
2.41633	5077
2.41700	5076
2.41767	5076
2.41833	5075
2.41900	5074
2.41967	5074
2.42033	5073
2.42100	5072
2.42167	5071
2.42233	5071
2.42300	5070
2.42367	5069
2.42433	5068
2.42500	5067
2.42567	5066
2.42633	5065
2.42700	5064
2.42767	5063
2.42833	5062
2.42900	5061
2.42967	5059
2.43033	5058
2.43100	5057
2.43167	5056
2.43233	5054
2.43300	5053
2.43367	5052
2.43433	5050
2.43500	5049
2.43567	5048
2.43633	5046
2.43700	5045
2.43767	5043
2.43833	5042
2.43900	5040
2.43967	5039
2.44033	5037
2.44100	5035
2.44167	5034
2.44233	5032
2.44300	5030
2.44367	5028
2.44433	5026
2.44500	5024
2.44567	5022
2.44633	5020
2.44700	5019
2.44767	5017
2.44833	5015
2.44900	5012
2.44967	5010
2.45033	5008
2.45100	5006
2.45167	5004
2.45233	5002
2.45300	5000
2.45367	4998
2.45433	4996
2.45500	4994
2.45567	4992
2.45633	4990
2.45700	4987
2.45767	4985
2.45833	4983
2.45900	4981
2.45967	4979
2.46033	4977
2.46100	4975
2.46167	4972
2.46233	4970
2.46300	4968
2.46367	4966
2.46433	4964
2.46500	4962
2.46567	4960
2.46633	4958
2.46700	4956
2.46767	4954
2.46833	4951
2.46900	4949
2.46967	4947
2.47033	4945
2.47100	4943
2.47167	4941
2.47233	4939
2.47300	4937
2.47367	4935
2.47433	4933
2.47500	4931
2.47567	4928
2.47633	4926
2.47700	4924
2.47767	4922
2.47833	4920
2.47900	4918
2.47967	4916
2.48033	4914
2.48100	4912
2.48167	4910
2.48233	4908
2.48300	4906
2.48367	4904
2.48433	4902
2.48500	4900
2.48567	4898
2.48633	4896
2.48700	4893
2.48767	4891
2.48833	4889
2.48900	4887
2.48967	4885
2.49033	4883
2.49100	4881
2.49167	4879
2.49233	4877
2.49300	4875
2.49367	4873
2.49433	4871
2.49500	4869
2.49567	4867
2.49633	4865
2.49700	4863
2.49767	4861
2.49833	4859
2.49900	4857
2.49967	4855
2.50033	4854
2.50100	4852
2.50167	4850
2.50233	4848
2.50300	4846
2.50367	4844
2.50433	4842
2.50500	4841
2.50567	4839
2.50633	4837
2.50700	4835
2.50767	4833
2.50833	4832
2.50900	4830
2.50967	4828
2.51033	4826
2.51100	4825
2.51167	4823
2.51233	4821
2.51300	4820
2.51367	4818
2.51433	4816
2.51500	4815
2.51567	4813
2.51633	4812
2.51700	4810
2.51767	4809
2.51833	4807
2.51900	4806
2.51967	4804
2.52033	4803
2.52100	4801
2.52167	4800
2.52233	4798
2.52300	4797
2.52367	4795
2.52433	4793
2.52500	4792
2.52567	4790
2.52633	4789
2.52700	4787
2.52767	4786
2.52833	4784
2.52900	4783
2.52967	4781
2.53033	4779
2.53100	4778
2.53167	4776
2.53233	4774
2.53300	4773
2.53367	4771
2.53433	4770
2.53500	4768
2.53567	4767
2.53633	4765
2.53700	4763
2.53767	4762
2.53833	4760
2.53900	4759
2.53967	4757
2.54033	4756
2.54100	4754
2.54167	4753
2.54233	4751
2.54300	4749
2.54367	4748
2.54433	4746
2.54500	4745
2.54567	4743
2.54633	4742
2.54700	4740
2.54767	4739
2.54833	4737
2.54900	4736
2.54967	4734
2.55033	4733
2.55100	4731
2.55167	4730
2.55233	4729
2.55300	4727
2.55367	4726
2.55433	4724
2.55500	4723
2.55567	4721
2.55633	4720
2.55700	4719
2.55767	4717
2.55833	4716
2.55900	4715
2.55967	4713
2.56033	4712
2.56100	4711
2.56167	4710
2.56233	4709
2.56300	4707
2.56367	4706
2.56433	4705
2.56500	4704
2.56567	4703
2.56633	4702
2.56700	4700
2.56767	4699
2.56833	4698
2.56900	4697
2.56967	4695
2.57033	4694
2.57100	4693
2.57167	4692
2.57233	4691
2.57300	4690
2.57367	4689
2.57433	4688
2.57500	4687
2.57567	4685
2.57633	4684
2.57700	4683
2.57767	4682
2.57833	4681
2.57900	4680
2.57967	4679
2.58033	4678
2.58100	4677
2.58167	4676
2.58233	4675
2.58300	4674
2.58367	4673
2.58433	4672
2.58500	4671
2.58567	4670
2.58633	4669
2.58700	4668
2.58767	4667
2.58833	4666
2.58900	4665
2.58967	4664
2.59033	4663
2.59100	4662
2.59167	4662
2.59233	4661
2.59300	4660
2.59367	4659
2.59433	4658
2.59500	4657
2.59567	4657
2.59633	4656
2.59700	4655
2.59767	4655
2.59833	4654
2.59900	4653
2.59967	4653
2.60033	4652
2.60100	4651
2.60167	4651
2.60233	4650
2.60300	4649
2.60367	4649
2.60433	4648
2.60500	4647
2.60567	4647
2.60633	4646
2.60700	4645
2.60767	4645
2.60833	4644
2.60900	4644
2.60967	4643
2.61033	4643
2.61100	4642
2.61167	4642
2.61233	4641
2.61300	4641
2.61367	4640
2.61433	4640
2.61500	4639
2.61567	4639
2.61633	4638
2.61700	4637
2.61767	4637
2.61833	4636
2.61900	4636
2.61967	4635
2.62033	4634
2.62100	4633
2.62167	4633
2.62233	4632
2.62300	4631
2.62367	4630
2.62433	4630
2.62500	4629
2.62567	4628
2.62633	4627
2.62700	4626
2.62767	4626
2.62833	4625
2.62900	4624
2.62967	4623
2.63033	4623
2.63100	4622
2.63167	4621
2.63233	4620
2.63300	4619
2.63367	4618
2.63433	4617
2.63500	4616
2.63567	4615
2.63633	4614
2.63700	4614
2.63767	4613
2.63833	4612
2.63900	4611
2.63967	4610
2.64033	4609
2.64100	4608
2.64167	4607
2.64233	4606
2.64300	4605
2.64367	4604
2.64433	4603
2.64500	4602
2.64567	4601
2.64633	4600
2.64700	4599
2.64767	4597
2.64833	4596
2.64900	4595
2.64967	4594
2.65033	4593
2.65100	4592
2.65167	4591
2.65233	4589
2.65300	4588
2.65367	4587
2.65433	4586
2.65500	4584
2.65567	4583
2.65633	4582
2.65700	4581
2.65767	4579
2.65833	4578
2.65900	4577
2.65967	4575
2.66033	4574
2.66100	4573
2.66167	4572
2.66233	4570
2.66300	4569
2.66367	4568
2.66433	4566
2.66500	4565
2.66567	4564
2.66633	4562
2.66700	4561
2.66767	4560
2.66833	4559
2.66900	4557
2.66967	4556
2.67033	4555
2.67100	4553
2.67167	4552
2.67233	4550
2.67300	4549
2.67367	4548
2.67433	4546
2.67500	4545
2.67567	4543
2.67633	4542
2.67700	4541
2.67767	4539
2.67833	4538
2.67900	4536
2.67967	4535
2.68033	4533
2.68100	4532
2.68167	4530
2.68233	4529
2.68300	4528
2.68367	4526
2.68433	4525
2.68500	4523
2.68567	4522
2.68633	4521
2.68700	4519
2.68767	4518
2.68833	4516
2.68900	4515
2.68967	4514
2.69033	4512
2.69100	4511
2.69167	4509
2.69233	4508
2.69300	4507
2.69367	4505
2.69433	4504
2.69500	4502
2.69567	4501
2.69633	4500
2.69700	4498
2.69767	4497
2.69833	4495
2.69900	4494
2.69967	4493
2.70033	4491
2.70100	4490
2.70167	4489
2.70233	4487
2.70300	4486
2.70367	4485
2.70433	4483
2.70500	4482
2.70567	4481
2.70633	4480
2.70700	4478
2.70767	4477
2.70833	4476
2.70900	4475
2.70967	4474
2.71033	4472
2.71100	4471
2.71167	4470
2.71233	4469
2.71300	4468
2.71367	4467
2.71433	4466
2.71500	4465
2.71567	4464
2.71633	4462
2.71700	4461
2.71767	4460
2.71833	4459
2.71900	4458
2.71967	4457
2.72033	4456
2.72100	4455
2.72167	4454
2.72233	4453
2.72300	4452
2.72367	4450
2.72433	4449
2.72500	4448
2.72567	4447
2.72633	4446
2.72700	4445
2.72767	4444
2.72833	4444
2.72900	4443
2.72967	4442
2.73033	4441
2.73100	4440
2.73167	4439
2.73233	4438
2.73300	4438
2.73367	4437
2.73433	4436
2.73500	4436
2.73567	4435
2.73633	4434
2.73700	4434
2.73767	4433
2.73833	4433
2.73900	4432
2.73967	4432
2.74033	4431
2.74100	4431
2.74167	4430
2.74233	4430
2.74300	4429
2.74367	4429
2.74433	4429
2.74500	4428
2.74567	4428
2.74633	4428
2.74700	4427
2.74767	4427
2.74833	4427
2.74900	4427
2.74967	4426
2.75033	4426
2.75100	4426
2.75167	4426
2.75233	4426
2.75300	4426
2.75367	4426
2.75433	4426
2.75500	4425
2.75567	4425
2.75633	4425
2.75700	4425
2.75767	4425
2.75833	4425
2.75900	4425
2.75967	4425
2.76033	4425
2.76100	4426
2.76167	4426
2.76233	4426
2.76300	4426
2.76367	4427
2.76433	4427
2.76500	4427
2.76567	4428
2.76633	4428
2.76700	4428
2.76767	4429
2.76833	4429
2.76900	4430
2.76967	4430
2.77033	4431
2.77100	4431
2.77167	4432
2.77233	4433
2.77300	4433
2.77367	4434
2.77433	4434
2.77500	4435
2.77567	4436
2.77633	4437
2.77700	4437
2.77767	4438
2.77833	4439
2.77900	4440
2.77967	4441
2.78033	4442
2.78100	4443
2.78167	4444
2.78233	4446
2.78300	4447
2.78367	4448
2.78433	4449
2.78500	4451
2.78567	4452
2.78633	4453
2.78700	4455
2.78767	4456
2.78833	4457
2.78900	4459
2.78967	4460
2.79033	4462
2.79100	4463
2.79167	4465
2.79233	4466
2.79300	4468
2.79367	4469
2.79433	4471
2.79500	4473
2.79567	4474
2.79633	4476
2.79700	4477
2.79767	4479
2.79833	4481
2.79900	4482
2.79967	4484
2.80033	4485
2.80100	4487
2.80167	4489
2.80233	4490
2.80300	4492
2.80367	4493
2.80433	4495
2.80500	4497
2.80567	4498
2.80633	4500
2.80700	4501
2.80767	4502
2.80833	4504
2.80900	4505
2.80967	4506
2.81033	4508
2.81100	4509
2.81167	4510
2.81233	4511
2.81300	4513
2.81367	4514
2.81433	4515
2.81500	4516
2.81567	4517
2.81633	4518
2.81700	4519
2.81767	4520
2.81833	4521
2.81900	4522
2.81967	4523
2.82033	4523
2.82100	4524
2.82167	4525
2.82233	4526
2.82300	4526
2.82367	4527
2.82433	4527
2.82500	4528
2.82567	4528
2.82633	4528
2.82700	4529
2.82767	4529
2.82833	4529
2.82900	4529
2.82967	4529
2.83033	4529
2.83100	4529
2.83167	4529
2.83233	4529
2.83300	4529
2.83367	4529
2.83433	4528
2.83500	4528
2.83567	4528
2.83633	4528
2.83700	4527
2.83767	4527
2.83833	4526
2.83900	4526
2.83967	4525
2.84033	4525
2.84100	4524
2.84167	4524
2.84233	4523
2.84300	4522
2.84367	4522
2.84433	4521
2.84500	4520
2.84567	4519
2.84633	4519
2.84700	4518
2.84767	4517
2.84833	4517
2.84900	4516
2.84967	4515
2.85033	4515
2.85100	4514
2.85167	4513
2.85233	4513
2.85300	4512
2.85367	4512
2.85433	4511
2.85500	4511
2.85567	4510
2.85633	4510
2.85700	4509
2.85767	4509
2.85833	4508
2.85900	4508
2.85967	4507
2.86033	4507
2.86100	4507
2.86167	4506
2.86233	4506
2.86300	4506
2.86367	4506
2.86433	4506
2.86500	4505
2.86567	4505
2.86633	4505
2.86700	4506
2.86767	4506
2.86833	4506
2.86900	4506
2.86967	4507
2.87033	4507
2.87100	4507
2.87167	4508
2.87233	4509
2.87300	4509
2.87367	4510
2.87433	4511
2.87500	4512
2.87567	4513
2.87633	4514
2.87700	4515
2.87767	4516
2.87833	4517
2.87900	4519
2.87967	4520
2.88033	4522
2.88100	4523
2.88167	4525
2.88233	4527
2.88300	4529
2.88367	4531
2.88433	4533
2.88500	4536
2.88567	4538
2.88633	4541
2.88700	4543
2.88767	4546
2.88833	4549
2.88900	4552
2.88967	4555
2.89033	4559
2.89100	4562
2.89167	4565
2.89233	4569
2.89300	4573
2.89367	4576
2.89433	4580
2.89500	4584
2.89567	4588
2.89633	4592
2.89700	4596
2.89767	4599
2.89833	4603
2.89900	4607
2.89967	4611
2.90033	4615
2.90100	4619
2.90167	4623
2.90233	4627
2.90300	4631
2.90367	4635
2.90433	4639
2.90500	4643
2.90567	4646
2.90633	4650
2.90700	4653
2.90767	4657
2.90833	4660
2.90900	4663
2.90967	4666
2.91033	4668
2.91100	4671
2.91167	4673
2.91233	4675
2.91300	4677
2.91367	4679
2.91433	4680
2.91500	4681
2.91567	4682
2.91633	4683
2.91700	4683
2.91767	4684
2.91833	4684
2.91900	4683
2.91967	4683
2.92033	4682
2.92100	4681
2.92167	4680
2.92233	4678
2.92300	4676
2.92367	4674
2.92433	4672
2.92500	4670
2.92567	4667
2.92633	4664
2.92700	4661
2.92767	4658
2.92833	4654
2.92900	4651
2.92967	4647
2.93033	4643
2.93100	4638
2.93167	4634
2.93233	4629
2.93300	4625
2.93367	4620
2.93433	4615
2.93500	4610
2.93567	4604
2.93633	4599
2.93700	4593
2.93767	4588
2.93833	4582
2.93900	4576
2.93967	4570
2.94033	4564
2.94100	4558
2.94167	4552
2.94233	4546
2.94300	4540
2.94367	4533
2.94433	4527
2.94500	4521
2.94567	4514
2.94633	4508
2.94700	4502
2.94767	4495
2.94833	4489
2.94900	4482
2.94967	4476
2.95033	4470
2.95100	4463
2.95167	4457
2.95233	4451
2.95300	4444
2.95367	4438
2.95433	4432
2.95500	4425
2.95567	4419
2.95633	4413
2.95700	4407
2.95767	4401
2.95833	4395
2.95900	4390
2.95967	4384
2.96033	4378
2.96100	4372
2.96167	4367
2.96233	4361
2.96300	4356
2.96367	4350
2.96433	4345
2.96500	4340
2.96567	4335
2.96633	4330
2.96700	4325
2.96767	4320
2.96833	4315
2.96900	4310
2.96967	4306
2.97033	4301
2.97100	4297
2.97167	4293
2.97233	4288
2.97300	4284
2.97367	4280
2.97433	4276
2.97500	4272
2.97567	4268
2.97633	4264
2.97700	4260
2.97767	4257
2.97833	4253
2.97900	4249
2.97967	4246
2.98033	4242
2.98100	4239
2.98167	4236
2.98233	4232
2.98300	4229
2.98367	4226
2.98433	4223
2.98500	4220
2.98567	4217
2.98633	4213
2.98700	4210
2.98767	4207
2.98833	4204
2.98900	4202
2.98967	4199
2.99033	4196
2.99100	4193
2.99167	4190
2.99233	4187
2.99300	4185
2.99367	4182
2.99433	4179
2.99500	4176
2.99567	4174
2.99633	4171
2.99700	4169
2.99767	4166
2.99833	4163
2.99900	4161
2.99967	4158
3.00033	4156
3.00100	4153
3.00167	4151
3.00233	4149
3.00300	4146
3.00367	4144
3.00433	4142
3.00500	4140
3.00567	4138
3.00633	4135
3.00700	4133
3.00767	4131
3.00833	4129
3.00900	4127
3.00967	4125
3.01033	4123
3.01100	4121
3.01167	4119
3.01233	4117
3.01300	4115
3.01367	4113
3.01433	4111
3.01500	4110
3.01567	4108
3.01633	4106
3.01700	4104
3.01767	4102
3.01833	4100
3.01900	4098
3.01967	4097
3.02033	4095
3.02100	4093
3.02167	4091
3.02233	4090
3.02300	4088
3.02367	4086
3.02433	4085
3.02500	4083
3.02567	4082
3.02633	4080
3.02700	4078
3.02767	4077
3.02833	4075
3.02900	4074
3.02967	4072
3.03033	4070
3.03100	4069
3.03167	4067
3.03233	4066
3.03300	4064
3.03367	4063
3.03433	4062
3.03500	4060
3.03567	4059
3.03633	4057
3.03700	4056
3.03767	4055
3.03833	4053
3.03900	4052
3.03967	4050
3.04033	4049
3.04100	4048
3.04167	4047
3.04233	4045
3.04300	4044
3.04367	4043
3.04433	4042
3.04500	4040
3.04567	4039
3.04633	4038
3.04700	4037
3.04767	4035
3.04833	4034
3.04900	4033
3.04967	4032
3.05033	4031
3.05100	4030
3.05167	4028
3.05233	4027
3.05300	4026
3.05367	4025
3.05433	4024
3.05500	4023
3.05567	4022
3.05633	4021
3.05700	4020
3.05767	4019
3.05833	4018
3.05900	4017
3.05967	4016
3.06033	4015
3.06100	4015
3.06167	4014
3.06233	4013
3.06300	4012
3.06367	4011
3.06433	4010
3.06500	4009
3.06567	4008
3.06633	4007
3.06700	4006
3.06767	4005
3.06833	4005
3.06900	4004
3.06967	4003
3.07033	4002
3.07100	4001
3.07167	4000
3.07233	3999
3.07300	3999
3.07367	3998
3.07433	3997
3.07500	3996
3.07567	3995
3.07633	3995
3.07700	3994
3.07767	3993
3.07833	3992
3.07900	3991
3.07967	3991
3.08033	3990
3.08100	3989
3.08167	3988
3.08233	3987
3.08300	3987
3.08367	3986
3.08433	3985
3.08500	3984
3.08567	3983
3.08633	3983
3.08700	3982
3.08767	3981
3.08833	3980
3.08900	3979
3.08967	3978
3.09033	3978
3.09100	3977
3.09167	3976
3.09233	3975
3.09300	3975
3.09367	3974
3.09433	3973
3.09500	3972
3.09567	3971
3.09633	3971
3.09700	3970
3.09767	3969
3.09833	3968
3.09900	3967
3.09967	3967
3.10033	3966
3.10100	3965
3.10167	3964
3.10233	3963
3.10300	3963
3.10367	3962
3.10433	3961
3.10500	3960
3.10567	3959
3.10633	3958
3.10700	3958
3.10767	3957
3.10833	3956
3.10900	3955
3.10967	3954
3.11033	3953
3.11100	3952
3.11167	3951
3.11233	3950
3.11300	3949
3.11367	3948
3.11433	3947
3.11500	3946
3.11567	3945
3.11633	3944
3.11700	3943
3.11767	3943
3.11833	3942
3.11900	3941
3.11967	3940
3.12033	3939
3.12100	3938
3.12167	3937
3.12233	3936
3.12300	3935
3.12367	3935
3.12433	3934
3.12500	3933
3.12567	3932
3.12633	3931
3.12700	3930
3.12767	3929
3.12833	3928
3.12900	3927
3.12967	3926
3.13033	3926
3.13100	3925
3.13167	3924
3.13233	3923
3.13300	3923
3.13367	3922
3.13433	3921
3.13500	3921
3.13567	3920
3.13633	3919
3.13700	3919
3.13767	3918
3.13833	3918
3.13900	3917
3.13967	3916
3.14033	3916
3.14100	3915
3.14167	3914
3.14233	3914
3.14300	3913
3.14367	3912
3.14433	3912
3.14500	3911
3.14567	3910
3.14633	3909
3.14700	3909
3.14767	3908
3.14833	3907
3.14900	3907
3.14967	3906
3.15033	3905
3.15100	3905
3.15167	3904
3.15233	3903
3.15300	3903
3.15367	3902
3.15433	3902
3.15500	3901
3.15567	3900
3.15633	3900
3.15700	3899
3.15767	3898
3.15833	3898
3.15900	3897
3.15967	3896
3.16033	3896
3.16100	3895
3.16167	3895
3.16233	3894
3.16300	3893
3.16367	3893
3.16433	3892
3.16500	3892
3.16567	3891
3.16633	3890
3.16700	3890
3.16767	3889
3.16833	3888
3.16900	3888
3.16967	3887
3.17033	3887
3.17100	3886
3.17167	3885
3.17233	3885
3.17300	3884
3.17367	3883
3.17433	3883
3.17500	3882
3.17567	3881
3.17633	3880
3.17700	3880
3.17767	3879
3.17833	3878
3.17900	3877
3.17967	3877
3.18033	3876
3.18100	3875
3.18167	3874
3.18233	3874
3.18300	3873
3.18367	3872
3.18433	3872
3.18500	3871
3.18567	3870
3.18633	3869
3.18700	3869
3.18767	3868
3.18833	3867
3.18900	3867
3.18967	3866
3.19033	3865
3.19100	3865
3.19167	3864
3.19233	3864
3.19300	3863
3.19367	3862
3.19433	3862
3.19500	3861
3.19567	3861
3.19633	3860
3.19700	3860
3.19767	3859
3.19833	3859
3.19900	3858
3.19967	3858
3.20033	3857
3.20100	3857
3.20167	3856
3.20233	3855
3.20300	3855
3.20367	3854
3.20433	3854
3.20500	3853
3.20567	3853
3.20633	3852
3.20700	3851
3.20767	3851
3.20833	3850
3.20900	3849
3.20967	3849
3.21033	3848
3.21100	3848
3.21167	3847
3.21233	3846
3.21300	3846
3.21367	3845
3.21433	3845
3.21500	3844
3.21567	3844
3.21633	3843
3.21700	3842
3.21767	3842
3.21833	3841
3.21900	3841
3.21967	3840
3.22033	3839
3.22100	3839
3.22167	3838
3.22233	3837
3.22300	3837
3.22367	3836
3.22433	3835
3.22500	3835
3.22567	3834
3.22633	3834
3.22700	3833
3.22767	3833
3.22833	3832
3.22900	3832
3.22967	3831
3.23033	3831
3.23100	3830
3.23167	3830
3.23233	3830
3.23300	3829
3.23367	3829
3.23433	3829
3.23500	3828
3.23567	3828
3.23633	3828
3.23700	3827
3.23767	3827
3.23833	3827
3.23900	3826
3.23967	3826
3.24033	3826
3.24100	3825
3.24167	3825
3.24233	3825
3.24300	3825
3.24367	3824
3.24433	3824
3.24500	3824
3.24567	3824
3.24633	3823
3.24700	3823
3.24767	3823
3.24833	3822
3.24900	3822
3.24967	3822
3.25033	3822
3.25100	3821
3.25167	3821
3.25233	3821
3.25300	3820
3.25367	3820
3.25433	3820
3.25500	3819
3.25567	3819
3.25633	3819
3.25700	3818
3.25767	3818
3.25833	3818
3.25900	3817
3.25967	3817
3.26033	3817
3.26100	3816
3.26167	3816
3.26233	3816
3.26300	3816
3.26367	3815
3.26433	3815
3.26500	3815
3.26567	3814
3.26633	3814
3.26700	3814
3.26767	3814
3.26833	3813
3.26900	3813
3.26967	3813
3.27033	3813
3.27100	3813
3.27167	3812
3.27233	3812
3.27300	3812
3.27367	3812
3.27433	3811
3.27500	3811
3.27567	3811
3.27633	3810
3.27700	3810
3.27767	3810
3.27833	3809
3.27900	3809
3.27967	3809
3.28033	3808
3.28100	3808
3.28167	3808
3.28233	3807
3.28300	3807
3.28367	3807
3.28433	3806
3.28500	3806
3.28567	3806
3.28633	3805
3.28700	3805
3.28767	3805
3.28833	3805
3.28900	3804
3.28967	3804
3.29033	3804
3.29100	3804
3.29167	3803
3.29233	3803
3.29300	3803
3.29367	3802
3.29433	3802
3.29500	3802
3.29567	3801
3.29633	3801
3.29700	3800
3.29767	3800
3.29833	3800
3.29900	3799
3.29967	3799
3.30033	3799
3.30100	3798
3.30167	3798
3.30233	3798
3.30300	3797
3.30367	3797
3.30433	3797
3.30500	3796
3.30567	3796
3.30633	3795
3.30700	3795
3.30767	3795
3.30833	3794
3.30900	3794
3.30967	3793
3.31033	3793
3.31100	3792
3.31167	3792
3.31233	3791
3.31300	3791
3.31367	3791
3.31433	3790
3.31500	3790
3.31567	3789
3.31633	3789
3.31700	3788
3.31767	3787
3.31833	3787
3.31900	3786
3.31967	3786
3.32033	3785
3.32100	3784
3.32167	3784
3.32233	3783
3.32300	3782
3.32367	3782
3.32433	3781
3.32500	3781
3.32567	3780
3.32633	3779
3.32700	3779
3.32767	3778
3.32833	3777
3.32900	3777
3.32967	3776
3.33033	3776
3.33100	3775
3.33167	3774
3.33233	3774
3.33300	3773
3.33367	3773
3.33433	3772
3.33500	3772
3.33567	3771
3.33633	3771
3.33700	3770
3.33767	3770
3.33833	3769
3.33900	3769
3.33967	3768
3.34033	3768
3.34100	3767
3.34167	3766
3.34233	3766
3.34300	3765
3.34367	3765
3.34433	3764
3.34500	3764
3.34567	3764
3.34633	3763
3.34700	3763
3.34767	3762
3.34833	3762
3.34900	3762
3.34967	3761
3.35033	3761
3.35100	3761
3.35167	3760
3.35233	3760
3.35300	3760
3.35367	3760
3.35433	3759
3.35500	3759
3.35567	3759
3.35633	3759
3.35700	3759
3.35767	3759
3.35833	3759
3.35900	3759
3.35967	3759
3.36033	3759
3.36100	3759
3.36167	3759
3.36233	3759
3.36300	3760
3.36367	3760
3.36433	3760
3.36500	3760
3.36567	3761
3.36633	3761
3.36700	3761
3.36767	3762
3.36833	3762
3.36900	3763
3.36967	3763
3.37033	3764
3.37100	3764
3.37167	3765
3.37233	3766
3.37300	3766
3.37367	3767
3.37433	3768
3.37500	3769
3.37567	3770
3.37633	3771
3.37700	3772
3.37767	3773
3.37833	3774
3.37900	3775
3.37967	3776
3.38033	3777
3.38100	3779
3.38167	3780
3.38233	3781
3.38300	3783
3.38367	3784
3.38433	3785
3.38500	3787
3.38567	3788
3.38633	3790
3.38700	3792
3.38767	3793
3.38833	3795
3.38900	3797
3.38967	3798
3.39033	3800
3.39100	3802
3.39167	3804
3.39233	3805
3.39300	3807
3.39367	3809
3.39433	3811
3.39500	3813
3.39567	3815
3.39633	3816
3.39700	3818
3.39767	3820
3.39833	3822
3.39900	3824
3.39967	3826
3.40033	3828
3.40100	3830
3.40167	3832
3.40233	3834
3.40300	3836
3.40367	3839
3.40433	3841
3.40500	3843
3.40567	3845
3.40633	3847
3.40700	3849
3.40767	3851
3.40833	3853
3.40900	3855
3.40967	3857
3.41033	3859
3.41100	3861
3.41167	3863
3.41233	3865
3.41300	3867
3.41367	3869
3.41433	3871
3.41500	3873
3.41567	3875
3.41633	3877
3.41700	3879
3.41767	3881
3.41833	3883
3.41900	3884
3.41967	3886
3.42033	3888
3.42100	3890
3.42167	3892
3.42233	3893
3.42300	3895
3.42367	3897
3.42433	3898
3.42500	3900
3.42567	3901
3.42633	3903
3.42700	3904
3.42767	3906
3.42833	3907
3.42900	3909
3.42967	3910
3.43033	3911
3.43100	3913
3.43167	3914
3.43233	3915
3.43300	3916
3.43367	3918
3.43433	3919
3.43500	3920
3.43567	3921
3.43633	3922
3.43700	3923
3.43767	3925
3.43833	3926
3.43900	3927
3.43967	3928
3.44033	3929
3.44100	3930
3.44167	3932
3.44233	3933
3.44300	3934
3.44367	3935
3.44433	3936
3.44500	3938
3.44567	3939
3.44633	3940
3.44700	3941
3.44767	3943
3.44833	3944
3.44900	3945
3.44967	3947
3.45033	3948
3.45100	3950
3.45167	3951
3.45233	3953
3.45300	3954
3.45367	3956
3.45433	3957
3.45500	3959
3.45567	3961
3.45633	3963
3.45700	3964
3.45767	3966
3.45833	3968
3.45900	3970
3.45967	3972
3.46033	3974
3.46100	3976
3.46167	3979
3.46233	3981
3.46300	3983
3.46367	3986
3.46433	3988
3.46500	3990
3.46567	3993
3.46633	3996
3.46700	3998
3.46767	4001
3.46833	4004
3.46900	4006
3.46967	4009
3.47033	4012
3.47100	4015
3.47167	4018
3.47233	4021
3.47300	4024
3.47367	4027
3.47433	4030
3.47500	4033
3.47567	4036
3.47633	4040
3.47700	4043
3.47767	4046
3.47833	4050
3.47900	4054
3.47967	4057
3.48033	4061
3.48100	4065
3.48167	4069
3.48233	4073
3.48300	4078
3.48367	4082
3.48433	4087
3.48500	4092
3.48567	4096
3.48633	4101
3.48700	4107
3.48767	4112
3.48833	4117
3.48900	4123
3.48967	4129
3.49033	4135
3.49100	4141
3.49167	4148
3.49233	4155
3.49300	4162
3.49367	4170
3.49433	4178
3.49500	4186
3.49567	4194
3.49633	4203
3.49700	4213
3.49767	4223
3.49833	4233
3.49900	4245
3.49967	4256
3.50033	4269
3.50100	4281
3.50167	4295
3.50233	4310
3.50300	4325
3.50367	4341
3.50433	4358
3.50500	4375
3.50567	4394
3.50633	4414
3.50700	4434
3.50767	4456
3.50833	4479
3.50900	4503
3.50967	4529
3.51033	4555
3.51100	4583
3.51167	4613
3.51233	4644
3.51300	4677
3.51367	4711
3.51433	4747
3.51500	4785
3.51567	4824
3.51633	4866
3.51700	4909
3.51767	4954
3.51833	5001
3.51900	5051
3.51967	5102
3.52033	5156
3.52100	5213
3.52167	5271
3.52233	5332
3.52300	5396
3.52367	5462
3.52433	5531
3.52500	5602
3.52567	5676
3.52633	5754
3.52700	5833
3.52767	5916
3.52833	6002
3.52900	6091
3.52967	6182
3.53033	6277
3.53100	6375
3.53167	6476
3.53233	6580
3.53300	6687
3.53367	6797
3.53433	6910
3.53500	7027
3.53567	7146
3.53633	7269
3.53700	7394
3.53767	7523
3.53833	7655
3.53900	7790
3.53967	7928
3.54033	8069
3.54100	8213
3.54167	8359
3.54233	8509
3.54300	8661
3.54367	8817
3.54433	8974
3.54500	9134
3.54567	9297
3.54633	9461
3.54700	9628
3.54767	9797
3.54833	9968
3.54900	10141
3.54967	10316
3.55033	10492
3.55100	10670
3.55167	10849
3.55233	11030
3.55300	11212
3.55367	11394
3.55433	11578
3.55500	11762
3.55567	11946
3.55633	12131
3.55700	12316
3.55767	12501
3.55833	12686
3.55900	12870
3.55967	13055
3.56033	13238
3.56100	13422
3.56167	13604
3.56233	13786
3.56300	13966
3.56367	14146
3.56433	14323
3.56500	14499
3.56567	14674
3.56633	14846
3.56700	15016
3.56767	15183
3.56833	15348
3.56900	15510
3.56967	15670
3.57033	15827
3.57100	15982
3.57167	16133
3.57233	16282
3.57300	16427
3.57367	16570
3.57433	16710
3.57500	16846
3.57567	16980
3.57633	17111
3.57700	17238
3.57767	17362
3.57833	17484
3.57900	17601
3.57967	17716
3.58033	17827
3.58100	17935
3.58167	18040
3.58233	18141
3.58300	18239
3.58367	18333
3.58433	18424
3.58500	18512
3.58567	18596
3.58633	18676
3.58700	18753
3.58767	18827
3.58833	18898
3.58900	18965
3.58967	19030
3.59033	19091
3.59100	19149
3.59167	19204
3.59233	19256
3.59300	19305
3.59367	19351
3.59433	19394
3.59500	19434
3.59567	19471
3.59633	19505
3.59700	19537
3.59767	19565
3.59833	19591
3.59900	19615
3.59967	19635
3.60033	19654
3.60100	19669
3.60167	19682
3.60233	19693
3.60300	19701
3.60367	19707
3.60433	19711
3.60500	19712
3.60567	19711
3.60633	19707
3.60700	19702
3.60767	19694
3.60833	19684
3.60900	19671
3.60967	19657
3.61033	19640
3.61100	19621
3.61167	19600
3.61233	19577
3.61300	19552
3.61367	19525
3.61433	19495
3.61500	19464
3.61567	19430
3.61633	19395
3.61700	19357
3.61767	19317
3.61833	19274
3.61900	19230
3.61967	19183
3.62033	19134
3.62100	19083
3.62167	19029
3.62233	18973
3.62300	18915
3.62367	18855
3.62433	18793
3.62500	18728
3.62567	18661
3.62633	18592
3.62700	18521
3.62767	18448
3.62833	18373
3.62900	18295
3.62967	18216
3.63033	18134
3.63100	18050
3.63167	17965
3.63233	17877
3.63300	17787
3.63367	17696
3.63433	17602
3.63500	17507
3.63567	17409
3.63633	17310
3.63700	17210
3.63767	17107
3.63833	17003
3.63900	16898
3.63967	16791
3.64033	16683
3.64100	16573
3.64167	16462
3.64233	16350
3.64300	16236
3.64367	16122
3.64433	16006
3.64500	15889
3.64567	15772
3.64633	15653
3.64700	15534
3.64767	15414
3.64833	15293
3.64900	15171
3.64967	15049
3.65033	14927
3.65100	14804
3.65167	14681
3.65233	14557
3.65300	14433
3.65367	14309
3.65433	14185
3.65500	14061
3.65567	13937
3.65633	13812
3.65700	13688
3.65767	13564
3.65833	13440
3.65900	13316
3.65967	13193
3.66033	13070
3.66100	12948
3.66167	12825
3.66233	12704
3.66300	12583
3.66367	12463
3.66433	12343
3.66500	12224
3.66567	12106
3.66633	11988
3.66700	11872
3.66767	11756
3.66833	11641
3.66900	11527
3.66967	11415
3.67033	11303
3.67100	11192
3.67167	11082
3.67233	10973
3.67300	10865
3.67367	10759
3.67433	10653
3.67500	10549
3.67567	10446
3.67633	10344
3.67700	10243
3.67767	10143
3.67833	10044
3.67900	9947
3.67967	9851
3.68033	9756
3.68100	9663
3.68167	9570
3.68233	9479
3.68300	9389
3.68367	9300
3.68433	9213
3.68500	9127
3.68567	9042
3.68633	8958
3.68700	8876
3.68767	8794
3.68833	8714
3.68900	8636
3.68967	8558
3.69033	8482
3.69100	8407
3.69167	8333
3.69233	8260
3.69300	8189
3.69367	8118
3.69433	8049
3.69500	7981
3.69567	7914
3.69633	7849
3.69700	7784
3.69767	7720
3.69833	7658
3.69900	7597
3.69967	7536
3.70033	7477
3.70100	7419
3.70167	7362
3.70233	7306
3.70300	7250
3.70367	7196
3.70433	7143
3.70500	7090
3.70567	7039
3.70633	6989
3.70700	6939
3.70767	6890
3.70833	6842
3.70900	6796
3.70967	6749
3.71033	6704
3.71100	6660
3.71167	6616
3.71233	6573
3.71300	6531
3.71367	6490
3.71433	6450
3.71500	6410
3.71567	6371
3.71633	6333
3.71700	6296
3.71767	6259
3.71833	6223
3.71900	6188
3.71967	6153
3.72033	6119
3.72100	6086
3.72167	6053
3.72233	6021
3.72300	5989
3.72367	5958
3.72433	5928
3.72500	5898
3.72567	5869
3.72633	5841
3.72700	5813
3.72767	5785
3.72833	5758
3.72900	5732
3.72967	5706
3.73033	5681
3.73100	5656
3.73167	5632
3.73233	5608
3.73300	5584
3.73367	5562
3.73433	5539
3.73500	5517
3.73567	5495
3.73633	5474
3.73700	5453
3.73767	5433
3.73833	5413
3.73900	5393
3.73967	5374
3.74033	5355
3.74100	5337
3.74167	5319
3.74233	5301
3.74300	5283
3.74367	5266
3.74433	5249
3.74500	5233
3.74567	5217
3.74633	5201
3.74700	5185
3.74767	5170
3.74833	5155
3.74900	5140
3.74967	5126
3.75033	5112
3.75100	5098
3.75167	5084
3.75233	5071
3.75300	5058
3.75367	5045
3.75433	5032
3.75500	5020
3.75567	5008
3.75633	4996
3.75700	4984
3.75767	4973
3.75833	4961
3.75900	4950
3.75967	4939
3.76033	4929
3.76100	4918
3.76167	4908
3.76233	4898
3.76300	4888
3.76367	4878
3.76433	4868
3.76500	4859
3.76567	4849
3.76633	4840
3.76700	4831
3.76767	4822
3.76833	4813
3.76900	4804
3.76967	4796
3.77033	4787
3.77100	4779
3.77167	4771
3.77233	4763
3.77300	4755
3.77367	4747
3.77433	4739
3.77500	4732
3.77567	4724
3.77633	4717
3.77700	4710
3.77767	4703
3.77833	4696
3.77900	4689
3.77967	4682
3.78033	4675
3.78100	4668
3.78167	4662
3.78233	4655
3.78300	4649
3.78367	4643
3.78433	4636
3.78500	4630
3.78567	4624
3.78633	4618
3.78700	4612
3.78767	4607
3.78833	4601
3.78900	4595
3.78967	4590
3.79033	4584
3.79100	4579
3.79167	4573
3.79233	4568
3.79300	4563
3.79367	4558
3.79433	4552
3.79500	4547
3.79567	4542
3.79633	4537
3.79700	4532
3.79767	4527
3.79833	4523
3.79900	4518
3.79967	4513
3.80033	4508
3.80100	4504
3.80167	4499
3.80233	4495
3.80300	4490
3.80367	4486
3.80433	4482
3.80500	4478
3.80567	4474
3.80633	4470
3.80700	4466
3.80767	4462
3.80833	4458
3.80900	4454
3.80967	4450
3.81033	4447
3.81100	4443
3.81167	4439
3.81233	4436
3.81300	4432
3.81367	4428
3.81433	4425
3.81500	4421
3.81567	4418
3.81633	4415
3.81700	4411
3.81767	4408
3.81833	4405
3.81900	4401
3.81967	4398
3.82033	4395
3.82100	4392
3.82167	4389
3.82233	4385
3.82300	4382
3.82367	4379
3.82433	4376
3.82500	4373
3.82567	4370
3.82633	4367
3.82700	4364
3.82767	4360
3.82833	4357
3.82900	4354
3.82967	4351
3.83033	4348
3.83100	4345
3.83167	4342
3.83233	4338
3.83300	4335
3.83367	4332
3.83433	4329
3.83500	4326
3.83567	4322
3.83633	4319
3.83700	4316
3.83767	4313
3.83833	4309
3.83900	4306
3.83967	4303
3.84033	4300
3.84100	4296
3.84167	4293
3.84233	4290
3.84300	4287
3.84367	4283
3.84433	4280
3.84500	4277
3.84567	4274
3.84633	4270
3.84700	4267
3.84767	4264
3.84833	4261
3.84900	4257
3.84967	4254
3.85033	4251
3.85100	4248
3.85167	4245
3.85233	4241
3.85300	4238
3.85367	4235
3.85433	4232
3.85500	4229
3.85567	4226
3.85633	4223
3.85700	4220
3.85767	4217
3.85833	4215
3.85900	4212
3.85967	4209
3.86033	4206
3.86100	4203
3.86167	4201
3.86233	4198
3.86300	4195
3.86367	4193
3.86433	4190
3.86500	4187
3.86567	4185
3.86633	4182
3.86700	4180
3.86767	4177
3.86833	4175
3.86900	4173
3.86967	4170
3.87033	4168
3.87100	4166
3.87167	4163
3.87233	4161
3.87300	4159
3.87367	4156
3.87433	4154
3.87500	4152
3.87567	4150
3.87633	4148
3.87700	4146
3.87767	4144
3.87833	4142
3.87900	4140
3.87967	4138
3.88033	4136
3.88100	4134
3.88167	4132
3.88233	4130
3.88300	4128
3.88367	4126
3.88433	4124
3.88500	4122
3.88567	4121
3.88633	4119
3.88700	4117
3.88767	4115
3.88833	4114
3.88900	4112
3.88967	4110
3.89033	4109
3.89100	4107
3.89167	4105
3.89233	4103
3.89300	4102
3.89367	4100
3.89433	4098
3.89500	4096
3.89567	4094
3.89633	4093
3.89700	4091
3.89767	4089
3.89833	4087
3.89900	4085
3.89967	4083
3.90033	4082
3.90100	4080
3.90167	4078
3.90233	4076
3.90300	4074
3.90367	4072
3.90433	4071
3.90500	4069
3.90567	4067
3.90633	4065
3.90700	4063
3.90767	4062
3.90833	4060
3.90900	4058
3.90967	4056
3.91033	4055
3.91100	4053
3.91167	4051
3.91233	4049
3.91300	4048
3.91367	4046
3.91433	4044
3.91500	4043
3.91567	4041
3.91633	4040
3.91700	4038
3.91767	4036
3.91833	4035
3.91900	4033
3.91967	4032
3.92033	4030
3.92100	4029
3.92167	4027
3.92233	4026
3.92300	4025
3.92367	4023
3.92433	4022
3.92500	4020
3.92567	4019
3.92633	4017
3.92700	4016
3.92767	4014
3.92833	4013
3.92900	4012
3.92967	4010
3.93033	4009
3.93100	4007
3.93167	4006
3.93233	4005
3.93300	4003
3.93367	4002
3.93433	4001
3.93500	3999
3.93567	3998
3.93633	3996
3.93700	3995
3.93767	3994
3.93833	3992
3.93900	3991
3.93967	3990
3.94033	3988
3.94100	3987
3.94167	3985
3.94233	3984
3.94300	3983
3.94367	3981
3.94433	3980
3.94500	3979
3.94567	3978
3.94633	3976
3.94700	3975
3.94767	3974
3.94833	3973
3.94900	3972
3.94967	3970
3.95033	3969
3.95100	3968
3.95167	3967
3.95233	3966
3.95300	3965
3.95367	3963
3.95433	3962
3.95500	3961
3.95567	3960
3.95633	3959
3.95700	3958
3.95767	3957
3.95833	3956
3.95900	3955
3.95967	3954
3.96033	3953
3.96100	3952
3.96167	3951
3.96233	3950
3.96300	3949
3.96367	3948
3.96433	3947
3.96500	3946
3.96567	3945
3.96633	3944
3.96700	3944
3.96767	3943
3.96833	3942
3.96900	3942
3.96967	3941
3.97033	3940
3.97100	3940
3.97167	3939
3.97233	3939
3.97300	3938
3.97367	3938
3.97433	3937
3.97500	3937
3.97567	3936
3.97633	3936
3.97700	3935
3.97767	3935
3.97833	3935
3.97900	3934
3.97967	3934
3.98033	3934
3.98100	3934
3.98167	3933
3.98233	3933
3.98300	3933
3.98367	3933
3.98433	3933
3.98500	3933
3.98567	3933
3.98633	3932
3.98700	3932
3.98767	3932
3.98833	3932
3.98900	3932
3.98967	3932
3.99033	3932
3.99100	3932
3.99167	3932
3.99233	3932
3.99300	3933
3.99367	3933
3.99433	3933
3.99500	3933
3.99567	3933
3.99633	3934
3.99700	3934
3.99767	3934
3.99833	3935
3.99900	3935
3.99967	3936
4.00033	3936
4.00100	3937
4.00167	3937
4.00233	3938
4.00300	3939
4.00367	3940
4.00433	3940
4.00500	3941
4.00567	3942
4.00633	3943
4.00700	3944
4.00767	3945
4.00833	3946
4.00900	3947
4.00967	3948
4.01033	3950
4.01100	3951
4.01167	3952
4.01233	3954
4.01300	3955
4.01367	3957
4.01433	3959
4.01500	3960
4.01567	3962
4.01633	3964
4.01700	3966
4.01767	3968
4.01833	3970
4.01900	3972
4.01967	3974
4.02033	3976
4.02100	3979
4.02167	3981
4.02233	3983
4.02300	3986
4.02367	3989
4.02433	3991
4.02500	3994
4.02567	3997
4.02633	4000
4.02700	4003
4.02767	4006
4.02833	4009
4.02900	4012
4.02967	4016
4.03033	4019
4.03100	4023
4.03167	4026
4.03233	4030
4.03300	4034
4.03367	4038
4.03433	4042
4.03500	4046
4.03567	4050
4.03633	4054
4.03700	4058
4.03767	4063
4.03833	4067
4.03900	4071
4.03967	4076
4.04033	4081
4.04100	4085
4.04167	4090
4.04233	4095
4.04300	4101
4.04367	4106
4.04433	4111
4.04500	4116
4.04567	4122
4.04633	4128
4.04700	4133
4.04767	4139
4.04833	4145
4.04900	4151
4.04967	4157
4.05033	4163
4.05100	4170
4.05167	4176
4.05233	4183
4.05300	4190
4.05367	4196
4.05433	4204
4.05500	4211
4.05567	4218
4.05633	4225
4.05700	4233
4.05767	4241
4.05833	4249
4.05900	4257
4.05967	4265
4.06033	4273
4.06100	4282
4.06167	4291
4.06233	4300
4.06300	4309
4.06367	4319
4.06433	4328
4.06500	4338
4.06567	4348
4.06633	4358
4.06700	4369
4.06767	4380
4.06833	4390
4.06900	4402
4.06967	4413
4.07033	4425
4.07100	4437
4.07167	4449
4.07233	4461
4.07300	4474
4.07367	4486
4.07433	4499
4.07500	4513
4.07567	4526
4.07633	4540
4.07700	4554
4.07767	4568
4.07833	4583
4.07900	4598
4.07967	4613
4.08033	4628
4.08100	4644
4.08167	4660
4.08233	4676
4.08300	4693
4.08367	4709
4.08433	4726
4.08500	4744
4.08567	4761
4.08633	4779
4.08700	4797
4.08767	4816
4.08833	4835
4.08900	4854
4.08967	4873
4.09033	4893
4.09100	4912
4.09167	4933
4.09233	4953
4.09300	4974
4.09367	4995
4.09433	5016
4.09500	5037
4.09567	5059
4.09633	5081
4.09700	5103
4.09767	5125
4.09833	5148
4.09900	5171
4.09967	5193
4.10033	5216
4.10100	5240
4.10167	5263
4.10233	5286
4.10300	5310
4.10367	5333
4.10433	5357
4.10500	5380
4.10567	5404
4.10633	5427
4.10700	5451
4.10767	5475
4.10833	5498
4.10900	5522
4.10967	5545
4.11033	5568
4.11100	5591
4.11167	5614
4.11233	5637
4.11300	5660
4.11367	5683
4.11433	5705
4.11500	5728
4.11567	5750
4.11633	5772
4.11700	5793
4.11767	5815
4.11833	5836
4.11900	5856
4.11967	5877
4.12033	5897
4.12100	5917
4.12167	5937
4.12233	5956
4.12300	5975
4.12367	5994
4.12433	6012
4.12500	6029
4.12567	6047
4.12633	6064
4.12700	6080
4.12767	6096
4.12833	6112
4.12900	6126
4.12967	6141
4.13033	6155
4.13100	6168
4.13167	6181
4.13233	6193
4.13300	6205
4.13367	6216
4.13433	6226
4.13500	6236
4.13567	6245
4.13633	6254
4.13700	6262
4.13767	6270
4.13833	6277
4.13900	6284
4.13967	6290
4.14033	6295
4.14100	6300
4.14167	6304
4.14233	6308
4.14300	6311
4.14367	6313
4.14433	6315
4.14500	6316
4.14567	6317
4.14633	6317
4.14700	6317
4.14767	6316
4.14833	6314
4.14900	6312
4.14967	6310
4.15033	6306
4.15100	6303
4.15167	6299
4.15233	6294
4.15300	6289
4.15367	6283
4.15433	6277
4.15500	6271
4.15567	6264
4.15633	6256
4.15700	6248
4.15767	6240
4.15833	6231
4.15900	6222
4.15967	6213
4.16033	6203
4.16100	6193
4.16167	6182
4.16233	6171
4.16300	6160
4.16367	6148
4.16433	6137
4.16500	6124
4.16567	6112
4.16633	6099
4.16700	6086
4.16767	6073
4.16833	6060
4.16900	6046
4.16967	6032
4.17033	6018
4.17100	6004
4.17167	5990
4.17233	5975
4.17300	5960
4.17367	5946
4.17433	5931
4.17500	5916
4.17567	5901
4.17633	5886
4.17700	5870
4.17767	5855
4.17833	5840
4.17900	5825
4.17967	5810
4.18033	5794
4.18100	5779
4.18167	5764
4.18233	5749
4.18300	5734
4.18367	5719
4.18433	5704
4.18500	5689
4.18567	5674
4.18633	5659
4.18700	5644
4.18767	5629
4.18833	5615
4.18900	5600
4.18967	5586
4.19033	5572
4.19100	5558
4.19167	5544
4.19233	5531
4.19300	5517
4.19367	5504
4.19433	5491
4.19500	5478
4.19567	5465
4.19633	5453
4.19700	5441
4.19767	5429
4.19833	5417
4.19900	5406
4.19967	5395
4.20033	5384
4.20100	5373
4.20167	5363
4.20233	5353
4.20300	5344
4.20367	5335
4.20433	5326
4.20500	5318
4.20567	5310
4.20633	5302
4.20700	5295
4.20767	5289
4.20833	5282
4.20900	5276
4.20967	5271
4.21033	5266
4.21100	5261
4.21167	5257
4.21233	5254
4.21300	5251
4.21367	5248
4.21433	5246
4.21500	5245
4.21567	5244
4.21633	5243
4.21700	5243
4.21767	5244
4.21833	5246
4.21900	5248
4.21967	5250
4.22033	5254
4.22100	5258
4.22167	5262
4.22233	5267
4.22300	5273
4.22367	5280
4.22433	5287
4.22500	5295
4.22567	5304
4.22633	5314
4.22700	5324
4.22767	5336
4.22833	5348
4.22900	5360
4.22967	5374
4.23033	5389
4.23100	5404
4.23167	5420
4.23233	5438
4.23300	5456
4.23367	5475
4.23433	5495
4.23500	5516
4.23567	5537
4.23633	5560
4.23700	5584
4.23767	5609
4.23833	5635
4.23900	5661
4.23967	5689
4.24033	5718
4.24100	5748
4.24167	5779
4.24233	5811
4.24300	5844
4.24367	5878
4.24433	5913
4.24500	5949
4.24567	5987
4.24633	6025
4.24700	6065
4.24767	6106
4.24833	6147
4.24900	6190
4.24967	6234
4.25033	6280
4.25100	6326
4.25167	6373
4.25233	6422
4.25300	6471
4.25367	6522
4.25433	6574
4.25500	6626
4.25567	6680
4.25633	6735
4.25700	6792
4.25767	6849
4.25833	6907
4.25900	6967
4.25967	7027
4.26033	7089
4.26100	7152
4.26167	7216
4.26233	7281
4.26300	7347
4.26367	7414
4.26433	7482
4.26500	7551
4.26567	7621
4.26633	7692
4.26700	7764
4.26767	7837
4.26833	7911
4.26900	7985
4.26967	8061
4.27033	8137
4.27100	8215
4.27167	8293
4.27233	8372
4.27300	8451
4.27367	8532
4.27433	8613
4.27500	8694
4.27567	8777
4.27633	8860
4.27700	8943
4.27767	9028
4.27833	9112
4.27900	9197
4.27967	9283
4.28033	9369
4.28100	9456
4.28167	9543
4.28233	9631
4.28300	9719
4.28367	9807
4.28433	9896
4.28500	9985
4.28567	10075
4.28633	10165
4.28700	10256
4.28767	10347
4.28833	10438
4.28900	10530
4.28967	10622
4.29033	10714
4.29100	10806
4.29167	10899
4.29233	10991
4.29300	11084
4.29367	11177
4.29433	11270
4.29500	11363
4.29567	11455
4.29633	11548
4.29700	11640
4.29767	11733
4.29833	11825
4.29900	11918
4.29967	12010
4.30033	12103
4.30100	12195
4.30167	12287
4.30233	12379
4.30300	12471
4.30367	12563
4.30433	12654
4.30500	12745
4.30567	12836
4.30633	12926
4.30700	13016
4.30767	13105
4.30833	13194
4.30900	13282
4.30967	13370
4.31033	13458
4.31100	13544
4.31167	13631
4.31233	13716
4.31300	13801
4.31367	13886
4.31433	13969
4.31500	14052
4.31567	14134
4.31633	14215
4.31700	14295
4.31767	14374
4.31833	14452
4.31900	14528
4.31967	14604
4.32033	14678
4.32100	14751
4.32167	14823
4.32233	14893
4.32300	14962
4.32367	15030
4.32433	15096
4.32500	15161
4.32567	15224
4.32633	15286
4.32700	15346
4.32767	15404
4.32833	15461
4.32900	15516
4.32967	15570
4.33033	15622
4.33100	15672
4.33167	15721
4.33233	15768
4.33300	15813
4.33367	15856
4.33433	15898
4.33500	15937
4.33567	15975
4.33633	16011
4.33700	16044
4.33767	16076
4.33833	16106
4.33900	16134
4.33967	16160
4.34033	16183
4.34100	16205
4.34167	16225
4.34233	16243
4.34300	16259
4.34367	16272
4.34433	16284
4.34500	16294
4.34567	16302
4.34633	16308
4.34700	16312
4.34767	16315
4.34833	16315
4.34900	16313
4.34967	16310
4.35033	16304
4.35100	16297
4.35167	16288
4.35233	16276
4.35300	16263
4.35367	16249
4.35433	16232
4.35500	16213
4.35567	16193
4.35633	16171
4.35700	16147
4.35767	16122
4.35833	16095
4.35900	16066
4.35967	16035
4.36033	16004
4.36100	15970
4.36167	15935
4.36233	15899
4.36300	15862
4.36367	15823
4.36433	15782
4.36500	15741
4.36567	15698
4.36633	15655
4.36700	15610
4.36767	15564
4.36833	15517
4.36900	15469
4.36967	15420
4.37033	15371
4.37100	15320
4.37167	15269
4.37233	15217
4.37300	15164
4.37367	15111
4.37433	15058
4.37500	15003
4.37567	14949
4.37633	14894
4.37700	14839
4.37767	14783
4.37833	14727
4.37900	14672
4.37967	14616
4.38033	14560
4.38100	14504
4.38167	14449
4.38233	14393
4.38300	14338
4.38367	14283
4.38433	14228
4.38500	14173
4.38567	14119
4.38633	14065
4.38700	14012
4.38767	13959
4.38833	13906
4.38900	13854
4.38967	13802
4.39033	13751
4.39100	13700
4.39167	13650
4.39233	13600
4.39300	13551
4.39367	13503
4.39433	13456
4.39500	13409
4.39567	13363
4.39633	13317
4.39700	13273
4.39767	13229
4.39833	13186
4.39900	13144
4.39967	13103
4.40033	13063
4.40100	13024
4.40167	12985
4.40233	12948
4.40300	12911
4.40367	12875
4.40433	12841
4.40500	12807
4.40567	12774
4.40633	12742
4.40700	12712
4.40767	12682
4.40833	12653
4.40900	12625
4.40967	12598
4.41033	12571
4.41100	12546
4.41167	12522
4.41233	12498
4.41300	12476
4.41367	12454
4.41433	12434
4.41500	12414
4.41567	12395
4.41633	12377
4.41700	12360
4.41767	12344
4.41833	12329
4.41900	12315
4.41967	12302
4.42033	12290
4.42100	12279
4.42167	12269
4.42233	12259
4.42300	12251
4.42367	12243
4.42433	12236
4.42500	12230
4.42567	12224
4.42633	12220
4.42700	12216
4.42767	12212
4.42833	12209
4.42900	12207
4.42967	12205
4.43033	12204
4.43100	12203
4.43167	12203
4.43233	12203
4.43300	12204
4.43367	12205
4.43433	12207
4.43500	12208
4.43567	12211
4.43633	12213
4.43700	12216
4.43767	12220
4.43833	12224
4.43900	12228
4.43967	12232
4.44033	12237
4.44100	12241
4.44167	12247
4.44233	12252
4.44300	12258
4.44367	12264
4.44433	12270
4.44500	12276
4.44567	12282
4.44633	12289
4.44700	12295
4.44767	12302
4.44833	12309
4.44900	12316
4.44967	12323
4.45033	12330
4.45100	12337
4.45167	12345
4.45233	12353
4.45300	12360
4.45367	12368
4.45433	12376
4.45500	12384
4.45567	12392
4.45633	12401
4.45700	12409
4.45767	12418
4.45833	12426
4.45900	12435
4.45967	12444
4.46033	12453
4.46100	12462
4.46167	12471
4.46233	12481
4.46300	12490
4.46367	12499
4.46433	12509
4.46500	12518
4.46567	12528
4.46633	12537
4.46700	12547
4.46767	12556
4.46833	12566
4.46900	12575
4.46967	12585
4.47033	12594
4.47100	12604
4.47167	12614
4.47233	12623
4.47300	12633
4.47367	12642
4.47433	12652
4.47500	12662
4.47567	12672
4.47633	12681
4.47700	12691
4.47767	12701
4.47833	12711
4.47900	12721
4.47967	12731
4.48033	12741
4.48100	12751
4.48167	12761
4.48233	12770
4.48300	12780
4.48367	12790
4.48433	12800
4.48500	12809
4.48567	12819
4.48633	12828
4.48700	12838
4.48767	12847
4.48833	12856
4.48900	12865
4.48967	12874
4.49033	12882
4.49100	12891
4.49167	12899
4.49233	12907
4.49300	12915
4.49367	12923
4.49433	12931
4.49500	12939
4.49567	12946
4.49633	12953
4.49700	12960
4.49767	12966
4.49833	12973
4.49900	12979
4.49967	12985
4.50033	12990
4.50100	12996
4.50167	13000
4.50233	13005
4.50300	13009
4.50367	13013
4.50433	13017
4.50500	13020
4.50567	13023
4.50633	13026
4.50700	13028
4.50767	13030
4.50833	13031
4.50900	13033
4.50967	13033
4.51033	13034
4.51100	13034
4.51167	13033
4.51233	13033
4.51300	13031
4.51367	13030
4.51433	13028
4.51500	13026
4.51567	13023
4.51633	13020
4.51700	13017
4.51767	13013
4.51833	13009
4.51900	13004
4.51967	12999
4.52033	12994
4.52100	12988
4.52167	12982
4.52233	12976
4.52300	12969
4.52367	12962
4.52433	12955
4.52500	12947
4.52567	12939
4.52633	12931
4.52700	12923
4.52767	12914
4.52833	12905
4.52900	12896
4.52967	12887
4.53033	12878
4.53100	12868
4.53167	12858
4.53233	12848
4.53300	12838
4.53367	12828
4.53433	12818
4.53500	12808
4.53567	12797
4.53633	12787
4.53700	12776
4.53767	12766
4.53833	12756
4.53900	12745
4.53967	12735
4.54033	12725
4.54100	12715
4.54167	12705
4.54233	12695
4.54300	12685
4.54367	12675
4.54433	12665
4.54500	12656
4.54567	12646
4.54633	12637
4.54700	12628
4.54767	12618
4.54833	12610
4.54900	12601
4.54967	12592
4.55033	12583
4.55100	12575
4.55167	12567
4.55233	12559
4.55300	12551
4.55367	12543
4.55433	12536
4.55500	12529
4.55567	12522
4.55633	12515
4.55700	12509
4.55767	12502
4.55833	12496
4.55900	12491
4.55967	12485
4.56033	12480
4.56100	12475
4.56167	12470
4.56233	12465
4.56300	12461
4.56367	12456
4.56433	12452
4.56500	12448
4.56567	12444
4.56633	12441
4.56700	12437
4.56767	12434
4.56833	12431
4.56900	12428
4.56967	12425
4.57033	12423
4.57100	12420
4.57167	12418
4.57233	12416
4.57300	12414
4.57367	12412
4.57433	12410
4.57500	12409
4.57567	12407
4.57633	12406
4.57700	12405
4.57767	12404
4.57833	12402
4.57900	12401
4.57967	12400
4.58033	12399
4.58100	12397
4.58167	12396
4.58233	12395
4.58300	12393
4.58367	12391
4.58433	12389
4.58500	12387
4.58567	12385
4.58633	12382
4.58700	12380
4.58767	12377
4.58833	12374
4.58900	12370
4.58967	12367
4.59033	12363
4.59100	12359
4.59167	12355
4.59233	12350
4.59300	12346
4.59367	12340
4.59433	12335
4.59500	12330
4.59567	12324
4.59633	12318
4.59700	12311
4.59767	12305
4.59833	12298
4.59900	12290
4.59967	12282
4.60033	12274
4.60100	12266
4.60167	12257
4.60233	12247
4.60300	12238
4.60367	12228
4.60433	12217
4.60500	12206
4.60567	12195
4.60633	12183
4.60700	12171
4.60767	12159
4.60833	12146
4.60900	12132
4.60967	12118
4.61033	12104
4.61100	12090
4.61167	12075
4.61233	12059
4.61300	12043
4.61367	12027
4.61433	12011
4.61500	11994
4.61567	11976
4.61633	11959
4.61700	11941
4.61767	11922
4.61833	11903
4.61900	11884
4.61967	11865
4.62033	11845
4.62100	11825
4.62167	11804
4.62233	11784
4.62300	11762
4.62367	11741
4.62433	11719
4.62500	11697
4.62567	11675
4.62633	11653
4.62700	11630
4.62767	11607
4.62833	11583
4.62900	11559
4.62967	11536
4.63033	11512
4.63100	11488
4.63167	11463
4.63233	11439
4.63300	11414
4.63367	11390
4.63433	11365
4.63500	11340
4.63567	11315
4.63633	11290
4.63700	11265
4.63767	11239
4.63833	11214
4.63900	11189
4.63967	11163
4.64033	11137
4.64100	11112
4.64167	11086
4.64233	11060
4.64300	11034
4.64367	11008
4.64433	10982
4.64500	10957
4.64567	10931
4.64633	10905
4.64700	10879
4.64767	10854
4.64833	10828
4.64900	10803
4.64967	10777
4.65033	10752
4.65100	10727
4.65167	10702
4.65233	10677
4.65300	10653
4.65367	10628
4.65433	10604
4.65500	10579
4.65567	10555
4.65633	10531
4.65700	10507
4.65767	10483
4.65833	10460
4.65900	10436
4.65967	10413
4.66033	10390
4.66100	10367
4.66167	10344
4.66233	10321
4.66300	10298
4.66367	10276
4.66433	10254
4.66500	10231
4.66567	10210
4.66633	10188
4.66700	10166
4.66767	10145
4.66833	10123
4.66900	10102
4.66967	10081
4.67033	10060
4.67100	10040
4.67167	10019
4.67233	9999
4.67300	9979
4.67367	9959
4.67433	9939
4.67500	9919
4.67567	9900
4.67633	9881
4.67700	9862
4.67767	9843
4.67833	9825
4.67900	9807
4.67967	9789
4.68033	9771
4.68100	9753
4.68167	9736
4.68233	9718
4.68300	9701
4.68367	9684
4.68433	9668
4.68500	9651
4.68567	9635
4.68633	9619
4.68700	9603
4.68767	9588
4.68833	9572
4.68900	9557
4.68967	9542
4.69033	9527
4.69100	9512
4.69167	9498
4.69233	9483
4.69300	9469
4.69367	9455
4.69433	9441
4.69500	9427
4.69567	9413
4.69633	9400
4.69700	9386
4.69767	9372
4.69833	9359
4.69900	9346
4.69967	9333
4.70033	9319
4.70100	9306
4.70167	9293
4.70233	9280
4.70300	9267
4.70367	9254
4.70433	9242
4.70500	9229
4.70567	9216
4.70633	9204
4.70700	9191
4.70767	9178
4.70833	9166
4.70900	9153
4.70967	9141
4.71033	9128
4.71100	9116
4.71167	9103
4.71233	9091
4.71300	9078
4.71367	9066
4.71433	9054
4.71500	9041
4.71567	9029
4.71633	9016
4.71700	9003
4.71767	8991
4.71833	8978
4.71900	8966
4.71967	8953
4.72033	8941
4.72100	8928
4.72167	8916
4.72233	8903
4.72300	8891
4.72367	8878
4.72433	8866
4.72500	8853
4.72567	8841
4.72633	8828
4.72700	8816
4.72767	8804
4.72833	8791
4.72900	8779
4.72967	8767
4.73033	8754
4.73100	8742
4.73167	8730
4.73233	8717
4.73300	8705
4.73367	8693
4.73433	8680
4.73500	8668
4.73567	8656
4.73633	8643
4.73700	8631
4.73767	8619
4.73833	8606
4.73900	8594
4.73967	8582
4.74033	8570
4.74100	8557
4.74167	8545
4.74233	8533
4.74300	8521
4.74367	8509
4.74433	8496
4.74500	8484
4.74567	8472
4.74633	8460
4.74700	8448
4.74767	8436
4.74833	8423
4.74900	8411
4.74967	8399
4.75033	8387
4.75100	8375
4.75167	8364
4.75233	8352
4.75300	8340
4.75367	8328
4.75433	8317
4.75500	8305
4.75567	8294
4.75633	8282
4.75700	8271
4.75767	8259
4.75833	8248
4.75900	8237
4.75967	8226
4.76033	8215
4.76100	8204
4.76167	8193
4.76233	8183
4.76300	8172
4.76367	8162
4.76433	8151
4.76500	8141
4.76567	8131
4.76633	8120
4.76700	8110
4.76767	8100
4.76833	8090
4.76900	8081
4.76967	8071
4.77033	8061
4.77100	8052
4.77167	8042
4.77233	8033
4.77300	8024
4.77367	8015
4.77433	8005
4.77500	7996
4.77567	7988
4.77633	7979
4.77700	7970
4.77767	7962
4.77833	7953
4.77900	7945
4.77967	7937
4.78033	7929
4.78100	7921
4.78167	7913
4.78233	7905
4.78300	7897
4.78367	7889
4.78433	7882
4.78500	7874
4.78567	7867
4.78633	7860
4.78700	7852
4.78767	7845
4.78833	7838
4.78900	7831
4.78967	7824
4.79033	7818
4.79100	7811
4.79167	7805
4.79233	7798
4.79300	7791
4.79367	7785
4.79433	7779
4.79500	7772
4.79567	7766
4.79633	7760
4.79700	7754
4.79767	7748
4.79833	7742
4.79900	7736
4.79967	7730
4.80033	7724
4.80100	7718
4.80167	7713
4.80233	7707
4.80300	7701
4.80367	7696
4.80433	7691
4.80500	7685
4.80567	7680
4.80633	7675
4.80700	7669
4.80767	7664
4.80833	7659
4.80900	7654
4.80967	7649
4.81033	7644
4.81100	7638
4.81167	7633
4.81233	7628
4.81300	7623
4.81367	7619
4.81433	7614
4.81500	7609
4.81567	7604
4.81633	7599
4.81700	7594
4.81767	7589
4.81833	7585
4.81900	7580
4.81967	7575
4.82033	7570
4.82100	7565
4.82167	7560
4.82233	7556
4.82300	7551
4.82367	7546
4.82433	7541
4.82500	7536
4.82567	7531
4.82633	7527
4.82700	7522
4.82767	7517
4.82833	7512
4.82900	7507
4.82967	7502
4.83033	7498
4.83100	7493
4.83167	7488
4.83233	7483
4.83300	7478
4.83367	7473
4.83433	7469
4.83500	7464
4.83567	7459
4.83633	7454
4.83700	7449
4.83767	7445
4.83833	7440
4.83900	7435
4.83967	7430
4.84033	7425
4.84100	7421
4.84167	7416
4.84233	7411
4.84300	7406
4.84367	7401
4.84433	7396
4.84500	7392
4.84567	7387
4.84633	7382
4.84700	7377
4.84767	7372
4.84833	7368
4.84900	7363
4.84967	7358
4.85033	7353
4.85100	7348
4.85167	7344
4.85233	7339
4.85300	7334
4.85367	7329
4.85433	7325
4.85500	7320
4.85567	7315
4.85633	7311
4.85700	7306
4.85767	7301
4.85833	7297
4.85900	7292
4.85967	7287
4.86033	7283
4.86100	7278
4.86167	7273
4.86233	7269
4.86300	7264
4.86367	7259
4.86433	7255
4.86500	7250
4.86567	7245
4.86633	7240
4.86700	7236
4.86767	7231
4.86833	7226
4.86900	7221
4.86967	7216
4.87033	7211
4.87100	7206
4.87167	7202
4.87233	7197
4.87300	7192
4.87367	7187
4.87433	7183
4.87500	7178
4.87567	7173
4.87633	7168
4.87700	7164
4.87767	7159
4.87833	7154
4.87900	7149
4.87967	7145
4.88033	7140
4.88100	7136
4.88167	7131
4.88233	7127
4.88300	7122
4.88367	7118
4.88433	7113
4.88500	7109
4.88567	7104
4.88633	7100
4.88700	7096
4.88767	7091
4.88833	7087
4.88900	7083
4.88967	7078
4.89033	7074
4.89100	7070
4.89167	7066
4.89233	7062
4.89300	7057
4.89367	7053
4.89433	7049
4.89500	7045
4.89567	7041
4.89633	7037
4.89700	7032
4.89767	7028
4.89833	7024
4.89900	7020
4.89967	7016
4.90033	7012
4.90100	7008
4.90167	7004
4.90233	7000
4.90300	6996
4.90367	6992
4.90433	6988
4.90500	6984
4.90567	6980
4.90633	6977
4.90700	6973
4.90767	6969
4.90833	6965
4.90900	6962
4.90967	6958
4.91033	6954
4.91100	6951
4.91167	6947
4.91233	6944
4.91300	6940
4.91367	6937
4.91433	6934
4.91500	6930
4.91567	6927
4.91633	6924
4.91700	6921
4.91767	6918
4.91833	6915
4.91900	6912
4.91967	6909
4.92033	6907
4.92100	6904
4.92167	6901
4.92233	6898
4.92300	6896
4.92367	6893
4.92433	6891
4.92500	6888
4.92567	6886
4.92633	6883
4.92700	6881
4.92767	6879
4.92833	6876
4.92900	6874
4.92967	6872
4.93033	6870
4.93100	6868
4.93167	6866
4.93233	6863
4.93300	6861
4.93367	6859
4.93433	6857
4.93500	6855
4.93567	6854
4.93633	6852
4.93700	6850
4.93767	6848
4.93833	6846
4.93900	6845
4.93967	6843
4.94033	6841
4.94100	6840
4.94167	6838
4.94233	6837
4.94300	6836
4.94367	6834
4.94433	6833
4.94500	6832
4.94567	6831
4.94633	6830
4.94700	6829
4.94767	6828
4.94833	6827
4.94900	6826
4.94967	6825
4.95033	6824
4.95100	6823
4.95167	6822
4.95233	6821
4.95300	6821
4.95367	6820
4.95433	6819
4.95500	6819
4.95567	6818
4.95633	6817
4.95700	6817
4.95767	6816
4.95833	6815
4.95900	6815
4.95967	6814
4.96033	6814
4.96100	6813
4.96167	6813
4.96233	6813
4.96300	6812
4.96367	6812
4.96433	6811
4.96500	6811
4.96567	6811
4.96633	6811
4.96700	6810
4.96767	6810
4.96833	6810
4.96900	6810
4.96967	6810
4.97033	6810
4.97100	6810
4.97167	6810
4.97233	6810
4.97300	6810
4.97367	6811
4.97433	6811
4.97500	6811
4.97567	6811
4.97633	6812
4.97700	6812
4.97767	6812
4.97833	6812
4.97900	6813
4.97967	6813
4.98033	6813
4.98100	6814
4.98167	6814
4.98233	6814
4.98300	6814
4.98367	6815
4.98433	6815
4.98500	6815
4.98567	6816
4.98633	6816
4.98700	6817
4.98767	6817
4.98833	6817
4.98900	6818
4.98967	6818
4.99033	6819
4.99100	6819
4.99167	6820
4.99233	6821
4.99300	6822
4.99367	6822
4.99433	6823
4.99500	6824
4.99567	6824
4.99633	6825
4.99700	6826
4.99767	6826
4.99833	6827
4.99900	6828
4.99967	6828
5.00033	6829
5.00100	6829
5.00167	6830
5.00233	6830
5.00300	6830
5.00367	6831
5.00433	6831
5.00500	6831
5.00567	6831
5.00633	6831
5.00700	6831
5.00767	6831
5.00833	6831
5.00900	6831
5.00967	6831
5.01033	6831
5.01100	6831
5.01167	6830
5.01233	6830
5.01300	6830
5.01367	6829
5.01433	6829
5.01500	6828
5.01567	6828
5.01633	6827
5.01700	6826
5.01767	6825
5.01833	6825
5.01900	6824
5.01967	6823
5.02033	6822
5.02100	6821
5.02167	6819
5.02233	6818
5.02300	6817
5.02367	6816
5.02433	6815
5.02500	6813
5.02567	6812
5.02633	6811
5.02700	6809
5.02767	6808
5.02833	6806
5.02900	6805
5.02967	6803
5.03033	6801
5.03100	6799
5.03167	6798
5.03233	6796
5.03300	6794
5.03367	6792
5.03433	6790
5.03500	6788
5.03567	6785
5.03633	6783
5.03700	6781
5.03767	6779
5.03833	6777
5.03900	6774
5.03967	6772
5.04033	6770
5.04100	6767
5.04167	6765
5.04233	6762
5.04300	6760
5.04367	6757
5.04433	6755
5.04500	6752
5.04567	6749
5.04633	6747
5.04700	6744
5.04767	6741
5.04833	6738
5.04900	6735
5.04967	6732
5.05033	6729
5.05100	6726
5.05167	6722
5.05233	6719
5.05300	6716
5.05367	6712
5.05433	6709
5.05500	6706
5.05567	6702
5.05633	6699
5.05700	6695
5.05767	6692
5.05833	6688
5.05900	6685
5.05967	6681
5.06033	6677
5.06100	6674
5.06167	6670
5.06233	6666
5.06300	6663
5.06367	6659
5.06433	6655
5.06500	6651
5.06567	6647
5.06633	6643
5.06700	6639
5.06767	6635
5.06833	6631
5.06900	6628
5.06967	6624
5.07033	6620
5.07100	6616
5.07167	6612
5.07233	6608
5.07300	6604
5.07367	6600
5.07433	6596
5.07500	6593
5.07567	6589
5.07633	6585
5.07700	6581
5.07767	6577
5.07833	6574
5.07900	6570
5.07967	6566
5.08033	6563
5.08100	6559
5.08167	6555
5.08233	6552
5.08300	6548
5.08367	6545
5.08433	6541
5.08500	6538
5.08567	6534
5.08633	6531
5.08700	6527
5.08767	6524
5.08833	6520
5.08900	6517
5.08967	6514
5.09033	6511
5.09100	6507
5.09167	6504
5.09233	6501
5.09300	6498
5.09367	6495
5.09433	6492
5.09500	6489
5.09567	6486
5.09633	6484
5.09700	6481
5.09767	6478
5.09833	6476
5.09900	6473
5.09967	6471
5.10033	6468
5.10100	6466
5.10167	6464
5.10233	6461
5.10300	6459
5.10367	6457
5.10433	6455
5.10500	6453
5.10567	6451
5.10633	6449
5.10700	6447
5.10767	6446
5.10833	6444
5.10900	6442
5.10967	6440
5.11033	6439
5.11100	6437
5.11167	6436
5.11233	6434
5.11300	6433
5.11367	6431
5.11433	6430
5.11500	6429
5.11567	6427
5.11633	6426
5.11700	6425
5.11767	6424
5.11833	6423
5.11900	6422
5.11967	6421
5.12033	6420
5.12100	6419
5.12167	6418
5.12233	6418
5.12300	6417
5.12367	6416
5.12433	6415
5.12500	6415
5.12567	6414
5.12633	6413
5.12700	6412
5.12767	6412
5.12833	6411
5.12900	6411
5.12967	6410
5.13033	6410
5.13100	6409
5.13167	6409
5.13233	6408
5.13300	6408
5.13367	6407
5.13433	6407
5.13500	6407
5.13567	6407
5.13633	6406
5.13700	6406
5.13767	6406
5.13833	6406
5.13900	6406
5.13967	6406
5.14033	6406
5.14100	6406
5.14167	6407
5.14233	6407
5.14300	6407
5.14367	6407
5.14433	6408
5.14500	6408
5.14567	6408
5.14633	6409
5.14700	6409
5.14767	6410
5.14833	6410
5.14900	6411
5.14967	6411
5.15033	6412
5.15100	6412
5.15167	6413
5.15233	6414
5.15300	6414
5.15367	6415
5.15433	6416
5.15500	6416
5.15567	6417
5.15633	6418
5.15700	6419
5.15767	6419
5.15833	6420
5.15900	6421
5.15967	6422
5.16033	6423
5.16100	6424
5.16167	6425
5.16233	6426
5.16300	6427
5.16367	6429
5.16433	6430
5.16500	6431
5.16567	6432
5.16633	6433
5.16700	6435
5.16767	6436
5.16833	6437
5.16900	6439
5.16967	6440
5.17033	6441
5.17100	6443
5.17167	6444
5.17233	6446
5.17300	6447
5.17367	6449
5.17433	6450
5.17500	6452
5.17567	6453
5.17633	6455
5.17700	6456
5.17767	6458
5.17833	6459
5.17900	6461
5.17967	6463
5.18033	6464
5.18100	6465
5.18167	6467
5.18233	6468
5.18300	6470
5.18367	6471
5.18433	6472
5.18500	6474
5.18567	6475
5.18633	6476
5.18700	6477
5.18767	6478
5.18833	6479
5.18900	6480
5.18967	6481
5.19033	6482
5.19100	6483
5.19167	6484
5.19233	6485
5.19300	6485
5.19367	6486
5.19433	6487
5.19500	6488
5.19567	6488
5.19633	6489
5.19700	6489
5.19767	6490
5.19833	6490
5.19900	6490
5.19967	6491
5.20033	6491
5.20100	6491
5.20167	6491
5.20233	6492
5.20300	6492
5.20367	6492
5.20433	6492
5.20500	6492
5.20567	6492
5.20633	6492
5.20700	6492
5.20767	6492
5.20833	6491
5.20900	6491
5.20967	6491
5.21033	6490
5.21100	6490
5.21167	6489
5.21233	6489
5.21300	6488
5.21367	6488
5.21433	6487
5.21500	6486
5.21567	6486
5.21633	6485
5.21700	6484
5.21767	6483
5.21833	6482
5.21900	6481
5.21967	6480
5.22033	6479
5.22100	6478
5.22167	6477
5.22233	6475
5.22300	6474
5.22367	6473
5.22433	6472
5.22500	6470
5.22567	6469
5.22633	6467
5.22700	6466
5.22767	6464
5.22833	6463
5.22900	6461
5.22967	6460
5.23033	6458
5.23100	6456
5.23167	6454
5.23233	6453
5.23300	6451
5.23367	6449
5.23433	6447
5.23500	6445
5.23567	6443
5.23633	6441
5.23700	6438
5.23767	6436
5.23833	6434
5.23900	6432
5.23967	6429
5.24033	6427
5.24100	6425
5.24167	6422
5.24233	6419
5.24300	6417
5.24367	6414
5.24433	6412
5.24500	6409
5.24567	6406
5.24633	6403
5.24700	6400
5.24767	6397
5.24833	6394
5.24900	6391
5.24967	6388
5.25033	6385
5.25100	6382
5.25167	6378
5.25233	6375
5.25300	6372
5.25367	6368
5.25433	6365
5.25500	6361
5.25567	6358
5.25633	6354
5.25700	6351
5.25767	6347
5.25833	6344
5.25900	6340
5.25967	6337
5.26033	6333
5.26100	6330
5.26167	6326
5.26233	6323
5.26300	6319
5.26367	6315
5.26433	6312
5.26500	6308
5.26567	6305
5.26633	6301
5.26700	6298
5.26767	6294
5.26833	6290
5.26900	6287
5.26967	6283
5.27033	6280
5.27100	6276
5.27167	6273
5.27233	6269
5.27300	6265
5.27367	6262
5.27433	6258
5.27500	6255
5.27567	6251
5.27633	6247
5.27700	6244
5.27767	6240
5.27833	6237
5.27900	6233
5.27967	6229
5.28033	6226
5.28100	6222
5.28167	6219
5.28233	6215
5.28300	6212
5.28367	6208
5.28433	6205
5.28500	6201
5.28567	6198
5.28633	6195
5.28700	6191
5.28767	6188
5.28833	6185
5.28900	6181
5.28967	6178
5.29033	6175
5.29100	6172
5.29167	6169
5.29233	6166
5.29300	6163
5.29367	6160
5.29433	6157
5.29500	6154
5.29567	6151
5.29633	6148
5.29700	6145
5.29767	6142
5.29833	6139
5.29900	6136
5.29967	6133
5.30033	6130
5.30100	6128
5.30167	6125
5.30233	6122
5.30300	6120
5.30367	6117
5.30433	6115
5.30500	6112
5.30567	6110
5.30633	6108
5.30700	6105
5.30767	6103
5.30833	6101
5.30900	6099
5.30967	6097
5.31033	6094
5.31100	6092
5.31167	6090
5.31233	6089
5.31300	6087
5.31367	6085
5.31433	6083
5.31500	6081
5.31567	6079
5.31633	6077
5.31700	6076
5.31767	6074
5.31833	6072
5.31900	6070
5.31967	6069
5.32033	6067
5.32100	6066
5.32167	6064
5.32233	6062
5.32300	6061
5.32367	6059
5.32433	6058
5.32500	6057
5.32567	6055
5.32633	6054
5.32700	6053
5.32767	6051
5.32833	6050
5.32900	6049
5.32967	6048
5.33033	6047
5.33100	6045
5.33167	6044
5.33233	6043
5.33300	6042
5.33367	6041
5.33433	6041
5.33500	6040
5.33567	6039
5.33633	6038
5.33700	6037
5.33767	6036
5.33833	6036
5.33900	6035
5.33967	6034
5.34033	6034
5.34100	6033
5.34167	6032
5.34233	6032
5.34300	6031
5.34367	6031
5.34433	6031
5.34500	6030
5.34567	6030
5.34633	6029
5.34700	6029
5.34767	6029
5.34833	6028
5.34900	6028
5.34967	6028
5.35033	6027
5.35100	6027
5.35167	6027
5.35233	6027
5.35300	6026
5.35367	6026
5.35433	6026
5.35500	6026
5.35567	6025
5.35633	6025
5.35700	6025
5.35767	6025
5.35833	6025
5.35900	6024
5.35967	6024
5.36033	6024
5.36100	6024
5.36167	6024
5.36233	6024
5.36300	6024
5.36367	6024
5.36433	6024
5.36500	6024
5.36567	6024
5.36633	6024
5.36700	6024
5.36767	6024
5.36833	6024
5.36900	6024
5.36967	6024
5.37033	6024
5.37100	6024
5.37167	6024
5.37233	6024
5.37300	6023
5.37367	6023
5.37433	6023
5.37500	6023
5.37567	6023
5.37633	6023
5.37700	6023
5.37767	6023
5.37833	6023
5.37900	6023
5.37967	6022
5.38033	6022
5.38100	6022
5.38167	6022
5.38233	6022
5.38300	6022
5.38367	6022
5.38433	6022
5.38500	6022
5.38567	6022
5.38633	6022
5.38700	6022
5.38767	6021
5.38833	6021
5.38900	6021
5.38967	6021
5.39033	6021
5.39100	6021
5.39167	6021
5.39233	6021
5.39300	6021
5.39367	6021
5.39433	6020
5.39500	6020
5.39567	6020
5.39633	6020
5.39700	6020
5.39767	6019
5.39833	6019
5.39900	6019
5.39967	6018
5.40033	6018
5.40100	6018
5.40167	6017
5.40233	6017
5.40300	6017
5.40367	6016
5.40433	6016
5.40500	6015
5.40567	6015
5.40633	6015
5.40700	6014
5.40767	6014
5.40833	6013
5.40900	6013
5.40967	6012
5.41033	6012
5.41100	6011
5.41167	6010
5.41233	6010
5.41300	6009
5.41367	6009
5.41433	6008
5.41500	6008
5.41567	6007
5.41633	6006
5.41700	6006
5.41767	6005
5.41833	6004
5.41900	6004
5.41967	6003
5.42033	6002
5.42100	6002
5.42167	6001
5.42233	6000
5.42300	5999
5.42367	5998
5.42433	5997
5.42500	5996
5.42567	5996
5.42633	5995
5.42700	5994
5.42767	5992
5.42833	5991
5.42900	5990
5.42967	5989
5.43033	5988
5.43100	5987
5.43167	5985
5.43233	5984
5.43300	5983
5.43367	5982
5.43433	5980
5.43500	5979
5.43567	5978
5.43633	5976
5.43700	5975
5.43767	5973
5.43833	5972
5.43900	5970
5.43967	5969
5.44033	5967
5.44100	5965
5.44167	5964
5.44233	5962
5.44300	5960
5.44367	5958
5.44433	5957
5.44500	5955
5.44567	5953
5.44633	5951
5.44700	5949
5.44767	5947
5.44833	5945
5.44900	5943
5.44967	5941
5.45033	5940
5.45100	5938
5.45167	5936
5.45233	5934
5.45300	5932
5.45367	5930
5.45433	5928
5.45500	5926
5.45567	5924
5.45633	5922
5.45700	5920
5.45767	5918
5.45833	5917
5.45900	5915
5.45967	5913
5.46033	5911
5.46100	5909
5.46167	5906
5.46233	5904
5.46300	5902
5.46367	5900
5.46433	5898
5.46500	5896
5.46567	5894
5.46633	5893
5.46700	5891
5.46767	5889
5.46833	5887
5.46900	5885
5.46967	5883
5.47033	5882
5.47100	5880
5.47167	5878
5.47233	5876
5.47300	5874
5.47367	5873
5.47433	5871
5.47500	5869
5.47567	5867
5.47633	5866
5.47700	5864
5.47767	5862
5.47833	5861
5.47900	5859
5.47967	5857
5.48033	5856
5.48100	5854
5.48167	5853
5.48233	5851
5.48300	5850
5.48367	5848
5.48433	5847
5.48500	5845
5.48567	5844
5.48633	5842
5.48700	5841
5.48767	5840
5.48833	5838
5.48900	5837
5.48967	5836
5.49033	5834
5.49100	5833
5.49167	5832
5.49233	5831
5.49300	5830
5.49367	5829
5.49433	5828
5.49500	5827
5.49567	5826
5.49633	5825
5.49700	5825
5.49767	5824
5.49833	5823
5.49900	5822
5.49967	5822
5.50033	5821
5.50100	5821
5.50167	5820
5.50233	5820
5.50300	5819
5.50367	5819
5.50433	5819
5.50500	5819
5.50567	5818
5.50633	5818
5.50700	5818
5.50767	5818
5.50833	5818
5.50900	5818
5.50967	5818
5.51033	5818
5.51100	5818
5.51167	5818
5.51233	5819
5.51300	5819
5.51367	5819
5.51433	5820
5.51500	5820
5.51567	5821
5.51633	5822
5.51700	5822
5.51767	5823
5.51833	5824
5.51900	5825
5.51967	5826
5.52033	5827
5.52100	5828
5.52167	5830
5.52233	5831
5.52300	5832
5.52367	5834
5.52433	5835
5.52500	5837
5.52567	5839
5.52633	5841
5.52700	5843
5.52767	5845
5.52833	5847
5.52900	5849
5.52967	5851
5.53033	5854
5.53100	5856
5.53167	5859
5.53233	5862
5.53300	5865
5.53367	5868
5.53433	5871
5.53500	5874
5.53567	5877
5.53633	5881
5.53700	5884
5.53767	5887
5.53833	5891
5.53900	5895
5.53967	5898
5.54033	5902
5.54100	5906
5.54167	5910
5.54233	5915
5.54300	5919
5.54367	5923
5.54433	5928
5.54500	5933
5.54567	5937
5.54633	5942
5.54700	5947
5.54767	5952
5.54833	5958
5.54900	5963
5.54967	5968
5.55033	5974
5.55100	5979
5.55167	5985
5.55233	5991
5.55300	5997
5.55367	6003
5.55433	6009
5.55500	6015
5.55567	6021
5.55633	6028
5.55700	6034
5.55767	6041
5.55833	6047
5.55900	6054
5.55967	6061
5.56033	6068
5.56100	6075
5.56167	6082
5.56233	6089
5.56300	6096
5.56367	6104
5.56433	6111
5.56500	6118
5.56567	6126
5.56633	6133
5.56700	6141
5.56767	6149
5.56833	6157
5.56900	6164
5.56967	6172
5.57033	6180
5.57100	6188
5.57167	6197
5.57233	6205
5.57300	6213
5.57367	6221
5.57433	6230
5.57500	6238
5.57567	6247
5.57633	6255
5.57700	6264
5.57767	6272
5.57833	6281
5.57900	6290
5.57967	6298
5.58033	6307
5.58100	6316
5.58167	6325
5.58233	6333
5.58300	6342
5.58367	6351
5.58433	6360
5.58500	6368
5.58567	6377
5.58633	6386
5.58700	6395
5.58767	6403
5.58833	6412
5.58900	6421
5.58967	6430
5.59033	6438
5.59100	6447
5.59167	6455
5.59233	6464
5.59300	6472
5.59367	6480
5.59433	6488
5.59500	6496
5.59567	6504
5.59633	6512
5.59700	6520
5.59767	6528
5.59833	6536
5.59900	6544
5.59967	6552
5.60033	6559
5.60100	6567
5.60167	6574
5.60233	6581
5.60300	6589
5.60367	6596
5.60433	6603
5.60500	6610
5.60567	6616
5.60633	6623
5.60700	6630
5.60767	6636
5.60833	6643
5.60900	6649
5.60967	6655
5.61033	6661
5.61100	6667
5.61167	6673
5.61233	6679
5.61300	6684
5.61367	6690
5.61433	6695
5.61500	6701
5.61567	6706
5.61633	6711
5.61700	6716
5.61767	6721
5.61833	6725
5.61900	6730
5.61967	6734
5.62033	6739
5.62100	6743
5.62167	6747
5.62233	6751
5.62300	6754
5.62367	6758
5.62433	6762
5.62500	6765
5.62567	6768
5.62633	6771
5.62700	6774
5.62767	6777
5.62833	6780
5.62900	6782
5.62967	6785
5.63033	6787
5.63100	6789
5.63167	6791
5.63233	6793
5.63300	6795
5.63367	6797
5.63433	6798
5.63500	6799
5.63567	6801
5.63633	6802
5.63700	6803
5.63767	6803
5.63833	6804
5.63900	6805
5.63967	6805
5.64033	6805
5.64100	6806
5.64167	6806
5.64233	6806
5.64300	6805
5.64367	6805
5.64433	6805
5.64500	6804
5.64567	6803
5.64633	6803
5.64700	6802
5.64767	6801
5.64833	6800
5.64900	6799
5.64967	6798
5.65033	6797
5.65100	6795
5.65167	6794
5.65233	6792
5.65300	6791
5.65367	6789
5.65433	6787
5.65500	6785
5.65567	6783
5.65633	6781
5.65700	6779
5.65767	6776
5.65833	6774
5.65900	6771
5.65967	6769
5.66033	6766
5.66100	6763
5.66167	6760
5.66233	6757
5.66300	6754
5.66367	6751
5.66433	6748
5.66500	6745
5.66567	6742
5.66633	6738
5.66700	6735
5.66767	6731
5.66833	6727
5.66900	6723
5.66967	6719
5.67033	6715
5.67100	6711
5.67167	6707
5.67233	6703
5.67300	6699
5.67367	6695
5.67433	6690
5.67500	6686
5.67567	6682
5.67633	6677
5.67700	6673
5.67767	6668
5.67833	6664
5.67900	6659
5.67967	6654
5.68033	6650
5.68100	6645
5.68167	6640
5.68233	6635
5.68300	6631
5.68367	6626
5.68433	6621
5.68500	6616
5.68567	6612
5.68633	6607
5.68700	6602
5.68767	6597
5.68833	6592
5.68900	6587
5.68967	6583
5.69033	6578
5.69100	6573
5.69167	6568
5.69233	6563
5.69300	6558
5.69367	6553
5.69433	6548
5.69500	6543
5.69567	6538
5.69633	6533
5.69700	6528
5.69767	6523
5.69833	6518
5.69900	6513
5.69967	6509
5.70033	6504
5.70100	6499
5.70167	6494
5.70233	6489
5.70300	6484
5.70367	6480
5.70433	6475
5.70500	6470
5.70567	6465
5.70633	6461
5.70700	6456
5.70767	6451
5.70833	6447
5.70900	6442
5.70967	6437
5.71033	6433
5.71100	6428
5.71167	6424
5.71233	6419
5.71300	6415
5.71367	6410
5.71433	6406
5.71500	6402
5.71567	6397
5.71633	6393
5.71700	6389
5.71767	6384
5.71833	6380
5.71900	6376
5.71967	6371
5.72033	6367
5.72100	6363
5.72167	6359
5.72233	6355
5.72300	6351
5.72367	6347
5.72433	6343
5.72500	6339
5.72567	6335
5.72633	6331
5.72700	6328
5.72767	6324
5.72833	6320
5.72900	6316
5.72967	6313
5.73033	6309
5.73100	6305
5.73167	6302
5.73233	6298
5.73300	6295
5.73367	6291
5.73433	6288
5.73500	6284
5.73567	6281
5.73633	6278
5.73700	6274
5.73767	6271
5.73833	6268
5.73900	6265
5.73967	6262
5.74033	6258
5.74100	6255
5.74167	6252
5.74233	6249
5.74300	6246
5.74367	6243
5.74433	6240
5.74500	6237
5.74567	6234
5.74633	6231
5.74700	6228
5.74767	6225
5.74833	6222
5.74900	6219
5.74967	6217
5.75033	6214
5.75100	6211
5.75167	6208
5.75233	6206
5.75300	6203
5.75367	6200
5.75433	6198
5.75500	6195
5.75567	6193
5.75633	6190
5.75700	6188
5.75767	6185
5.75833	6183
5.75900	6180
5.75967	6178
5.76033	6175
5.76100	6173
5.76167	6171
5.76233	6168
5.76300	6166
5.76367	6164
5.76433	6161
5.76500	6159
5.76567	6157
5.76633	6155
5.76700	6153
5.76767	6151
5.76833	6149
5.76900	6147
5.76967	6145
5.77033	6143
5.77100	6141
5.77167	6139
5.77233	6137
5.77300	6135
5.77367	6133
5.77433	6132
5.77500	6130
5.77567	6128
5.77633	6127
5.77700	6125
5.77767	6124
5.77833	6122
5.77900	6121
5.77967	6119
5.78033	6118
5.78100	6117
5.78167	6115
5.78233	6114
5.78300	6113
5.78367	6111
5.78433	6110
5.78500	6109
5.78567	6108
5.78633	6107
5.78700	6105
5.78767	6104
5.78833	6103
5.78900	6102
5.78967	6101
5.79033	6100
5.79100	6099
5.79167	6098
5.79233	6097
5.79300	6097
5.79367	6096
5.79433	6095
5.79500	6094
5.79567	6094
5.79633	6093
5.79700	6092
5.79767	6091
5.79833	6091
5.79900	6090
5.79967	6089
5.80033	6088
5.80100	6087
5.80167	6087
5.80233	6086
5.80300	6085
5.80367	6084
5.80433	6084
5.80500	6083
5.80567	6082
5.80633	6081
5.80700	6081
5.80767	6080
5.80833	6079
5.80900	6079
5.80967	6078
5.81033	6077
5.81100	6077
5.81167	6076
5.81233	6075
5.81300	6075
5.81367	6074
5.81433	6074
5.81500	6073
5.81567	6072
5.81633	6072
5.81700	6071
5.81767	6071
5.81833	6070
5.81900	6070
5.81967	6069
5.82033	6069
5.82100	6068
5.82167	6068
5.82233	6067
5.82300	6067
5.82367	6067
5.82433	6066
5.82500	6066
5.82567	6065
5.82633	6065
5.82700	6065
5.82767	6064
5.82833	6064
5.82900	6064
5.82967	6063
5.83033	6063
5.83100	6063
5.83167	6063
5.83233	6063
5.83300	6063
5.83367	6063
5.83433	6063
5.83500	6063
5.83567	6063
5.83633	6063
5.83700	6063
5.83767	6063
5.83833	6063
5.83900	6063
5.83967	6062
5.84033	6062
5.84100	6062
5.84167	6062
5.84233	6062
5.84300	6062
5.84367	6062
5.84433	6062
5.84500	6062
5.84567	6062
5.84633	6062
5.84700	6062
5.84767	6061
5.84833	6061
5.84900	6061
5.84967	6061
5.85033	6061
5.85100	6061
5.85167	6061
5.85233	6061
5.85300	6061
5.85367	6061
5.85433	6061
5.85500	6061
5.85567	6061
5.85633	6061
5.85700	6061
5.85767	6061
5.85833	6061
5.85900	6061
5.85967	6061
5.86033	6061
5.86100	6061
5.86167	6061
5.86233	6061
5.86300	6061
5.86367	6061
5.86433	6061
5.86500	6061
5.86567	6061
5.86633	6061
5.86700	6061
5.86767	6060
5.86833	6060
5.86900	6060
5.86967	6060
5.87033	6060
5.87100	6060
5.87167	6060
5.87233	6060
5.87300	6060
5.87367	6060
5.87433	6060
5.87500	6060
5.87567	6060
5.87633	6060
5.87700	6060
5.87767	6060
5.87833	6060
5.87900	6059
5.87967	6059
5.88033	6059
5.88100	6059
5.88167	6059
5.88233	6059
5.88300	6058
5.88367	6058
5.88433	6058
5.88500	6058
5.88567	6057
5.88633	6057
5.88700	6057
5.88767	6057
5.88833	6056
5.88900	6056
5.88967	6056
5.89033	6055
5.89100	6055
5.89167	6054
5.89233	6054
5.89300	6054
5.89367	6053
5.89433	6053
5.89500	6052
5.89567	6052
5.89633	6051
5.89700	6051
5.89767	6050
5.89833	6050
5.89900	6049
5.89967	6049
5.90033	6048
5.90100	6047
5.90167	6047
5.90233	6046
5.90300	6045
5.90367	6045
5.90433	6044
5.90500	6043
5.90567	6042
5.90633	6041
5.90700	6040
5.90767	6040
5.90833	6039
5.90900	6038
5.90967	6037
5.91033	6036
5.91100	6035
5.91167	6034
5.91233	6033
5.91300	6032
5.91367	6031
5.91433	6031
5.91500	6030
5.91567	6029
5.91633	6028
5.91700	6027
5.91767	6026
5.91833	6025
5.91900	6024
5.91967	6023
5.92033	6022
5.92100	6021
5.92167	6020
5.92233	6020
5.92300	6019
5.92367	6018
5.92433	6017
5.92500	6016
5.92567	6015
5.92633	6014
5.92700	6013
5.92767	6012
5.92833	6011
5.92900	6010
5.92967	6009
5.93033	6008
5.93100	6008
5.93167	6007
5.93233	6006
5.93300	6005
5.93367	6004
5.93433	6003
5.93500	6002
5.93567	6001
5.93633	6001
5.93700	6000
5.93767	5999
5.93833	5998
5.93900	5997
5.93967	5997
5.94033	5996
5.94100	5995
5.94167	5994
5.94233	5994
5.94300	5993
5.94367	5992
5.94433	5991
5.94500	5991
5.94567	5990
5.94633	5989
5.94700	5988
5.94767	5987
5.94833	5986
5.94900	5986
5.94967	5985
5.95033	5984
5.95100	5983
5.95167	5982
5.95233	5981
5.95300	5980
5.95367	5979
5.95433	5978
5.95500	5977
5.95567	5976
5.95633	5975
5.95700	5974
5.95767	5973
5.95833	5972
5.95900	5971
5.95967	5971
5.96033	5970
5.96100	5969
5.96167	5968
5.96233	5967
5.96300	5966
5.96367	5965
5.96433	5964
5.96500	5963
5.96567	5963
5.96633	5962
5.96700	5961
5.96767	5960
5.96833	5959
5.96900	5959
5.96967	5958
5.97033	5957
5.97100	5957
5.97167	5956
5.97233	5955
5.97300	5955
5.97367	5954
5.97433	5953
5.97500	5953
5.97567	5952
5.97633	5951
5.97700	5951
5.97767	5950
5.97833	5949
5.97900	5949
5.97967	5948
5.98033	5947
5.98100	5947
5.98167	5946
5.98233	5946
5.98300	5945
5.98367	5945
5.98433	5944
5.98500	5944
5.98567	5943
5.98633	5943
5.98700	5942
5.98767	5942
5.98833	5941
5.98900	5940
5.98967	5940
5.99033	5939
5.99100	5939
5.99167	5938
5.99233	5938
5.99300	5937
5.99367	5937
5.99433	5936
5.99500	5936
5.99567	5935
5.99633	5935
5.99700	5935
5.99767	5934
5.99833	5934
5.99900	5934
5.99967	5933
6.00033	5933
6.00100	5933
6.00167	5932
6.00233	5932
6.00300	5932
6.00367	5932
6.00433	5931
6.00500	5931
6.00567	5931
6.00633	5931
6.00700	5931
6.00767	5930
6.00833	5930
6.00900	5930
6.00967	5930
6.01033	5930
6.01100	5930
6.01167	5929
6.01233	5929
6.01300	5929
6.01367	5929
6.01433	5929
6.01500	5929
6.01567	5929
6.01633	5929
6.01700	5929
6.01767	5929
6.01833	5929
6.01900	5929
6.01967	5930
6.02033	5930
6.02100	5930
6.02167	5930
6.02233	5930
6.02300	5931
6.02367	5931
6.02433	5931
6.02500	5931
6.02567	5931
6.02633	5932
6.02700	5932
6.02767	5932
6.02833	5932
6.02900	5933
6.02967	5933
6.03033	5933
6.03100	5934
6.03167	5934
6.03233	5934
6.03300	5935
6.03367	5935
6.03433	5935
6.03500	5936
6.03567	5936
6.03633	5936
6.03700	5937
6.03767	5937
6.03833	5937
6.03900	5938
6.03967	5938
6.04033	5939
6.04100	5939
6.04167	5940
6.04233	5940
6.04300	5941
6.04367	5941
6.04433	5941
6.04500	5942
6.04567	5942
6.04633	5943
6.04700	5943
6.04767	5944
6.04833	5944
6.04900	5945
6.04967	5945
6.05033	5946
6.05100	5947
6.05167	5947
6.05233	5948
6.05300	5948
6.05367	5949
6.05433	5950
6.05500	5950
6.05567	5951
6.05633	5952
6.05700	5953
6.05767	5953
6.05833	5954
6.05900	5955
6.05967	5956
6.06033	5956
6.06100	5957
6.06167	5958
6.06233	5959
6.06300	5960
6.06367	5961
6.06433	5961
6.06500	5962
6.06567	5963
6.06633	5964
6.06700	5965
6.06767	5966
6.06833	5967
6.06900	5968
6.06967	5969
6.07033	5970
6.07100	5971
6.07167	5972
6.07233	5972
6.07300	5973
6.07367	5974
6.07433	5975
6.07500	5976
6.07567	5976
6.07633	5977
6.07700	5978
6.07767	5979
6.07833	5980
6.07900	5980
6.07967	5981
6.08033	5982
6.08100	5982
6.08167	5983
6.08233	5984
6.08300	5985
6.08367	5985
6.08433	5986
6.08500	5987
6.08567	5987
6.08633	5988
6.08700	5989
6.08767	5989
6.08833	5990
6.08900	5990
6.08967	5991
6.09033	5991
6.09100	5992
6.09167	5992
6.09233	5993
6.09300	5993
6.09367	5994
6.09433	5995
6.09500	5995
6.09567	5996
6.09633	5996
6.09700	5996
6.09767	5997
6.09833	5997
6.09900	5998
6.09967	5998
6.10033	5998
6.10100	5999
6.10167	5999
6.10233	5999
6.10300	5999
6.10367	6000
6.10433	6000
6.10500	6000
6.10567	6000
6.10633	6000
6.10700	6001
6.10767	6001
6.10833	6001
6.10900	6001
6.10967	6001
6.11033	6001
6.11100	6002
6.11167	6002
6.11233	6002
6.11300	6002
6.11367	6002
6.11433	6002
6.11500	6002
6.11567	6002
6.11633	6002
6.11700	6002
6.11767	6001
6.11833	6001
6.11900	6001
6.11967	6001
6.12033	6001
6.12100	6000
6.12167	6000
6.12233	6000
6.12300	6000
6.12367	5999
6.12433	5999
6.12500	5998
6.12567	5998
6.12633	5998
6.12700	5997
6.12767	5997
6.12833	5996
6.12900	5996
6.12967	5995
6.13033	5994
6.13100	5994
6.13167	5993
6.13233	5993
6.13300	5992
6.13367	5991
6.13433	5991
6.13500	5990
6.13567	5989
6.13633	5988
6.13700	5988
6.13767	5987
6.13833	5986
6.13900	5986
6.13967	5985
6.14033	5984
6.14100	5983
6.14167	5982
6.14233	5981
6.14300	5981
6.14367	5980
6.14433	5979
6.14500	5978
6.14567	5977
6.14633	5976
6.14700	5975
6.14767	5974
6.14833	5974
6.14900	5973
6.14967	5972
6.15033	5971
6.15100	5970
6.15167	5969
6.15233	5968
6.15300	5967
6.15367	5966
6.15433	5965
6.15500	5964
6.15567	5963
6.15633	5962
6.15700	5961
6.15767	5960
6.15833	5959
6.15900	5958
6.15967	5957
6.16033	5956
6.16100	5955
6.16167	5954
6.16233	5953
6.16300	5952
6.16367	5951
6.16433	5949
6.16500	5948
6.16567	5947
6.16633	5946
6.16700	5945
6.16767	5944
6.16833	5943
6.16900	5941
6.16967	5940
6.17033	5939
6.17100	5937
6.17167	5936
6.17233	5935
6.17300	5933
6.17367	5932
6.17433	5931
6.17500	5929
6.17567	5928
6.17633	5927
6.17700	5925
6.17767	5924
6.17833	5923
6.17900	5922
6.17967	5920
6.18033	5919
6.18100	5918
6.18167	5917
6.18233	5916
6.18300	5914
6.18367	5913
6.18433	5912
6.18500	5911
6.18567	5910
6.18633	5908
6.18700	5907
6.18767	5906
6.18833	5905
6.18900	5904
6.18967	5903
6.19033	5902
6.19100	5901
6.19167	5900
6.19233	5899
6.19300	5898
6.19367	5897
6.19433	5896
6.19500	5895
6.19567	5894
6.19633	5894
6.19700	5893
6.19767	5892
6.19833	5891
6.19900	5890
6.19967	5889
6.20033	5888
6.20100	5888
6.20167	5887
6.20233	5886
6.20300	5885
6.20367	5885
6.20433	5884
6.20500	5883
6.20567	5883
6.20633	5882
6.20700	5881
6.20767	5881
6.20833	5880
6.20900	5880
6.20967	5879
6.21033	5879
6.21100	5878
6.21167	5877
6.21233	5877
6.21300	5876
6.21367	5876
6.21433	5875
6.21500	5875
6.21567	5874
6.21633	5874
6.21700	5873
6.21767	5873
6.21833	5872
6.21900	5872
6.21967	5871
6.22033	5871
6.22100	5870
6.22167	5870
6.22233	5869
6.22300	5869
6.22367	5868
6.22433	5868
6.22500	5867
6.22567	5867
6.22633	5867
6.22700	5866
6.22767	5866
6.22833	5866
6.22900	5865
6.22967	5865
6.23033	5865
6.23100	5865
6.23167	5865
6.23233	5864
6.23300	5864
6.23367	5864
6.23433	5864
6.23500	5863
6.23567	5863
6.23633	5863
6.23700	5863
6.23767	5863
6.23833	5862
6.23900	5862
6.23967	5862
6.24033	5862
6.24100	5862
6.24167	5862
6.24233	5861
6.24300	5861
6.24367	5861
6.24433	5861
6.24500	5861
6.24567	5861
6.24633	5861
6.24700	5861
6.24767	5861
6.24833	5861
6.24900	5861
6.24967	5862
6.25033	5862
6.25100	5862
6.25167	5862
6.25233	5862
6.25300	5862
6.25367	5863
6.25433	5863
6.25500	5863
6.25567	5863
6.25633	5864
6.25700	5864
6.25767	5864
6.25833	5865
6.25900	5865
6.25967	5865
6.26033	5866
6.26100	5866
6.26167	5866
6.26233	5867
6.26300	5867
6.26367	5867
6.26433	5868
6.26500	5868
6.26567	5869
6.26633	5869
6.26700	5870
6.26767	5870
6.26833	5870
6.26900	5871
6.26967	5871
6.27033	5872
6.27100	5872
6.27167	5872
6.27233	5873
6.27300	5873
6.27367	5874
6.27433	5874
6.27500	5874
6.27567	5875
6.27633	5875
6.27700	5876
6.27767	5876
6.27833	5876
6.27900	5876
6.27967	5877
6.28033	5877
6.28100	5877
6.28167	5877
6.28233	5878
6.28300	5878
6.28367	5878
6.28433	5879
6.28500	5879
6.28567	5879
6.28633	5880
6.28700	5880
6.28767	5880
6.28833	5881
6.28900	5881
6.28967	5881
6.29033	5882
6.29100	5882
6.29167	5882
6.29233	5882
6.29300	5883
6.29367	5883
6.29433	5883
6.29500	5884
6.29567	5884
6.29633	5884
6.29700	5885
6.29767	5885
6.29833	5886
6.29900	5886
6.29967	5886
6.30033	5886
6.30100	5887
6.30167	5887
6.30233	5887
6.30300	5888
6.30367	5888
6.30433	5888
6.30500	5888
6.30567	5888
6.30633	5889
6.30700	5889
6.30767	5889
6.30833	5889
6.30900	5890
6.30967	5890
6.31033	5890
6.31100	5890
6.31167	5890
6.31233	5890
6.31300	5890
6.31367	5890
6.31433	5890
6.31500	5890
6.31567	5890
6.31633	5890
6.31700	5891
6.31767	5891
6.31833	5891
6.31900	5891
6.31967	5891
6.32033	5891
6.32100	5891
6.32167	5891
6.32233	5890
6.32300	5890
6.32367	5890
6.32433	5890
6.32500	5890
6.32567	5890
6.32633	5890
6.32700	5890
6.32767	5889
6.32833	5889
6.32900	5889
6.32967	5889
6.33033	5889
6.33100	5888
6.33167	5888
6.33233	5888
6.33300	5888
6.33367	5887
6.33433	5887
6.33500	5887
6.33567	5886
6.33633	5886
6.33700	5886
6.33767	5885
6.33833	5885
6.33900	5884
6.33967	5884
6.34033	5884
6.34100	5883
6.34167	5883
6.34233	5882
6.34300	5882
6.34367	5881
6.34433	5881
6.34500	5881
6.34567	5880
6.34633	5880
6.34700	5879
6.34767	5879
6.34833	5879
6.34900	5878
6.34967	5878
6.35033	5878
6.35100	5877
6.35167	5877
6.35233	5877
6.35300	5877
6.35367	5876
6.35433	5876
6.35500	5876
6.35567	5876
6.35633	5875
6.35700	5875
6.35767	5875
6.35833	5874
6.35900	5874
6.35967	5874
6.36033	5873
6.36100	5873
6.36167	5873
6.36233	5872
6.36300	5872
6.36367	5872
6.36433	5871
6.36500	5871
6.36567	5871
6.36633	5870
6.36700	5870
6.36767	5869
6.36833	5869
6.36900	5869
6.36967	5868
6.37033	5868
6.37100	5868
6.37167	5868
6.37233	5867
6.37300	5867
6.37367	5867
6.37433	5867
6.37500	5866
6.37567	5866
6.37633	5866
6.37700	5865
6.37767	5865
6.37833	5865
6.37900	5865
6.37967	5865
6.38033	5865
6.38100	5865
6.38167	5865
6.38233	5864
6.38300	5864
6.38367	5864
6.38433	5864
6.38500	5864
6.38567	5864
6.38633	5863
6.38700	5863
6.38767	5863
6.38833	5863
6.38900	5863
6.38967	5863
6.39033	5863
6.39100	5862
6.39167	5862
6.39233	5862
6.39300	5862
6.39367	5862
6.39433	5862
6.39500	5862
6.39567	5861
6.39633	5861
6.39700	5861
6.39767	5861
6.39833	5860
6.39900	5861
6.39967	5861

