[Header]
Application Name	LabSolutions
Version	5.73
Data File Name	C:\LabSolutions\Data\Project1\stephen\2016-01-04\35.gcd
Output Date	1/5/2016
Output Time	4:51:35 PM

[Configuration]
Instrument Name	WEISSTA-PC-Instrument1
Instrument #	1
Line #	1
# of Detectors	1
Detector ID	DET#2
Detector Name	DFID1
# of Channels	1

[Chromatogram (Ch1)]
Interval(msec)	40
# of Points	9600
Start Time(min)	0.001
End Time(min)	6.400
R.Time (min)	Intensity
0.00050	20
0.00117	20
0.00183	20
0.00250	20
0.00317	20
0.00383	20
0.00450	19
0.00517	19
0.00583	19
0.00650	20
0.00717	20
0.00783	20
0.00850	20
0.00917	20
0.00983	20
0.01050	20
0.01117	20
0.01183	20
0.01250	20
0.01317	20
0.01383	19
0.01450	19
0.01517	18
0.01583	18
0.01650	17
0.01717	16
0.01783	15
0.01850	14
0.01917	12
0.01983	11
0.02050	10
0.02117	8
0.02183	7
0.02250	5
0.02317	3
0.02383	2
0.02450	-0
0.02517	-2
0.02583	-4
0.02650	-5
0.02717	-7
0.02783	-9
0.02850	-10
0.02917	-12
0.02983	-14
0.03050	-15
0.03117	-17
0.03183	-18
0.03250	-19
0.03317	-21
0.03383	-22
0.03450	-23
0.03517	-24
0.03583	-26
0.03650	-27
0.03717	-28
0.03783	-29
0.03850	-29
0.03917	-30
0.03983	-31
0.04050	-32
0.04117	-33
0.04183	-33
0.04250	-34
0.04317	-35
0.04383	-35
0.04450	-36
0.04517	-36
0.04583	-37
0.04650	-37
0.04717	-37
0.04783	-38
0.04850	-38
0.04917	-38
0.04983	-39
0.05050	-39
0.05117	-39
0.05183	-39
0.05250	-40
0.05317	-40
0.05383	-40
0.05450	-41
0.05517	-41
0.05583	-41
0.05650	-41
0.05717	-42
0.05783	-42
0.05850	-42
0.05917	-42
0.05983	-43
0.06050	-43
0.06117	-43
0.06183	-43
0.06250	-44
0.06317	-44
0.06383	-44
0.06450	-44
0.06517	-44
0.06583	-45
0.06650	-45
0.06717	-45
0.06783	-45
0.06850	-45
0.06917	-45
0.06983	-45
0.07050	-45
0.07117	-45
0.07183	-46
0.07250	-46
0.07317	-46
0.07383	-46
0.07450	-46
0.07517	-46
0.07583	-46
0.07650	-46
0.07717	-46
0.07783	-46
0.07850	-46
0.07917	-46
0.07983	-46
0.08050	-46
0.08117	-46
0.08183	-46
0.08250	-46
0.08317	-46
0.08383	-46
0.08450	-45
0.08517	-41
0.08583	-34
0.08650	-21
0.08717	6
0.08783	51
0.08850	129
0.08917	233
0.08983	384
0.09050	573
0.09117	803
0.09183	1079
0.09250	1409
0.09317	1791
0.09383	2242
0.09450	2811
0.09517	3450
0.09583	4182
0.09650	5023
0.09717	5938
0.09783	6925
0.09850	7934
0.09917	9014
0.09983	10221
0.10050	11517
0.10117	12831
0.10183	14151
0.10250	15502
0.10317	16893
0.10383	18339
0.10450	19807
0.10517	21298
0.10583	22805
0.10650	24352
0.10717	25867
0.10783	27380
0.10850	28931
0.10917	30414
0.10983	31884
0.11050	33384
0.11117	34936
0.11183	36475
0.11250	38013
0.11317	39484
0.11383	40896
0.11450	42282
0.11517	43656
0.11583	45050
0.11650	46384
0.11717	47638
0.11783	48771
0.11850	49805
0.11917	50758
0.11983	51656
0.12050	52474
0.12117	53214
0.12183	53951
0.12250	54653
0.12317	55252
0.12383	55747
0.12450	56166
0.12517	56508
0.12583	56786
0.12650	56989
0.12717	57161
0.12783	57305
0.12850	57371
0.12917	57363
0.12983	57312
0.13050	57256
0.13117	57336
0.13183	58096
0.13250	61162
0.13317	70362
0.13383	93883
0.13450	146527
0.13517	253312
0.13583	448913
0.13650	774401
0.13717	1270349
0.13783	1974372
0.13850	2915912
0.13917	4116693
0.13983	5589417
0.14050	7340690
0.14117	9371294
0.14183	11679170
0.14250	14259513
0.14317	17105387
0.14383	20201199
0.14450	23525748
0.14517	27078399
0.14583	30876654
0.14650	34927040
0.14717	39221793
0.14783	43743538
0.14850	48468792
0.14917	53371258
0.14983	58423921
0.15050	63601227
0.15117	68880092
0.15183	74239414
0.15250	79659849
0.15317	85123885
0.15383	90615867
0.15450	96120912
0.15517	101625312
0.15583	107115851
0.15650	112580733
0.15717	118009427
0.15783	123392246
0.15850	128720088
0.15917	133983552
0.15983	139173829
0.16050	144283156
0.16117	149304155
0.16183	154229763
0.16250	159053655
0.16317	163770032
0.16383	168373177
0.16450	172858014
0.16517	177219624
0.16583	181453202
0.16650	185554110
0.16717	189517842
0.16783	193340402
0.16850	197018081
0.16917	200547272
0.16983	203923998
0.17050	207143742
0.17117	210201988
0.17183	213094389
0.17250	215816912
0.17317	218366301
0.17383	220739357
0.17450	222933555
0.17517	224946464
0.17583	226776605
0.17650	228423239
0.17717	229886628
0.17783	231167712
0.17850	232267893
0.17917	233189041
0.17983	233933509
0.18050	234503993
0.18117	234903557
0.18183	235135606
0.18250	235203792
0.18317	235112156
0.18383	234864751
0.18450	234465844
0.18517	233919574
0.18583	233230442
0.18650	232402947
0.18717	231441859
0.18783	230351953
0.18850	229138339
0.18917	227806032
0.18983	226360240
0.19050	224806132
0.19117	223149022
0.19183	221394167
0.19250	219546995
0.19317	217612631
0.19383	215596184
0.19450	213502720
0.19517	211337218
0.19583	209104672
0.19650	206810033
0.19717	204458293
0.19783	202054458
0.19850	199603547
0.19917	197110493
0.19983	194580198
0.20050	192017577
0.20117	189427749
0.20183	186815884
0.20250	184186682
0.20317	181543920
0.20383	178890569
0.20450	176229017
0.20517	173561433
0.20583	170889843
0.20650	168216302
0.20717	165542840
0.20783	162871509
0.20850	160204380
0.20917	157543543
0.20983	154891050
0.21050	152248887
0.21117	149618983
0.21183	147003185
0.21250	144403270
0.21317	141820914
0.21383	139257702
0.21450	136715094
0.21517	134194453
0.21583	131697042
0.21650	129224025
0.21717	126776459
0.21783	124355327
0.21850	121961515
0.21917	119595826
0.21983	117258973
0.22050	114951620
0.22117	112674335
0.22183	110427620
0.22250	108211883
0.22317	106027457
0.22383	103874604
0.22450	101753528
0.22517	99664395
0.22583	97607319
0.22650	95582369
0.22717	93589564
0.22783	91628893
0.22850	89700299
0.22917	87803698
0.22983	85938964
0.23050	84105959
0.23117	82304504
0.23183	80534399
0.23250	78795406
0.23317	77087278
0.23383	75409745
0.23450	73762529
0.23517	72145330
0.23583	70557846
0.23650	68999755
0.23717	67470723
0.23783	65970401
0.23850	64498435
0.23917	63054467
0.23983	61638134
0.24050	60249065
0.24117	58886878
0.24183	57551199
0.24250	56241648
0.24317	54957840
0.24383	53699393
0.24450	52465927
0.24517	51257057
0.24583	50072407
0.24650	48911595
0.24717	47774251
0.24783	46659996
0.24850	45568467
0.24917	44499286
0.24983	43452085
0.25050	42426493
0.25117	41422153
0.25183	40438705
0.25250	39475796
0.25317	38533077
0.25383	37610208
0.25450	36706848
0.25517	35822666
0.25583	34957329
0.25650	34110515
0.25717	33281906
0.25783	32471188
0.25850	31678053
0.25917	30902192
0.25983	30143302
0.26050	29401081
0.26117	28675235
0.26183	27965474
0.26250	27271513
0.26317	26593068
0.26383	25929863
0.26450	25281623
0.26517	24648079
0.26583	24028961
0.26650	23424007
0.26717	22832955
0.26783	22255545
0.26850	21691522
0.26917	21140636
0.26983	20602637
0.27050	20077279
0.27117	19564320
0.27183	19063520
0.27250	18574644
0.27317	18097459
0.27383	17631736
0.27450	17177248
0.27517	16733771
0.27583	16301086
0.27650	15878976
0.27717	15467233
0.27783	15065648
0.27850	14674017
0.27917	14292136
0.27983	13919806
0.28050	13556832
0.28117	13203024
0.28183	12858195
0.28250	12522163
0.28317	12194747
0.28383	11875771
0.28450	11565063
0.28517	11262456
0.28583	10967786
0.28650	10680894
0.28717	10401625
0.28783	10129830
0.28850	9865360
0.28917	9608070
0.28983	9357815
0.29050	9114458
0.29117	8877863
0.29183	8647896
0.29250	8424429
0.29317	8207333
0.29383	7996486
0.29450	7791765
0.29517	7593053
0.29583	7400241
0.29650	7213222
0.29717	7031900
0.29783	6856187
0.29850	6686005
0.29917	6521289
0.29983	6361979
0.30050	6208023
0.30117	6059377
0.30183	5916000
0.30250	5777854
0.30317	5644895
0.30383	5517075
0.30450	5394338
0.30517	5276624
0.30583	5163860
0.30650	5055961
0.30717	4952830
0.30783	4854363
0.30850	4760450
0.30917	4670975
0.30983	4585814
0.31050	4504839
0.31117	4427920
0.31183	4354920
0.31250	4285703
0.31317	4220122
0.31383	4158029
0.31450	4099271
0.31517	4043695
0.31583	3991144
0.31650	3941464
0.31717	3894504
0.31783	3850118
0.31850	3808161
0.31917	3768491
0.31983	3730977
0.32050	3695491
0.32117	3661912
0.32183	3630129
0.32250	3600035
0.32317	3571536
0.32383	3544535
0.32450	3518938
0.32517	3494651
0.32583	3471585
0.32650	3449649
0.32717	3428753
0.32783	3408808
0.32850	3389720
0.32917	3371398
0.32983	3353752
0.33050	3336696
0.33117	3320145
0.33183	3304007
0.33250	3288188
0.33317	3272586
0.33383	3257096
0.33450	3241602
0.33517	3225986
0.33583	3210126
0.33650	3193906
0.33717	3177210
0.33783	3159931
0.33850	3141965
0.33917	3123219
0.33983	3103604
0.34050	3083047
0.34117	3061478
0.34183	3038841
0.34250	3015093
0.34317	2990209
0.34383	2964172
0.34450	2936985
0.34517	2908664
0.34583	2879237
0.34650	2848746
0.34717	2817240
0.34783	2784778
0.34850	2751425
0.34917	2717250
0.34983	2682326
0.35050	2646726
0.35117	2610525
0.35183	2573794
0.35250	2536606
0.35317	2499031
0.35383	2461135
0.35450	2422984
0.35517	2384639
0.35583	2346159
0.35650	2307602
0.35717	2269019
0.35783	2230461
0.35850	2191974
0.35917	2153602
0.35983	2115385
0.36050	2077361
0.36117	2039565
0.36183	2002030
0.36250	1964785
0.36317	1927858
0.36383	1891273
0.36450	1855053
0.36517	1819220
0.36583	1783791
0.36650	1748783
0.36717	1714212
0.36783	1680091
0.36850	1646431
0.36917	1613245
0.36983	1580539
0.37050	1548322
0.37117	1516602
0.37183	1485383
0.37250	1454673
0.37317	1424474
0.37383	1394792
0.37450	1365628
0.37517	1336983
0.37583	1308857
0.37650	1281249
0.37717	1254159
0.37783	1227584
0.37850	1201522
0.37917	1175969
0.37983	1150922
0.38050	1126377
0.38117	1102329
0.38183	1078774
0.38250	1055708
0.38317	1033123
0.38383	1011016
0.38450	989381
0.38517	968211
0.38583	947501
0.38650	927243
0.38717	907430
0.38783	888056
0.38850	869115
0.38917	850602
0.38983	832513
0.39050	814845
0.39117	797592
0.39183	780750
0.39250	764313
0.39317	748278
0.39383	732638
0.39450	717389
0.39517	702525
0.39583	688041
0.39650	673933
0.39717	660197
0.39783	646828
0.39850	633825
0.39917	621183
0.39983	608901
0.40050	596974
0.40117	585398
0.40183	574165
0.40250	563268
0.40317	552696
0.40383	542439
0.40450	532488
0.40517	522836
0.40583	513471
0.40650	504386
0.40717	495571
0.40783	487016
0.40850	478713
0.40917	470654
0.40983	462830
0.41050	455234
0.41117	447858
0.41183	440695
0.41250	433737
0.41317	426978
0.41383	420411
0.41450	414030
0.41517	407830
0.41583	401803
0.41650	395944
0.41717	390248
0.41783	384709
0.41850	379322
0.41917	374083
0.41983	368986
0.42050	364026
0.42117	359200
0.42183	354502
0.42250	349928
0.42317	345474
0.42383	341137
0.42450	336912
0.42517	332796
0.42583	328784
0.42650	324873
0.42717	321059
0.42783	317339
0.42850	313710
0.42917	310169
0.42983	306712
0.43050	303337
0.43117	300040
0.43183	296818
0.43250	293671
0.43317	290593
0.43383	287584
0.43450	284641
0.43517	281762
0.43583	278945
0.43650	276187
0.43717	273486
0.43783	270841
0.43850	268250
0.43917	265710
0.43983	263221
0.44050	260781
0.44117	258387
0.44183	256039
0.44250	253734
0.44317	251472
0.44383	249251
0.44450	247070
0.44517	244927
0.44583	242821
0.44650	240750
0.44717	238714
0.44783	236711
0.44850	234741
0.44917	232802
0.44983	230894
0.45050	229014
0.45117	227164
0.45183	225340
0.45250	223544
0.45317	221773
0.45383	220027
0.45450	218306
0.45517	216608
0.45583	214934
0.45650	213281
0.45717	211651
0.45783	210042
0.45850	208453
0.45917	206885
0.45983	205337
0.46050	203809
0.46117	202299
0.46183	200809
0.46250	199337
0.46317	197884
0.46383	196448
0.46450	195031
0.46517	193631
0.46583	192248
0.46650	190883
0.46717	189534
0.46783	188202
0.46850	186887
0.46917	185587
0.46983	184303
0.47050	183034
0.47117	181781
0.47183	180542
0.47250	179318
0.47317	178109
0.47383	176913
0.47450	175731
0.47517	174562
0.47583	173406
0.47650	172263
0.47717	171132
0.47783	170013
0.47850	168907
0.47917	167811
0.47983	166727
0.48050	165655
0.48117	164593
0.48183	163542
0.48250	162501
0.48317	161470
0.48383	160450
0.48450	159439
0.48517	158438
0.48583	157447
0.48650	156465
0.48717	155491
0.48783	154527
0.48850	153571
0.48917	152623
0.48983	151685
0.49050	150754
0.49117	149832
0.49183	148918
0.49250	148011
0.49317	147113
0.49383	146222
0.49450	145338
0.49517	144462
0.49583	143592
0.49650	142730
0.49717	141876
0.49783	141028
0.49850	140187
0.49917	139353
0.49983	138526
0.50050	137706
0.50117	136892
0.50183	136085
0.50250	135284
0.50317	134489
0.50383	133701
0.50450	132920
0.50517	132144
0.50583	131375
0.50650	130612
0.50717	129855
0.50783	129104
0.50850	128359
0.50917	127621
0.50983	126888
0.51050	126161
0.51117	125440
0.51183	124724
0.51250	124014
0.51317	123310
0.51383	122612
0.51450	121920
0.51517	121233
0.51583	120552
0.51650	119876
0.51717	119206
0.51783	118542
0.51850	117883
0.51917	117229
0.51983	116580
0.52050	115937
0.52117	115299
0.52183	114665
0.52250	114036
0.52317	113413
0.52383	112793
0.52450	112179
0.52517	111569
0.52583	110963
0.52650	110361
0.52717	109765
0.52783	109172
0.52850	108584
0.52917	108001
0.52983	107422
0.53050	106847
0.53117	106276
0.53183	105709
0.53250	105147
0.53317	104589
0.53383	104035
0.53450	103485
0.53517	102940
0.53583	102398
0.53650	101861
0.53717	101328
0.53783	100799
0.53850	100274
0.53917	99754
0.53983	99237
0.54050	98724
0.54117	98215
0.54183	97710
0.54250	97209
0.54317	96711
0.54383	96218
0.54450	95728
0.54517	95242
0.54583	94759
0.54650	94281
0.54717	93806
0.54783	93335
0.54850	92867
0.54917	92403
0.54983	91943
0.55050	91486
0.55117	91032
0.55183	90583
0.55250	90136
0.55317	89693
0.55383	89254
0.55450	88818
0.55517	88386
0.55583	87956
0.55650	87530
0.55717	87108
0.55783	86688
0.55850	86272
0.55917	85860
0.55983	85450
0.56050	85044
0.56117	84641
0.56183	84241
0.56250	83845
0.56317	83452
0.56383	83062
0.56450	82675
0.56517	82291
0.56583	81911
0.56650	81534
0.56717	81161
0.56783	80790
0.56850	80423
0.56917	80059
0.56983	79699
0.57050	79341
0.57117	78987
0.57183	78637
0.57250	78289
0.57317	77945
0.57383	77603
0.57450	77265
0.57517	76930
0.57583	76598
0.57650	76268
0.57717	75942
0.57783	75618
0.57850	75298
0.57917	74980
0.57983	74665
0.58050	74352
0.58117	74042
0.58183	73735
0.58250	73430
0.58317	73127
0.58383	72827
0.58450	72528
0.58517	72233
0.58583	71939
0.58650	71648
0.58717	71358
0.58783	71071
0.58850	70786
0.58917	70503
0.58983	70222
0.59050	69943
0.59117	69665
0.59183	69390
0.59250	69117
0.59317	68846
0.59383	68576
0.59450	68309
0.59517	68043
0.59583	67780
0.59650	67518
0.59717	67257
0.59783	66999
0.59850	66742
0.59917	66487
0.59983	66233
0.60050	65982
0.60117	65732
0.60183	65483
0.60250	65236
0.60317	64990
0.60383	64746
0.60450	64504
0.60517	64263
0.60583	64023
0.60650	63785
0.60717	63548
0.60783	63313
0.60850	63079
0.60917	62847
0.60983	62616
0.61050	62386
0.61117	62157
0.61183	61930
0.61250	61705
0.61317	61480
0.61383	61257
0.61450	61035
0.61517	60814
0.61583	60594
0.61650	60376
0.61717	60159
0.61783	59943
0.61850	59728
0.61917	59514
0.61983	59302
0.62050	59091
0.62117	58881
0.62183	58673
0.62250	58466
0.62317	58260
0.62383	58056
0.62450	57853
0.62517	57652
0.62583	57452
0.62650	57253
0.62717	57057
0.62783	56862
0.62850	56668
0.62917	56476
0.62983	56286
0.63050	56097
0.63117	55910
0.63183	55725
0.63250	55541
0.63317	55359
0.63383	55178
0.63450	54998
0.63517	54820
0.63583	54643
0.63650	54468
0.63717	54293
0.63783	54120
0.63850	53948
0.63917	53777
0.63983	53607
0.64050	53438
0.64117	53270
0.64183	53103
0.64250	52937
0.64317	52773
0.64383	52609
0.64450	52447
0.64517	52285
0.64583	52125
0.64650	51966
0.64717	51808
0.64783	51652
0.64850	51497
0.64917	51343
0.64983	51191
0.65050	51040
0.65117	50891
0.65183	50744
0.65250	50598
0.65317	50454
0.65383	50312
0.65450	50171
0.65517	50033
0.65583	49896
0.65650	49761
0.65717	49629
0.65783	49498
0.65850	49368
0.65917	49241
0.65983	49115
0.66050	48990
0.66117	48867
0.66183	48745
0.66250	48624
0.66317	48504
0.66383	48384
0.66450	48266
0.66517	48148
0.66583	48030
0.66650	47913
0.66717	47796
0.66783	47679
0.66850	47562
0.66917	47446
0.66983	47329
0.67050	47213
0.67117	47096
0.67183	46980
0.67250	46864
0.67317	46747
0.67383	46631
0.67450	46515
0.67517	46399
0.67583	46282
0.67650	46166
0.67717	46050
0.67783	45934
0.67850	45819
0.67917	45704
0.67983	45589
0.68050	45474
0.68117	45360
0.68183	45247
0.68250	45134
0.68317	45023
0.68383	44912
0.68450	44802
0.68517	44694
0.68583	44586
0.68650	44481
0.68717	44377
0.68783	44275
0.68850	44175
0.68917	44078
0.68983	43984
0.69050	43892
0.69117	43805
0.69183	43721
0.69250	43642
0.69317	43569
0.69383	43501
0.69450	43441
0.69517	43388
0.69583	43344
0.69650	43309
0.69717	43285
0.69783	43272
0.69850	43271
0.69917	43284
0.69983	43309
0.70050	43350
0.70117	43404
0.70183	43473
0.70250	43556
0.70317	43654
0.70383	43764
0.70450	43886
0.70517	44018
0.70583	44159
0.70650	44307
0.70717	44460
0.70783	44616
0.70850	44773
0.70917	44929
0.70983	45082
0.71050	45230
0.71117	45371
0.71183	45504
0.71250	45628
0.71317	45742
0.71383	45844
0.71450	45935
0.71517	46012
0.71583	46077
0.71650	46128
0.71717	46166
0.71783	46191
0.71850	46204
0.71917	46203
0.71983	46191
0.72050	46166
0.72117	46130
0.72183	46084
0.72250	46027
0.72317	45961
0.72383	45885
0.72450	45801
0.72517	45709
0.72583	45609
0.72650	45503
0.72717	45390
0.72783	45271
0.72850	45146
0.72917	45017
0.72983	44883
0.73050	44744
0.73117	44602
0.73183	44457
0.73250	44308
0.73317	44156
0.73383	44002
0.73450	43846
0.73517	43688
0.73583	43528
0.73650	43367
0.73717	43204
0.73783	43040
0.73850	42876
0.73917	42711
0.73983	42545
0.74050	42379
0.74117	42213
0.74183	42047
0.74250	41881
0.74317	41715
0.74383	41549
0.74450	41384
0.74517	41220
0.74583	41056
0.74650	40893
0.74717	40731
0.74783	40570
0.74850	40409
0.74917	40250
0.74983	40092
0.75050	39935
0.75117	39779
0.75183	39625
0.75250	39472
0.75317	39320
0.75383	39169
0.75450	39020
0.75517	38872
0.75583	38726
0.75650	38582
0.75717	38438
0.75783	38297
0.75850	38157
0.75917	38018
0.75983	37881
0.76050	37745
0.76117	37611
0.76183	37479
0.76250	37348
0.76317	37219
0.76383	37091
0.76450	36965
0.76517	36841
0.76583	36718
0.76650	36597
0.76717	36477
0.76783	36359
0.76850	36242
0.76917	36127
0.76983	36014
0.77050	35902
0.77117	35791
0.77183	35683
0.77250	35575
0.77317	35469
0.77383	35365
0.77450	35262
0.77517	35161
0.77583	35061
0.77650	34962
0.77717	34865
0.77783	34770
0.77850	34675
0.77917	34582
0.77983	34490
0.78050	34400
0.78117	34311
0.78183	34223
0.78250	34136
0.78317	34050
0.78383	33966
0.78450	33883
0.78517	33801
0.78583	33720
0.78650	33640
0.78717	33561
0.78783	33483
0.78850	33406
0.78917	33330
0.78983	33255
0.79050	33181
0.79117	33107
0.79183	33035
0.79250	32964
0.79317	32893
0.79383	32824
0.79450	32755
0.79517	32687
0.79583	32620
0.79650	32554
0.79717	32489
0.79783	32424
0.79850	32361
0.79917	32298
0.79983	32236
0.80050	32174
0.80117	32114
0.80183	32054
0.80250	31995
0.80317	31936
0.80383	31878
0.80450	31821
0.80517	31764
0.80583	31708
0.80650	31653
0.80717	31598
0.80783	31544
0.80850	31490
0.80917	31436
0.80983	31383
0.81050	31330
0.81117	31278
0.81183	31226
0.81250	31174
0.81317	31123
0.81383	31071
0.81450	31021
0.81517	30970
0.81583	30920
0.81650	30870
0.81717	30820
0.81783	30771
0.81850	30722
0.81917	30673
0.81983	30624
0.82050	30576
0.82117	30527
0.82183	30479
0.82250	30432
0.82317	30384
0.82383	30337
0.82450	30291
0.82517	30244
0.82583	30198
0.82650	30152
0.82717	30106
0.82783	30060
0.82850	30015
0.82917	29970
0.82983	29926
0.83050	29881
0.83117	29837
0.83183	29793
0.83250	29750
0.83317	29706
0.83383	29663
0.83450	29620
0.83517	29577
0.83583	29535
0.83650	29493
0.83717	29451
0.83783	29410
0.83850	29368
0.83917	29327
0.83983	29286
0.84050	29246
0.84117	29205
0.84183	29165
0.84250	29125
0.84317	29086
0.84383	29046
0.84450	29007
0.84517	28968
0.84583	28929
0.84650	28891
0.84717	28852
0.84783	28814
0.84850	28776
0.84917	28739
0.84983	28701
0.85050	28664
0.85117	28627
0.85183	28590
0.85250	28553
0.85317	28517
0.85383	28481
0.85450	28445
0.85517	28409
0.85583	28373
0.85650	28338
0.85717	28303
0.85783	28268
0.85850	28233
0.85917	28199
0.85983	28164
0.86050	28130
0.86117	28096
0.86183	28062
0.86250	28028
0.86317	27995
0.86383	27961
0.86450	27928
0.86517	27895
0.86583	27862
0.86650	27829
0.86717	27796
0.86783	27764
0.86850	27731
0.86917	27699
0.86983	27667
0.87050	27635
0.87117	27603
0.87183	27571
0.87250	27540
0.87317	27508
0.87383	27477
0.87450	27445
0.87517	27414
0.87583	27383
0.87650	27352
0.87717	27322
0.87783	27291
0.87850	27260
0.87917	27230
0.87983	27199
0.88050	27169
0.88117	27139
0.88183	27109
0.88250	27079
0.88317	27049
0.88383	27019
0.88450	26989
0.88517	26959
0.88583	26930
0.88650	26900
0.88717	26870
0.88783	26841
0.88850	26812
0.88917	26783
0.88983	26754
0.89050	26725
0.89117	26696
0.89183	26667
0.89250	26638
0.89317	26610
0.89383	26581
0.89450	26553
0.89517	26525
0.89583	26496
0.89650	26468
0.89717	26440
0.89783	26412
0.89850	26384
0.89917	26356
0.89983	26328
0.90050	26300
0.90117	26273
0.90183	26245
0.90250	26218
0.90317	26190
0.90383	26163
0.90450	26135
0.90517	26108
0.90583	26081
0.90650	26054
0.90717	26028
0.90783	26001
0.90850	25974
0.90917	25948
0.90983	25921
0.91050	25895
0.91117	25869
0.91183	25843
0.91250	25817
0.91317	25791
0.91383	25765
0.91450	25739
0.91517	25714
0.91583	25688
0.91650	25663
0.91717	25638
0.91783	25613
0.91850	25588
0.91917	25563
0.91983	25538
0.92050	25514
0.92117	25489
0.92183	25465
0.92250	25441
0.92317	25417
0.92383	25393
0.92450	25369
0.92517	25346
0.92583	25322
0.92650	25299
0.92717	25276
0.92783	25253
0.92850	25230
0.92917	25207
0.92983	25185
0.93050	25162
0.93117	25140
0.93183	25117
0.93250	25095
0.93317	25073
0.93383	25051
0.93450	25030
0.93517	25008
0.93583	24987
0.93650	24965
0.93717	24944
0.93783	24923
0.93850	24902
0.93917	24881
0.93983	24861
0.94050	24840
0.94117	24819
0.94183	24799
0.94250	24778
0.94317	24758
0.94383	24737
0.94450	24717
0.94517	24697
0.94583	24676
0.94650	24656
0.94717	24636
0.94783	24616
0.94850	24596
0.94917	24575
0.94983	24555
0.95050	24535
0.95117	24515
0.95183	24495
0.95250	24475
0.95317	24456
0.95383	24436
0.95450	24417
0.95517	24397
0.95583	24378
0.95650	24359
0.95717	24340
0.95783	24322
0.95850	24303
0.95917	24285
0.95983	24267
0.96050	24250
0.96117	24233
0.96183	24215
0.96250	24199
0.96317	24182
0.96383	24166
0.96450	24150
0.96517	24134
0.96583	24118
0.96650	24103
0.96717	24088
0.96783	24072
0.96850	24057
0.96917	24042
0.96983	24027
0.97050	24012
0.97117	23997
0.97183	23982
0.97250	23967
0.97317	23951
0.97383	23936
0.97450	23920
0.97517	23905
0.97583	23889
0.97650	23873
0.97717	23857
0.97783	23840
0.97850	23824
0.97917	23807
0.97983	23790
0.98050	23772
0.98117	23755
0.98183	23737
0.98250	23718
0.98317	23700
0.98383	23681
0.98450	23662
0.98517	23643
0.98583	23624
0.98650	23605
0.98717	23585
0.98783	23566
0.98850	23546
0.98917	23526
0.98983	23506
0.99050	23486
0.99117	23466
0.99183	23446
0.99250	23425
0.99317	23405
0.99383	23385
0.99450	23365
0.99517	23345
0.99583	23324
0.99650	23304
0.99717	23284
0.99783	23264
0.99850	23244
0.99917	23223
0.99983	23203
1.00050	23183
1.00117	23163
1.00183	23143
1.00250	23123
1.00317	23103
1.00383	23083
1.00450	23064
1.00517	23044
1.00583	23025
1.00650	23005
1.00717	22986
1.00783	22967
1.00850	22948
1.00917	22929
1.00983	22910
1.01050	22891
1.01117	22873
1.01183	22854
1.01250	22836
1.01317	22818
1.01383	22800
1.01450	22782
1.01517	22765
1.01583	22747
1.01650	22730
1.01717	22714
1.01783	22697
1.01850	22681
1.01917	22664
1.01983	22648
1.02050	22633
1.02117	22617
1.02183	22602
1.02250	22587
1.02317	22572
1.02383	22558
1.02450	22544
1.02517	22530
1.02583	22516
1.02650	22502
1.02717	22489
1.02783	22476
1.02850	22462
1.02917	22450
1.02983	22437
1.03050	22424
1.03117	22411
1.03183	22399
1.03250	22386
1.03317	22374
1.03383	22362
1.03450	22349
1.03517	22337
1.03583	22324
1.03650	22312
1.03717	22299
1.03783	22286
1.03850	22274
1.03917	22261
1.03983	22248
1.04050	22235
1.04117	22222
1.04183	22209
1.04250	22195
1.04317	22182
1.04383	22168
1.04450	22155
1.04517	22141
1.04583	22127
1.04650	22113
1.04717	22099
1.04783	22085
1.04850	22071
1.04917	22056
1.04983	22042
1.05050	22028
1.05117	22013
1.05183	21999
1.05250	21984
1.05317	21969
1.05383	21955
1.05450	21940
1.05517	21926
1.05583	21911
1.05650	21896
1.05717	21882
1.05783	21867
1.05850	21852
1.05917	21838
1.05983	21823
1.06050	21808
1.06117	21794
1.06183	21779
1.06250	21764
1.06317	21750
1.06383	21735
1.06450	21720
1.06517	21705
1.06583	21691
1.06650	21676
1.06717	21661
1.06783	21647
1.06850	21632
1.06917	21618
1.06983	21603
1.07050	21589
1.07117	21574
1.07183	21560
1.07250	21545
1.07317	21531
1.07383	21517
1.07450	21503
1.07517	21489
1.07583	21475
1.07650	21461
1.07717	21447
1.07783	21433
1.07850	21420
1.07917	21406
1.07983	21393
1.08050	21379
1.08117	21366
1.08183	21353
1.08250	21339
1.08317	21326
1.08383	21313
1.08450	21300
1.08517	21287
1.08583	21275
1.08650	21262
1.08717	21249
1.08783	21237
1.08850	21224
1.08917	21211
1.08983	21199
1.09050	21187
1.09117	21174
1.09183	21162
1.09250	21150
1.09317	21138
1.09383	21126
1.09450	21114
1.09517	21102
1.09583	21090
1.09650	21078
1.09717	21066
1.09783	21054
1.09850	21042
1.09917	21030
1.09983	21018
1.10050	21007
1.10117	20995
1.10183	20983
1.10250	20971
1.10317	20960
1.10383	20948
1.10450	20937
1.10517	20925
1.10583	20914
1.10650	20903
1.10717	20891
1.10783	20880
1.10850	20869
1.10917	20858
1.10983	20847
1.11050	20836
1.11117	20825
1.11183	20814
1.11250	20803
1.11317	20793
1.11383	20782
1.11450	20772
1.11517	20762
1.11583	20751
1.11650	20741
1.11717	20731
1.11783	20721
1.11850	20712
1.11917	20702
1.11983	20692
1.12050	20683
1.12117	20673
1.12183	20664
1.12250	20655
1.12317	20646
1.12383	20638
1.12450	20629
1.12517	20620
1.12583	20612
1.12650	20603
1.12717	20595
1.12783	20587
1.12850	20579
1.12917	20571
1.12983	20563
1.13050	20555
1.13117	20547
1.13183	20539
1.13250	20531
1.13317	20524
1.13383	20516
1.13450	20508
1.13517	20501
1.13583	20494
1.13650	20486
1.13717	20479
1.13783	20471
1.13850	20464
1.13917	20456
1.13983	20449
1.14050	20441
1.14117	20434
1.14183	20426
1.14250	20418
1.14317	20411
1.14383	20403
1.14450	20395
1.14517	20387
1.14583	20380
1.14650	20372
1.14717	20363
1.14783	20355
1.14850	20347
1.14917	20339
1.14983	20331
1.15050	20322
1.15117	20314
1.15183	20305
1.15250	20296
1.15317	20288
1.15383	20279
1.15450	20270
1.15517	20262
1.15583	20253
1.15650	20244
1.15717	20235
1.15783	20226
1.15850	20217
1.15917	20208
1.15983	20199
1.16050	20190
1.16117	20181
1.16183	20172
1.16250	20163
1.16317	20153
1.16383	20144
1.16450	20135
1.16517	20126
1.16583	20117
1.16650	20108
1.16717	20099
1.16783	20090
1.16850	20081
1.16917	20072
1.16983	20062
1.17050	20053
1.17117	20044
1.17183	20035
1.17250	20026
1.17317	20017
1.17383	20008
1.17450	19999
1.17517	19990
1.17583	19982
1.17650	19973
1.17717	19964
1.17783	19955
1.17850	19946
1.17917	19938
1.17983	19929
1.18050	19920
1.18117	19912
1.18183	19903
1.18250	19895
1.18317	19887
1.18383	19879
1.18450	19870
1.18517	19862
1.18583	19854
1.18650	19846
1.18717	19838
1.18783	19831
1.18850	19823
1.18917	19815
1.18983	19807
1.19050	19800
1.19117	19792
1.19183	19785
1.19250	19777
1.19317	19770
1.19383	19763
1.19450	19755
1.19517	19748
1.19583	19741
1.19650	19734
1.19717	19727
1.19783	19720
1.19850	19713
1.19917	19707
1.19983	19700
1.20050	19693
1.20117	19687
1.20183	19681
1.20250	19674
1.20317	19668
1.20383	19662
1.20450	19656
1.20517	19650
1.20583	19645
1.20650	19639
1.20717	19634
1.20783	19628
1.20850	19623
1.20917	19618
1.20983	19614
1.21050	19609
1.21117	19604
1.21183	19600
1.21250	19596
1.21317	19592
1.21383	19588
1.21450	19584
1.21517	19581
1.21583	19577
1.21650	19574
1.21717	19571
1.21783	19568
1.21850	19565
1.21917	19563
1.21983	19560
1.22050	19558
1.22117	19557
1.22183	19555
1.22250	19554
1.22317	19553
1.22383	19552
1.22450	19552
1.22517	19551
1.22583	19551
1.22650	19551
1.22717	19552
1.22783	19552
1.22850	19553
1.22917	19554
1.22983	19555
1.23050	19557
1.23117	19558
1.23183	19560
1.23250	19562
1.23317	19565
1.23383	19567
1.23450	19570
1.23517	19573
1.23583	19577
1.23650	19580
1.23717	19584
1.23783	19589
1.23850	19593
1.23917	19598
1.23983	19604
1.24050	19610
1.24117	19616
1.24183	19623
1.24250	19630
1.24317	19639
1.24383	19647
1.24450	19657
1.24517	19668
1.24583	19679
1.24650	19691
1.24717	19705
1.24783	19720
1.24850	19735
1.24917	19753
1.24983	19771
1.25050	19791
1.25117	19813
1.25183	19836
1.25250	19861
1.25317	19887
1.25383	19915
1.25450	19945
1.25517	19976
1.25583	20008
1.25650	20042
1.25717	20077
1.25783	20114
1.25850	20152
1.25917	20190
1.25983	20230
1.26050	20270
1.26117	20311
1.26183	20352
1.26250	20394
1.26317	20435
1.26383	20477
1.26450	20518
1.26517	20558
1.26583	20598
1.26650	20638
1.26717	20676
1.26783	20714
1.26850	20750
1.26917	20786
1.26983	20820
1.27050	20852
1.27117	20883
1.27183	20913
1.27250	20940
1.27317	20967
1.27383	20991
1.27450	21014
1.27517	21035
1.27583	21054
1.27650	21072
1.27717	21087
1.27783	21101
1.27850	21113
1.27917	21124
1.27983	21133
1.28050	21140
1.28117	21146
1.28183	21150
1.28250	21152
1.28317	21154
1.28383	21153
1.28450	21152
1.28517	21149
1.28583	21144
1.28650	21139
1.28717	21132
1.28783	21124
1.28850	21115
1.28917	21105
1.28983	21094
1.29050	21082
1.29117	21070
1.29183	21056
1.29250	21041
1.29317	21026
1.29383	21010
1.29450	20993
1.29517	20976
1.29583	20958
1.29650	20940
1.29717	20921
1.29783	20902
1.29850	20882
1.29917	20862
1.29983	20841
1.30050	20820
1.30117	20799
1.30183	20777
1.30250	20755
1.30317	20733
1.30383	20711
1.30450	20688
1.30517	20666
1.30583	20643
1.30650	20620
1.30717	20597
1.30783	20573
1.30850	20550
1.30917	20527
1.30983	20503
1.31050	20480
1.31117	20456
1.31183	20433
1.31250	20409
1.31317	20385
1.31383	20361
1.31450	20338
1.31517	20314
1.31583	20290
1.31650	20266
1.31717	20242
1.31783	20218
1.31850	20195
1.31917	20171
1.31983	20147
1.32050	20124
1.32117	20100
1.32183	20077
1.32250	20054
1.32317	20030
1.32383	20007
1.32450	19984
1.32517	19961
1.32583	19938
1.32650	19916
1.32717	19893
1.32783	19871
1.32850	19848
1.32917	19826
1.32983	19805
1.33050	19783
1.33117	19761
1.33183	19740
1.33250	19719
1.33317	19697
1.33383	19676
1.33450	19656
1.33517	19635
1.33583	19615
1.33650	19594
1.33717	19574
1.33783	19554
1.33850	19534
1.33917	19515
1.33983	19495
1.34050	19476
1.34117	19456
1.34183	19438
1.34250	19419
1.34317	19400
1.34383	19382
1.34450	19363
1.34517	19345
1.34583	19327
1.34650	19309
1.34717	19291
1.34783	19274
1.34850	19257
1.34917	19240
1.34983	19223
1.35050	19206
1.35117	19190
1.35183	19174
1.35250	19158
1.35317	19142
1.35383	19126
1.35450	19110
1.35517	19095
1.35583	19080
1.35650	19064
1.35717	19049
1.35783	19035
1.35850	19020
1.35917	19005
1.35983	18991
1.36050	18977
1.36117	18963
1.36183	18949
1.36250	18935
1.36317	18922
1.36383	18908
1.36450	18895
1.36517	18882
1.36583	18869
1.36650	18856
1.36717	18844
1.36783	18831
1.36850	18819
1.36917	18806
1.36983	18794
1.37050	18782
1.37117	18770
1.37183	18758
1.37250	18747
1.37317	18735
1.37383	18724
1.37450	18712
1.37517	18701
1.37583	18690
1.37650	18679
1.37717	18668
1.37783	18657
1.37850	18647
1.37917	18636
1.37983	18626
1.38050	18616
1.38117	18606
1.38183	18596
1.38250	18586
1.38317	18577
1.38383	18567
1.38450	18558
1.38517	18549
1.38583	18540
1.38650	18530
1.38717	18521
1.38783	18512
1.38850	18504
1.38917	18495
1.38983	18486
1.39050	18477
1.39117	18469
1.39183	18460
1.39250	18452
1.39317	18444
1.39383	18435
1.39450	18427
1.39517	18419
1.39583	18411
1.39650	18403
1.39717	18395
1.39783	18387
1.39850	18379
1.39917	18371
1.39983	18363
1.40050	18355
1.40117	18347
1.40183	18339
1.40250	18331
1.40317	18323
1.40383	18315
1.40450	18307
1.40517	18299
1.40583	18290
1.40650	18282
1.40717	18274
1.40783	18266
1.40850	18259
1.40917	18251
1.40983	18243
1.41050	18235
1.41117	18227
1.41183	18219
1.41250	18211
1.41317	18203
1.41383	18195
1.41450	18187
1.41517	18180
1.41583	18172
1.41650	18164
1.41717	18156
1.41783	18148
1.41850	18140
1.41917	18133
1.41983	18125
1.42050	18117
1.42117	18109
1.42183	18102
1.42250	18094
1.42317	18086
1.42383	18079
1.42450	18071
1.42517	18064
1.42583	18056
1.42650	18049
1.42717	18041
1.42783	18034
1.42850	18027
1.42917	18020
1.42983	18013
1.43050	18006
1.43117	17999
1.43183	17992
1.43250	17985
1.43317	17978
1.43383	17971
1.43450	17964
1.43517	17958
1.43583	17951
1.43650	17944
1.43717	17938
1.43783	17931
1.43850	17924
1.43917	17918
1.43983	17912
1.44050	17905
1.44117	17899
1.44183	17893
1.44250	17886
1.44317	17880
1.44383	17874
1.44450	17868
1.44517	17861
1.44583	17855
1.44650	17849
1.44717	17843
1.44783	17837
1.44850	17831
1.44917	17825
1.44983	17819
1.45050	17814
1.45117	17808
1.45183	17802
1.45250	17796
1.45317	17790
1.45383	17785
1.45450	17779
1.45517	17774
1.45583	17768
1.45650	17763
1.45717	17757
1.45783	17751
1.45850	17746
1.45917	17740
1.45983	17735
1.46050	17729
1.46117	17724
1.46183	17718
1.46250	17713
1.46317	17707
1.46383	17702
1.46450	17696
1.46517	17691
1.46583	17685
1.46650	17680
1.46717	17674
1.46783	17669
1.46850	17663
1.46917	17657
1.46983	17652
1.47050	17646
1.47117	17641
1.47183	17635
1.47250	17629
1.47317	17624
1.47383	17618
1.47450	17613
1.47517	17607
1.47583	17601
1.47650	17596
1.47717	17590
1.47783	17585
1.47850	17579
1.47917	17574
1.47983	17568
1.48050	17562
1.48117	17557
1.48183	17551
1.48250	17545
1.48317	17540
1.48383	17534
1.48450	17528
1.48517	17522
1.48583	17516
1.48650	17510
1.48717	17504
1.48783	17498
1.48850	17492
1.48917	17486
1.48983	17479
1.49050	17473
1.49117	17467
1.49183	17461
1.49250	17454
1.49317	17448
1.49383	17442
1.49450	17436
1.49517	17429
1.49583	17423
1.49650	17417
1.49717	17410
1.49783	17404
1.49850	17398
1.49917	17391
1.49983	17385
1.50050	17379
1.50117	17373
1.50183	17366
1.50250	17360
1.50317	17354
1.50383	17348
1.50450	17342
1.50517	17336
1.50583	17330
1.50650	17324
1.50717	17318
1.50783	17312
1.50850	17306
1.50917	17300
1.50983	17294
1.51050	17288
1.51117	17283
1.51183	17277
1.51250	17271
1.51317	17265
1.51383	17260
1.51450	17254
1.51517	17248
1.51583	17242
1.51650	17237
1.51717	17231
1.51783	17226
1.51850	17220
1.51917	17215
1.51983	17209
1.52050	17204
1.52117	17198
1.52183	17193
1.52250	17188
1.52317	17183
1.52383	17178
1.52450	17173
1.52517	17167
1.52583	17162
1.52650	17157
1.52717	17152
1.52783	17147
1.52850	17142
1.52917	17137
1.52983	17132
1.53050	17126
1.53117	17121
1.53183	17116
1.53250	17111
1.53317	17106
1.53383	17101
1.53450	17096
1.53517	17091
1.53583	17086
1.53650	17081
1.53717	17076
1.53783	17071
1.53850	17065
1.53917	17060
1.53983	17055
1.54050	17050
1.54117	17045
1.54183	17040
1.54250	17035
1.54317	17030
1.54383	17024
1.54450	17019
1.54517	17014
1.54583	17009
1.54650	17004
1.54717	16999
1.54783	16994
1.54850	16989
1.54917	16984
1.54983	16979
1.55050	16974
1.55117	16969
1.55183	16964
1.55250	16959
1.55317	16954
1.55383	16949
1.55450	16944
1.55517	16940
1.55583	16935
1.55650	16930
1.55717	16926
1.55783	16921
1.55850	16916
1.55917	16912
1.55983	16907
1.56050	16902
1.56117	16898
1.56183	16893
1.56250	16889
1.56317	16884
1.56383	16880
1.56450	16875
1.56517	16871
1.56583	16866
1.56650	16862
1.56717	16857
1.56783	16853
1.56850	16848
1.56917	16844
1.56983	16839
1.57050	16835
1.57117	16831
1.57183	16826
1.57250	16822
1.57317	16818
1.57383	16813
1.57450	16809
1.57517	16805
1.57583	16801
1.57650	16796
1.57717	16792
1.57783	16788
1.57850	16784
1.57917	16780
1.57983	16775
1.58050	16771
1.58117	16767
1.58183	16763
1.58250	16758
1.58317	16754
1.58383	16750
1.58450	16745
1.58517	16741
1.58583	16737
1.58650	16733
1.58717	16728
1.58783	16724
1.58850	16720
1.58917	16716
1.58983	16712
1.59050	16708
1.59117	16704
1.59183	16700
1.59250	16696
1.59317	16692
1.59383	16688
1.59450	16684
1.59517	16680
1.59583	16675
1.59650	16671
1.59717	16667
1.59783	16663
1.59850	16659
1.59917	16655
1.59983	16652
1.60050	16648
1.60117	16644
1.60183	16640
1.60250	16636
1.60317	16632
1.60383	16628
1.60450	16624
1.60517	16620
1.60583	16616
1.60650	16612
1.60717	16609
1.60783	16605
1.60850	16601
1.60917	16597
1.60983	16593
1.61050	16589
1.61117	16585
1.61183	16581
1.61250	16577
1.61317	16573
1.61383	16569
1.61450	16565
1.61517	16561
1.61583	16556
1.61650	16552
1.61717	16548
1.61783	16544
1.61850	16540
1.61917	16536
1.61983	16532
1.62050	16528
1.62117	16524
1.62183	16521
1.62250	16517
1.62317	16513
1.62383	16509
1.62450	16505
1.62517	16501
1.62583	16497
1.62650	16493
1.62717	16489
1.62783	16485
1.62850	16481
1.62917	16477
1.62983	16473
1.63050	16469
1.63117	16466
1.63183	16462
1.63250	16458
1.63317	16455
1.63383	16451
1.63450	16447
1.63517	16444
1.63583	16440
1.63650	16437
1.63717	16434
1.63783	16430
1.63850	16427
1.63917	16424
1.63983	16421
1.64050	16417
1.64117	16414
1.64183	16411
1.64250	16408
1.64317	16405
1.64383	16402
1.64450	16399
1.64517	16396
1.64583	16393
1.64650	16390
1.64717	16387
1.64783	16385
1.64850	16382
1.64917	16379
1.64983	16376
1.65050	16374
1.65117	16371
1.65183	16368
1.65250	16365
1.65317	16363
1.65383	16360
1.65450	16357
1.65517	16354
1.65583	16351
1.65650	16348
1.65717	16345
1.65783	16342
1.65850	16339
1.65917	16335
1.65983	16332
1.66050	16329
1.66117	16326
1.66183	16323
1.66250	16320
1.66317	16316
1.66383	16313
1.66450	16310
1.66517	16306
1.66583	16303
1.66650	16300
1.66717	16296
1.66783	16293
1.66850	16290
1.66917	16287
1.66983	16283
1.67050	16280
1.67117	16276
1.67183	16273
1.67250	16270
1.67317	16266
1.67383	16263
1.67450	16259
1.67517	16255
1.67583	16252
1.67650	16248
1.67717	16244
1.67783	16241
1.67850	16237
1.67917	16233
1.67983	16230
1.68050	16226
1.68117	16222
1.68183	16218
1.68250	16214
1.68317	16210
1.68383	16206
1.68450	16202
1.68517	16198
1.68583	16194
1.68650	16190
1.68717	16186
1.68783	16182
1.68850	16178
1.68917	16174
1.68983	16170
1.69050	16166
1.69117	16162
1.69183	16158
1.69250	16153
1.69317	16149
1.69383	16145
1.69450	16141
1.69517	16137
1.69583	16133
1.69650	16128
1.69717	16124
1.69783	16120
1.69850	16116
1.69917	16111
1.69983	16107
1.70050	16103
1.70117	16098
1.70183	16094
1.70250	16090
1.70317	16085
1.70383	16081
1.70450	16077
1.70517	16072
1.70583	16068
1.70650	16064
1.70717	16060
1.70783	16055
1.70850	16051
1.70917	16047
1.70983	16043
1.71050	16039
1.71117	16036
1.71183	16032
1.71250	16028
1.71317	16025
1.71383	16021
1.71450	16018
1.71517	16016
1.71583	16014
1.71650	16012
1.71717	16011
1.71783	16011
1.71850	16011
1.71917	16014
1.71983	16017
1.72050	16023
1.72117	16031
1.72183	16041
1.72250	16056
1.72317	16074
1.72383	16098
1.72450	16128
1.72517	16166
1.72583	16212
1.72650	16268
1.72717	16338
1.72783	16422
1.72850	16523
1.72917	16645
1.72983	16791
1.73050	16965
1.73117	17172
1.73183	17415
1.73250	17702
1.73317	18037
1.73383	18429
1.73450	18885
1.73517	19414
1.73583	20025
1.73650	20728
1.73717	21535
1.73783	22456
1.73850	23505
1.73917	24694
1.73983	26038
1.74050	27554
1.74117	29256
1.74183	31160
1.74250	33283
1.74317	35642
1.74383	38254
1.74450	41136
1.74517	44308
1.74583	47788
1.74650	51597
1.74717	55758
1.74783	60292
1.74850	65221
1.74917	70566
1.74983	76349
1.75050	82592
1.75117	89318
1.75183	96551
1.75250	104312
1.75317	112622
1.75383	121502
1.75450	130969
1.75517	141044
1.75583	151744
1.75650	163090
1.75717	175099
1.75783	187790
1.75850	201177
1.75917	215275
1.75983	230095
1.76050	245647
1.76117	261936
1.76183	278966
1.76250	296738
1.76317	315255
1.76383	334513
1.76450	354500
1.76517	375201
1.76583	396599
1.76650	418675
1.76717	441413
1.76783	464794
1.76850	488800
1.76917	513407
1.76983	538579
1.77050	564268
1.77117	590417
1.77183	616951
1.77250	643787
1.77317	670829
1.77383	697981
1.77450	725140
1.77517	752198
1.77583	779045
1.77650	805564
1.77717	831623
1.77783	857089
1.77850	881827
1.77917	905709
1.77983	928610
1.78050	950412
1.78117	971009
1.78183	990306
1.78250	1008220
1.78317	1024677
1.78383	1039622
1.78450	1053016
1.78517	1064837
1.78583	1075078
1.78650	1083745
1.78717	1090853
1.78783	1096432
1.78850	1100518
1.78917	1103158
1.78983	1104403
1.79050	1104310
1.79117	1102939
1.79183	1100353
1.79250	1096617
1.79317	1091798
1.79383	1085963
1.79450	1079178
1.79517	1071510
1.79583	1063021
1.79650	1053776
1.79717	1043833
1.79783	1033253
1.79850	1022089
1.79917	1010396
1.79983	998225
1.80050	985624
1.80117	972638
1.80183	959312
1.80250	945686
1.80317	931798
1.80383	917686
1.80450	903383
1.80517	888922
1.80583	874333
1.80650	859644
1.80717	844881
1.80783	830069
1.80850	815232
1.80917	800390
1.80983	785563
1.81050	770771
1.81117	756030
1.81183	741356
1.81250	726765
1.81317	712269
1.81383	697882
1.81450	683615
1.81517	669478
1.81583	655482
1.81650	641634
1.81717	627943
1.81783	614416
1.81850	601060
1.81917	587880
1.81983	574881
1.82050	562068
1.82117	549445
1.82183	537014
1.82250	524779
1.82317	512743
1.82383	500906
1.82450	489272
1.82517	477840
1.82583	466612
1.82650	455588
1.82717	444768
1.82783	434152
1.82850	423741
1.82917	413532
1.82983	403526
1.83050	393721
1.83117	384117
1.83183	374711
1.83250	365503
1.83317	356490
1.83383	347671
1.83450	339043
1.83517	330604
1.83583	322352
1.83650	314285
1.83717	306400
1.83783	298696
1.83850	291168
1.83917	283815
1.83983	276634
1.84050	269622
1.84117	262777
1.84183	256096
1.84250	249576
1.84317	243214
1.84383	237008
1.84450	230955
1.84517	225052
1.84583	219295
1.84650	213684
1.84717	208214
1.84783	202883
1.84850	197688
1.84917	192627
1.84983	187696
1.85050	182894
1.85117	178217
1.85183	173662
1.85250	169228
1.85317	164910
1.85383	160708
1.85450	156617
1.85517	152636
1.85583	148762
1.85650	144993
1.85717	141326
1.85783	137758
1.85850	134288
1.85917	130913
1.85983	127631
1.86050	124439
1.86117	121335
1.86183	118318
1.86250	115384
1.86317	112532
1.86383	109760
1.86450	107065
1.86517	104446
1.86583	101900
1.86650	99426
1.86717	97022
1.86783	94685
1.86850	92415
1.86917	90208
1.86983	88064
1.87050	85981
1.87117	83958
1.87183	81991
1.87250	80081
1.87317	78225
1.87383	76423
1.87450	74672
1.87517	72971
1.87583	71318
1.87650	69714
1.87717	68155
1.87783	66641
1.87850	65171
1.87917	63744
1.87983	62357
1.88050	61011
1.88117	59704
1.88183	58435
1.88250	57203
1.88317	56007
1.88383	54846
1.88450	53719
1.88517	52624
1.88583	51562
1.88650	50532
1.88717	49531
1.88783	48561
1.88850	47619
1.88917	46705
1.88983	45818
1.89050	44958
1.89117	44124
1.89183	43314
1.89250	42529
1.89317	41767
1.89383	41028
1.89450	40312
1.89517	39617
1.89583	38943
1.89650	38289
1.89717	37655
1.89783	37040
1.89850	36444
1.89917	35866
1.89983	35306
1.90050	34763
1.90117	34236
1.90183	33725
1.90250	33230
1.90317	32750
1.90383	32285
1.90450	31834
1.90517	31397
1.90583	30973
1.90650	30563
1.90717	30165
1.90783	29778
1.90850	29404
1.90917	29041
1.90983	28690
1.91050	28348
1.91117	28018
1.91183	27697
1.91250	27386
1.91317	27085
1.91383	26792
1.91450	26509
1.91517	26234
1.91583	25967
1.91650	25709
1.91717	25458
1.91783	25214
1.91850	24978
1.91917	24748
1.91983	24526
1.92050	24310
1.92117	24100
1.92183	23896
1.92250	23698
1.92317	23506
1.92383	23320
1.92450	23138
1.92517	22962
1.92583	22792
1.92650	22626
1.92717	22464
1.92783	22308
1.92850	22156
1.92917	22008
1.92983	21864
1.93050	21724
1.93117	21588
1.93183	21455
1.93250	21327
1.93317	21201
1.93383	21080
1.93450	20961
1.93517	20846
1.93583	20734
1.93650	20625
1.93717	20519
1.93783	20416
1.93850	20316
1.93917	20218
1.93983	20123
1.94050	20030
1.94117	19940
1.94183	19851
1.94250	19766
1.94317	19682
1.94383	19600
1.94450	19521
1.94517	19444
1.94583	19368
1.94650	19294
1.94717	19223
1.94783	19152
1.94850	19084
1.94917	19017
1.94983	18952
1.95050	18888
1.95117	18826
1.95183	18765
1.95250	18705
1.95317	18647
1.95383	18591
1.95450	18535
1.95517	18482
1.95583	18429
1.95650	18377
1.95717	18327
1.95783	18278
1.95850	18230
1.95917	18183
1.95983	18137
1.96050	18092
1.96117	18048
1.96183	18005
1.96250	17963
1.96317	17922
1.96383	17882
1.96450	17842
1.96517	17804
1.96583	17766
1.96650	17729
1.96717	17692
1.96783	17657
1.96850	17622
1.96917	17587
1.96983	17553
1.97050	17520
1.97117	17488
1.97183	17455
1.97250	17424
1.97317	17393
1.97383	17362
1.97450	17333
1.97517	17303
1.97583	17275
1.97650	17246
1.97717	17218
1.97783	17191
1.97850	17164
1.97917	17138
1.97983	17112
1.98050	17087
1.98117	17062
1.98183	17037
1.98250	17013
1.98317	16989
1.98383	16966
1.98450	16943
1.98517	16920
1.98583	16898
1.98650	16877
1.98717	16855
1.98783	16834
1.98850	16813
1.98917	16793
1.98983	16773
1.99050	16753
1.99117	16734
1.99183	16714
1.99250	16695
1.99317	16677
1.99383	16658
1.99450	16640
1.99517	16622
1.99583	16604
1.99650	16586
1.99717	16569
1.99783	16552
1.99850	16535
1.99917	16518
1.99983	16501
2.00050	16485
2.00117	16469
2.00183	16453
2.00250	16437
2.00317	16421
2.00383	16405
2.00450	16390
2.00517	16375
2.00583	16360
2.00650	16345
2.00717	16330
2.00783	16315
2.00850	16301
2.00917	16286
2.00983	16272
2.01050	16257
2.01117	16243
2.01183	16229
2.01250	16215
2.01317	16201
2.01383	16187
2.01450	16174
2.01517	16160
2.01583	16146
2.01650	16133
2.01717	16119
2.01783	16106
2.01850	16093
2.01917	16080
2.01983	16067
2.02050	16054
2.02117	16041
2.02183	16028
2.02250	16016
2.02317	16003
2.02383	15991
2.02450	15978
2.02517	15966
2.02583	15953
2.02650	15941
2.02717	15929
2.02783	15917
2.02850	15905
2.02917	15893
2.02983	15881
2.03050	15869
2.03117	15858
2.03183	15846
2.03250	15835
2.03317	15824
2.03383	15812
2.03450	15801
2.03517	15790
2.03583	15779
2.03650	15768
2.03717	15757
2.03783	15747
2.03850	15736
2.03917	15725
2.03983	15715
2.04050	15704
2.04117	15694
2.04183	15683
2.04250	15673
2.04317	15663
2.04383	15652
2.04450	15642
2.04517	15632
2.04583	15622
2.04650	15612
2.04717	15602
2.04783	15592
2.04850	15582
2.04917	15572
2.04983	15562
2.05050	15553
2.05117	15543
2.05183	15534
2.05250	15524
2.05317	15515
2.05383	15506
2.05450	15497
2.05517	15488
2.05583	15479
2.05650	15470
2.05717	15462
2.05783	15453
2.05850	15445
2.05917	15436
2.05983	15428
2.06050	15419
2.06117	15411
2.06183	15403
2.06250	15394
2.06317	15386
2.06383	15378
2.06450	15369
2.06517	15361
2.06583	15353
2.06650	15345
2.06717	15337
2.06783	15328
2.06850	15320
2.06917	15312
2.06983	15303
2.07050	15295
2.07117	15287
2.07183	15279
2.07250	15270
2.07317	15262
2.07383	15253
2.07450	15245
2.07517	15237
2.07583	15229
2.07650	15220
2.07717	15212
2.07783	15204
2.07850	15196
2.07917	15188
2.07983	15180
2.08050	15172
2.08117	15164
2.08183	15157
2.08250	15149
2.08317	15141
2.08383	15134
2.08450	15126
2.08517	15119
2.08583	15111
2.08650	15104
2.08717	15096
2.08783	15089
2.08850	15081
2.08917	15074
2.08983	15067
2.09050	15059
2.09117	15052
2.09183	15044
2.09250	15037
2.09317	15030
2.09383	15022
2.09450	15015
2.09517	15008
2.09583	15000
2.09650	14993
2.09717	14985
2.09783	14978
2.09850	14971
2.09917	14963
2.09983	14956
2.10050	14948
2.10117	14941
2.10183	14934
2.10250	14926
2.10317	14919
2.10383	14912
2.10450	14904
2.10517	14897
2.10583	14890
2.10650	14882
2.10717	14875
2.10783	14868
2.10850	14861
2.10917	14854
2.10983	14847
2.11050	14840
2.11117	14833
2.11183	14825
2.11250	14818
2.11317	14811
2.11383	14804
2.11450	14797
2.11517	14791
2.11583	14784
2.11650	14777
2.11717	14770
2.11783	14763
2.11850	14756
2.11917	14749
2.11983	14743
2.12050	14736
2.12117	14729
2.12183	14722
2.12250	14716
2.12317	14709
2.12383	14702
2.12450	14695
2.12517	14688
2.12583	14681
2.12650	14675
2.12717	14668
2.12783	14661
2.12850	14654
2.12917	14647
2.12983	14640
2.13050	14633
2.13117	14625
2.13183	14618
2.13250	14611
2.13317	14604
2.13383	14596
2.13450	14589
2.13517	14582
2.13583	14574
2.13650	14567
2.13717	14560
2.13783	14552
2.13850	14545
2.13917	14538
2.13983	14530
2.14050	14523
2.14117	14516
2.14183	14509
2.14250	14502
2.14317	14494
2.14383	14487
2.14450	14480
2.14517	14473
2.14583	14466
2.14650	14459
2.14717	14452
2.14783	14444
2.14850	14437
2.14917	14430
2.14983	14423
2.15050	14416
2.15117	14409
2.15183	14403
2.15250	14396
2.15317	14389
2.15383	14382
2.15450	14375
2.15517	14368
2.15583	14361
2.15650	14354
2.15717	14347
2.15783	14340
2.15850	14333
2.15917	14325
2.15983	14318
2.16050	14311
2.16117	14304
2.16183	14297
2.16250	14290
2.16317	14284
2.16383	14277
2.16450	14270
2.16517	14263
2.16583	14256
2.16650	14250
2.16717	14243
2.16783	14236
2.16850	14230
2.16917	14223
2.16983	14217
2.17050	14210
2.17117	14204
2.17183	14198
2.17250	14192
2.17317	14185
2.17383	14179
2.17450	14173
2.17517	14167
2.17583	14161
2.17650	14155
2.17717	14149
2.17783	14143
2.17850	14137
2.17917	14131
2.17983	14125
2.18050	14119
2.18117	14113
2.18183	14107
2.18250	14102
2.18317	14096
2.18383	14090
2.18450	14084
2.18517	14078
2.18583	14072
2.18650	14066
2.18717	14060
2.18783	14054
2.18850	14048
2.18917	14042
2.18983	14037
2.19050	14031
2.19117	14025
2.19183	14020
2.19250	14014
2.19317	14008
2.19383	14003
2.19450	13997
2.19517	13992
2.19583	13987
2.19650	13981
2.19717	13976
2.19783	13971
2.19850	13966
2.19917	13961
2.19983	13956
2.20050	13951
2.20117	13947
2.20183	13942
2.20250	13937
2.20317	13933
2.20383	13929
2.20450	13924
2.20517	13920
2.20583	13916
2.20650	13912
2.20717	13908
2.20783	13905
2.20850	13901
2.20917	13898
2.20983	13894
2.21050	13891
2.21117	13888
2.21183	13885
2.21250	13883
2.21317	13880
2.21383	13878
2.21450	13876
2.21517	13874
2.21583	13872
2.21650	13870
2.21717	13869
2.21783	13867
2.21850	13866
2.21917	13865
2.21983	13864
2.22050	13863
2.22117	13862
2.22183	13861
2.22250	13861
2.22317	13860
2.22383	13859
2.22450	13859
2.22517	13858
2.22583	13857
2.22650	13857
2.22717	13856
2.22783	13855
2.22850	13854
2.22917	13853
2.22983	13852
2.23050	13850
2.23117	13849
2.23183	13847
2.23250	13846
2.23317	13844
2.23383	13842
2.23450	13840
2.23517	13838
2.23583	13836
2.23650	13833
2.23717	13831
2.23783	13828
2.23850	13825
2.23917	13823
2.23983	13820
2.24050	13817
2.24117	13814
2.24183	13811
2.24250	13808
2.24317	13804
2.24383	13801
2.24450	13798
2.24517	13794
2.24583	13791
2.24650	13787
2.24717	13784
2.24783	13780
2.24850	13777
2.24917	13773
2.24983	13769
2.25050	13765
2.25117	13762
2.25183	13758
2.25250	13754
2.25317	13750
2.25383	13747
2.25450	13743
2.25517	13739
2.25583	13735
2.25650	13731
2.25717	13727
2.25783	13723
2.25850	13719
2.25917	13715
2.25983	13711
2.26050	13707
2.26117	13703
2.26183	13699
2.26250	13695
2.26317	13691
2.26383	13687
2.26450	13683
2.26517	13678
2.26583	13674
2.26650	13670
2.26717	13665
2.26783	13661
2.26850	13657
2.26917	13652
2.26983	13648
2.27050	13643
2.27117	13638
2.27183	13634
2.27250	13629
2.27317	13625
2.27383	13620
2.27450	13615
2.27517	13611
2.27583	13606
2.27650	13601
2.27717	13596
2.27783	13591
2.27850	13586
2.27917	13581
2.27983	13576
2.28050	13571
2.28117	13566
2.28183	13561
2.28250	13556
2.28317	13552
2.28383	13547
2.28450	13542
2.28517	13537
2.28583	13532
2.28650	13527
2.28717	13522
2.28783	13517
2.28850	13512
2.28917	13507
2.28983	13502
2.29050	13498
2.29117	13493
2.29183	13488
2.29250	13483
2.29317	13478
2.29383	13474
2.29450	13469
2.29517	13464
2.29583	13460
2.29650	13455
2.29717	13450
2.29783	13446
2.29850	13441
2.29917	13437
2.29983	13432
2.30050	13428
2.30117	13423
2.30183	13419
2.30250	13415
2.30317	13410
2.30383	13406
2.30450	13402
2.30517	13398
2.30583	13393
2.30650	13389
2.30717	13385
2.30783	13381
2.30850	13377
2.30917	13373
2.30983	13369
2.31050	13365
2.31117	13361
2.31183	13357
2.31250	13353
2.31317	13349
2.31383	13345
2.31450	13341
2.31517	13337
2.31583	13333
2.31650	13329
2.31717	13325
2.31783	13322
2.31850	13318
2.31917	13314
2.31983	13310
2.32050	13307
2.32117	13303
2.32183	13300
2.32250	13296
2.32317	13293
2.32383	13289
2.32450	13286
2.32517	13282
2.32583	13279
2.32650	13276
2.32717	13272
2.32783	13269
2.32850	13266
2.32917	13262
2.32983	13259
2.33050	13256
2.33117	13252
2.33183	13249
2.33250	13246
2.33317	13243
2.33383	13240
2.33450	13236
2.33517	13233
2.33583	13230
2.33650	13227
2.33717	13224
2.33783	13221
2.33850	13218
2.33917	13215
2.33983	13212
2.34050	13209
2.34117	13206
2.34183	13203
2.34250	13200
2.34317	13197
2.34383	13194
2.34450	13191
2.34517	13189
2.34583	13186
2.34650	13183
2.34717	13180
2.34783	13177
2.34850	13175
2.34917	13172
2.34983	13169
2.35050	13166
2.35117	13164
2.35183	13161
2.35250	13158
2.35317	13156
2.35383	13153
2.35450	13150
2.35517	13148
2.35583	13145
2.35650	13142
2.35717	13140
2.35783	13137
2.35850	13134
2.35917	13131
2.35983	13129
2.36050	13126
2.36117	13123
2.36183	13121
2.36250	13118
2.36317	13115
2.36383	13113
2.36450	13110
2.36517	13107
2.36583	13105
2.36650	13102
2.36717	13099
2.36783	13097
2.36850	13094
2.36917	13091
2.36983	13089
2.37050	13086
2.37117	13083
2.37183	13081
2.37250	13078
2.37317	13075
2.37383	13072
2.37450	13070
2.37517	13067
2.37583	13064
2.37650	13061
2.37717	13059
2.37783	13056
2.37850	13053
2.37917	13050
2.37983	13048
2.38050	13045
2.38117	13042
2.38183	13039
2.38250	13036
2.38317	13034
2.38383	13031
2.38450	13028
2.38517	13024
2.38583	13021
2.38650	13018
2.38717	13015
2.38783	13012
2.38850	13009
2.38917	13005
2.38983	13002
2.39050	12999
2.39117	12996
2.39183	12992
2.39250	12989
2.39317	12986
2.39383	12982
2.39450	12979
2.39517	12976
2.39583	12973
2.39650	12969
2.39717	12966
2.39783	12963
2.39850	12960
2.39917	12957
2.39983	12954
2.40050	12950
2.40117	12947
2.40183	12944
2.40250	12941
2.40317	12938
2.40383	12935
2.40450	12932
2.40517	12929
2.40583	12926
2.40650	12923
2.40717	12920
2.40783	12917
2.40850	12914
2.40917	12911
2.40983	12908
2.41050	12906
2.41117	12903
2.41183	12900
2.41250	12897
2.41317	12894
2.41383	12891
2.41450	12888
2.41517	12885
2.41583	12882
2.41650	12879
2.41717	12876
2.41783	12874
2.41850	12871
2.41917	12868
2.41983	12865
2.42050	12862
2.42117	12860
2.42183	12857
2.42250	12854
2.42317	12851
2.42383	12849
2.42450	12846
2.42517	12843
2.42583	12840
2.42650	12838
2.42717	12835
2.42783	12832
2.42850	12829
2.42917	12826
2.42983	12823
2.43050	12820
2.43117	12817
2.43183	12814
2.43250	12811
2.43317	12808
2.43383	12805
2.43450	12802
2.43517	12798
2.43583	12795
2.43650	12792
2.43717	12789
2.43783	12785
2.43850	12782
2.43917	12779
2.43983	12775
2.44050	12772
2.44117	12769
2.44183	12765
2.44250	12762
2.44317	12759
2.44383	12755
2.44450	12752
2.44517	12748
2.44583	12744
2.44650	12741
2.44717	12737
2.44783	12733
2.44850	12729
2.44917	12726
2.44983	12722
2.45050	12718
2.45117	12714
2.45183	12710
2.45250	12706
2.45317	12702
2.45383	12698
2.45450	12693
2.45517	12689
2.45583	12685
2.45650	12681
2.45717	12677
2.45783	12673
2.45850	12669
2.45917	12664
2.45983	12660
2.46050	12656
2.46117	12652
2.46183	12648
2.46250	12644
2.46317	12640
2.46383	12636
2.46450	12632
2.46517	12627
2.46583	12623
2.46650	12619
2.46717	12615
2.46783	12611
2.46850	12606
2.46917	12602
2.46983	12598
2.47050	12594
2.47117	12590
2.47183	12585
2.47250	12581
2.47317	12577
2.47383	12573
2.47450	12569
2.47517	12564
2.47583	12560
2.47650	12556
2.47717	12551
2.47783	12547
2.47850	12543
2.47917	12539
2.47983	12534
2.48050	12530
2.48117	12526
2.48183	12521
2.48250	12517
2.48317	12513
2.48383	12508
2.48450	12504
2.48517	12500
2.48583	12495
2.48650	12491
2.48717	12486
2.48783	12482
2.48850	12477
2.48917	12473
2.48983	12468
2.49050	12463
2.49117	12459
2.49183	12454
2.49250	12450
2.49317	12445
2.49383	12440
2.49450	12436
2.49517	12431
2.49583	12426
2.49650	12422
2.49717	12417
2.49783	12413
2.49850	12408
2.49917	12403
2.49983	12399
2.50050	12394
2.50117	12389
2.50183	12384
2.50250	12379
2.50317	12375
2.50383	12370
2.50450	12365
2.50517	12360
2.50583	12355
2.50650	12350
2.50717	12345
2.50783	12340
2.50850	12335
2.50917	12330
2.50983	12325
2.51050	12320
2.51117	12315
2.51183	12310
2.51250	12305
2.51317	12300
2.51383	12295
2.51450	12290
2.51517	12285
2.51583	12280
2.51650	12275
2.51717	12270
2.51783	12264
2.51850	12259
2.51917	12254
2.51983	12249
2.52050	12244
2.52117	12238
2.52183	12233
2.52250	12228
2.52317	12223
2.52383	12217
2.52450	12212
2.52517	12207
2.52583	12202
2.52650	12196
2.52717	12191
2.52783	12186
2.52850	12181
2.52917	12176
2.52983	12171
2.53050	12166
2.53117	12161
2.53183	12156
2.53250	12151
2.53317	12146
2.53383	12141
2.53450	12136
2.53517	12131
2.53583	12127
2.53650	12122
2.53717	12117
2.53783	12112
2.53850	12108
2.53917	12103
2.53983	12098
2.54050	12093
2.54117	12089
2.54183	12084
2.54250	12079
2.54317	12075
2.54383	12070
2.54450	12065
2.54517	12060
2.54583	12056
2.54650	12051
2.54717	12046
2.54783	12041
2.54850	12037
2.54917	12032
2.54983	12027
2.55050	12023
2.55117	12018
2.55183	12014
2.55250	12009
2.55317	12004
2.55383	12000
2.55450	11995
2.55517	11991
2.55583	11986
2.55650	11982
2.55717	11977
2.55783	11973
2.55850	11969
2.55917	11964
2.55983	11960
2.56050	11955
2.56117	11951
2.56183	11947
2.56250	11942
2.56317	11938
2.56383	11934
2.56450	11929
2.56517	11925
2.56583	11921
2.56650	11917
2.56717	11912
2.56783	11908
2.56850	11904
2.56917	11900
2.56983	11896
2.57050	11892
2.57117	11888
2.57183	11884
2.57250	11881
2.57317	11877
2.57383	11873
2.57450	11870
2.57517	11866
2.57583	11863
2.57650	11859
2.57717	11856
2.57783	11853
2.57850	11849
2.57917	11846
2.57983	11842
2.58050	11839
2.58117	11836
2.58183	11833
2.58250	11829
2.58317	11826
2.58383	11823
2.58450	11820
2.58517	11817
2.58583	11814
2.58650	11811
2.58717	11808
2.58783	11805
2.58850	11802
2.58917	11799
2.58983	11796
2.59050	11793
2.59117	11790
2.59183	11787
2.59250	11784
2.59317	11781
2.59383	11778
2.59450	11776
2.59517	11773
2.59583	11770
2.59650	11767
2.59717	11765
2.59783	11762
2.59850	11759
2.59917	11757
2.59983	11754
2.60050	11752
2.60117	11750
2.60183	11747
2.60250	11745
2.60317	11743
2.60383	11740
2.60450	11738
2.60517	11736
2.60583	11734
2.60650	11732
2.60717	11730
2.60783	11728
2.60850	11726
2.60917	11723
2.60983	11721
2.61050	11719
2.61117	11717
2.61183	11715
2.61250	11712
2.61317	11710
2.61383	11708
2.61450	11706
2.61517	11703
2.61583	11701
2.61650	11699
2.61717	11697
2.61783	11694
2.61850	11692
2.61917	11690
2.61983	11688
2.62050	11685
2.62117	11683
2.62183	11681
2.62250	11678
2.62317	11676
2.62383	11673
2.62450	11671
2.62517	11668
2.62583	11666
2.62650	11663
2.62717	11661
2.62783	11658
2.62850	11656
2.62917	11653
2.62983	11650
2.63050	11648
2.63117	11645
2.63183	11642
2.63250	11639
2.63317	11636
2.63383	11633
2.63450	11630
2.63517	11627
2.63583	11624
2.63650	11621
2.63717	11618
2.63783	11615
2.63850	11612
2.63917	11608
2.63983	11605
2.64050	11601
2.64117	11598
2.64183	11595
2.64250	11591
2.64317	11587
2.64383	11584
2.64450	11580
2.64517	11577
2.64583	11573
2.64650	11569
2.64717	11566
2.64783	11562
2.64850	11558
2.64917	11555
2.64983	11551
2.65050	11547
2.65117	11543
2.65183	11540
2.65250	11536
2.65317	11532
2.65383	11528
2.65450	11525
2.65517	11521
2.65583	11517
2.65650	11513
2.65717	11509
2.65783	11506
2.65850	11502
2.65917	11498
2.65983	11494
2.66050	11490
2.66117	11486
2.66183	11482
2.66250	11478
2.66317	11474
2.66383	11470
2.66450	11466
2.66517	11462
2.66583	11458
2.66650	11454
2.66717	11449
2.66783	11445
2.66850	11441
2.66917	11437
2.66983	11432
2.67050	11428
2.67117	11424
2.67183	11419
2.67250	11415
2.67317	11411
2.67383	11406
2.67450	11402
2.67517	11397
2.67583	11393
2.67650	11389
2.67717	11384
2.67783	11380
2.67850	11376
2.67917	11371
2.67983	11367
2.68050	11363
2.68117	11358
2.68183	11354
2.68250	11350
2.68317	11345
2.68383	11341
2.68450	11337
2.68517	11332
2.68583	11328
2.68650	11324
2.68717	11320
2.68783	11315
2.68850	11311
2.68917	11307
2.68983	11303
2.69050	11299
2.69117	11294
2.69183	11290
2.69250	11286
2.69317	11282
2.69383	11278
2.69450	11274
2.69517	11270
2.69583	11266
2.69650	11262
2.69717	11258
2.69783	11254
2.69850	11250
2.69917	11246
2.69983	11242
2.70050	11238
2.70117	11234
2.70183	11230
2.70250	11227
2.70317	11223
2.70383	11219
2.70450	11215
2.70517	11211
2.70583	11207
2.70650	11204
2.70717	11200
2.70783	11196
2.70850	11193
2.70917	11189
2.70983	11185
2.71050	11182
2.71117	11178
2.71183	11174
2.71250	11171
2.71317	11167
2.71383	11163
2.71450	11160
2.71517	11156
2.71583	11153
2.71650	11149
2.71717	11146
2.71783	11142
2.71850	11139
2.71917	11136
2.71983	11132
2.72050	11129
2.72117	11126
2.72183	11123
2.72250	11120
2.72317	11116
2.72383	11113
2.72450	11110
2.72517	11107
2.72583	11104
2.72650	11101
2.72717	11099
2.72783	11096
2.72850	11093
2.72917	11090
2.72983	11087
2.73050	11084
2.73117	11081
2.73183	11078
2.73250	11075
2.73317	11073
2.73383	11070
2.73450	11067
2.73517	11064
2.73583	11061
2.73650	11059
2.73717	11056
2.73783	11053
2.73850	11050
2.73917	11048
2.73983	11045
2.74050	11042
2.74117	11040
2.74183	11037
2.74250	11035
2.74317	11033
2.74383	11030
2.74450	11028
2.74517	11026
2.74583	11024
2.74650	11022
2.74717	11020
2.74783	11017
2.74850	11015
2.74917	11013
2.74983	11011
2.75050	11009
2.75117	11007
2.75183	11006
2.75250	11004
2.75317	11002
2.75383	11000
2.75450	10999
2.75517	10997
2.75583	10995
2.75650	10994
2.75717	10992
2.75783	10991
2.75850	10989
2.75917	10988
2.75983	10986
2.76050	10985
2.76117	10984
2.76183	10982
2.76250	10981
2.76317	10980
2.76383	10978
2.76450	10977
2.76517	10976
2.76583	10975
2.76650	10974
2.76717	10973
2.76783	10971
2.76850	10970
2.76917	10969
2.76983	10968
2.77050	10967
2.77117	10966
2.77183	10966
2.77250	10965
2.77317	10964
2.77383	10963
2.77450	10963
2.77517	10962
2.77583	10961
2.77650	10961
2.77717	10961
2.77783	10960
2.77850	10960
2.77917	10960
2.77983	10960
2.78050	10960
2.78117	10960
2.78183	10960
2.78250	10960
2.78317	10961
2.78383	10961
2.78450	10961
2.78517	10962
2.78583	10962
2.78650	10963
2.78717	10964
2.78783	10965
2.78850	10965
2.78917	10967
2.78983	10968
2.79050	10969
2.79117	10970
2.79183	10972
2.79250	10973
2.79317	10975
2.79383	10977
2.79450	10979
2.79517	10981
2.79583	10984
2.79650	10986
2.79717	10989
2.79783	10992
2.79850	10995
2.79917	10998
2.79983	11001
2.80050	11005
2.80117	11008
2.80183	11012
2.80250	11016
2.80317	11020
2.80383	11024
2.80450	11029
2.80517	11033
2.80583	11038
2.80650	11042
2.80717	11047
2.80783	11052
2.80850	11057
2.80917	11062
2.80983	11068
2.81050	11073
2.81117	11078
2.81183	11083
2.81250	11088
2.81317	11094
2.81383	11099
2.81450	11104
2.81517	11109
2.81583	11114
2.81650	11119
2.81717	11124
2.81783	11129
2.81850	11134
2.81917	11139
2.81983	11144
2.82050	11148
2.82117	11153
2.82183	11157
2.82250	11161
2.82317	11165
2.82383	11169
2.82450	11173
2.82517	11176
2.82583	11179
2.82650	11182
2.82717	11185
2.82783	11188
2.82850	11190
2.82917	11192
2.82983	11194
2.83050	11196
2.83117	11197
2.83183	11198
2.83250	11199
2.83317	11200
2.83383	11200
2.83450	11200
2.83517	11199
2.83583	11199
2.83650	11198
2.83717	11197
2.83783	11195
2.83850	11193
2.83917	11191
2.83983	11189
2.84050	11186
2.84117	11183
2.84183	11180
2.84250	11177
2.84317	11173
2.84383	11170
2.84450	11166
2.84517	11162
2.84583	11157
2.84650	11153
2.84717	11148
2.84783	11143
2.84850	11138
2.84917	11132
2.84983	11127
2.85050	11121
2.85117	11115
2.85183	11110
2.85250	11103
2.85317	11097
2.85383	11091
2.85450	11085
2.85517	11078
2.85583	11072
2.85650	11065
2.85717	11059
2.85783	11052
2.85850	11045
2.85917	11038
2.85983	11032
2.86050	11025
2.86117	11018
2.86183	11012
2.86250	11005
2.86317	10999
2.86383	10992
2.86450	10986
2.86517	10979
2.86583	10973
2.86650	10966
2.86717	10960
2.86783	10954
2.86850	10948
2.86917	10942
2.86983	10936
2.87050	10931
2.87117	10925
2.87183	10920
2.87250	10914
2.87317	10909
2.87383	10904
2.87450	10898
2.87517	10894
2.87583	10889
2.87650	10884
2.87717	10880
2.87783	10875
2.87850	10871
2.87917	10867
2.87983	10864
2.88050	10860
2.88117	10857
2.88183	10854
2.88250	10851
2.88317	10848
2.88383	10846
2.88450	10843
2.88517	10841
2.88583	10839
2.88650	10838
2.88717	10837
2.88783	10836
2.88850	10835
2.88917	10834
2.88983	10834
2.89050	10834
2.89117	10834
2.89183	10834
2.89250	10835
2.89317	10835
2.89383	10836
2.89450	10838
2.89517	10839
2.89583	10840
2.89650	10842
2.89717	10844
2.89783	10846
2.89850	10848
2.89917	10850
2.89983	10853
2.90050	10855
2.90117	10858
2.90183	10861
2.90250	10863
2.90317	10866
2.90383	10869
2.90450	10872
2.90517	10875
2.90583	10878
2.90650	10881
2.90717	10884
2.90783	10886
2.90850	10889
2.90917	10892
2.90983	10894
2.91050	10897
2.91117	10899
2.91183	10901
2.91250	10903
2.91317	10905
2.91383	10907
2.91450	10908
2.91517	10909
2.91583	10910
2.91650	10911
2.91717	10912
2.91783	10912
2.91850	10912
2.91917	10912
2.91983	10911
2.92050	10910
2.92117	10909
2.92183	10908
2.92250	10906
2.92317	10904
2.92383	10902
2.92450	10899
2.92517	10896
2.92583	10893
2.92650	10889
2.92717	10886
2.92783	10881
2.92850	10877
2.92917	10873
2.92983	10868
2.93050	10863
2.93117	10857
2.93183	10852
2.93250	10846
2.93317	10840
2.93383	10834
2.93450	10827
2.93517	10820
2.93583	10813
2.93650	10806
2.93717	10799
2.93783	10792
2.93850	10784
2.93917	10776
2.93983	10769
2.94050	10760
2.94117	10752
2.94183	10744
2.94250	10736
2.94317	10727
2.94383	10719
2.94450	10710
2.94517	10701
2.94583	10693
2.94650	10684
2.94717	10675
2.94783	10666
2.94850	10657
2.94917	10648
2.94983	10639
2.95050	10630
2.95117	10621
2.95183	10612
2.95250	10603
2.95317	10594
2.95383	10585
2.95450	10576
2.95517	10567
2.95583	10558
2.95650	10549
2.95717	10541
2.95783	10532
2.95850	10523
2.95917	10514
2.95983	10506
2.96050	10497
2.96117	10488
2.96183	10480
2.96250	10471
2.96317	10463
2.96383	10454
2.96450	10446
2.96517	10438
2.96583	10430
2.96650	10422
2.96717	10414
2.96783	10406
2.96850	10398
2.96917	10390
2.96983	10382
2.97050	10375
2.97117	10367
2.97183	10360
2.97250	10352
2.97317	10345
2.97383	10338
2.97450	10331
2.97517	10324
2.97583	10317
2.97650	10310
2.97717	10303
2.97783	10296
2.97850	10290
2.97917	10283
2.97983	10277
2.98050	10270
2.98117	10264
2.98183	10258
2.98250	10252
2.98317	10246
2.98383	10240
2.98450	10234
2.98517	10228
2.98583	10223
2.98650	10217
2.98717	10211
2.98783	10206
2.98850	10201
2.98917	10195
2.98983	10190
2.99050	10185
2.99117	10180
2.99183	10175
2.99250	10170
2.99317	10165
2.99383	10160
2.99450	10155
2.99517	10150
2.99583	10145
2.99650	10141
2.99717	10136
2.99783	10131
2.99850	10127
2.99917	10122
2.99983	10118
3.00050	10113
3.00117	10109
3.00183	10105
3.00250	10100
3.00317	10096
3.00383	10092
3.00450	10087
3.00517	10083
3.00583	10079
3.00650	10075
3.00717	10071
3.00783	10067
3.00850	10063
3.00917	10060
3.00983	10056
3.01050	10052
3.01117	10048
3.01183	10045
3.01250	10041
3.01317	10038
3.01383	10034
3.01450	10031
3.01517	10027
3.01583	10024
3.01650	10020
3.01717	10017
3.01783	10013
3.01850	10010
3.01917	10006
3.01983	10003
3.02050	9999
3.02117	9996
3.02183	9993
3.02250	9990
3.02317	9987
3.02383	9983
3.02450	9980
3.02517	9977
3.02583	9974
3.02650	9972
3.02717	9969
3.02783	9966
3.02850	9963
3.02917	9960
3.02983	9957
3.03050	9954
3.03117	9952
3.03183	9949
3.03250	9946
3.03317	9944
3.03383	9941
3.03450	9938
3.03517	9936
3.03583	9933
3.03650	9931
3.03717	9928
3.03783	9926
3.03850	9923
3.03917	9921
3.03983	9919
3.04050	9916
3.04117	9914
3.04183	9911
3.04250	9909
3.04317	9907
3.04383	9904
3.04450	9902
3.04517	9900
3.04583	9897
3.04650	9895
3.04717	9893
3.04783	9891
3.04850	9889
3.04917	9887
3.04983	9885
3.05050	9883
3.05117	9881
3.05183	9879
3.05250	9877
3.05317	9875
3.05383	9873
3.05450	9871
3.05517	9869
3.05583	9868
3.05650	9866
3.05717	9864
3.05783	9862
3.05850	9861
3.05917	9859
3.05983	9857
3.06050	9856
3.06117	9854
3.06183	9852
3.06250	9851
3.06317	9849
3.06383	9848
3.06450	9846
3.06517	9845
3.06583	9843
3.06650	9842
3.06717	9841
3.06783	9840
3.06850	9838
3.06917	9837
3.06983	9836
3.07050	9835
3.07117	9834
3.07183	9833
3.07250	9832
3.07317	9831
3.07383	9830
3.07450	9829
3.07517	9828
3.07583	9827
3.07650	9826
3.07717	9825
3.07783	9825
3.07850	9824
3.07917	9823
3.07983	9822
3.08050	9822
3.08117	9821
3.08183	9820
3.08250	9819
3.08317	9818
3.08383	9818
3.08450	9817
3.08517	9816
3.08583	9815
3.08650	9814
3.08717	9814
3.08783	9813
3.08850	9812
3.08917	9811
3.08983	9810
3.09050	9809
3.09117	9808
3.09183	9807
3.09250	9806
3.09317	9806
3.09383	9805
3.09450	9804
3.09517	9802
3.09583	9801
3.09650	9800
3.09717	9799
3.09783	9798
3.09850	9797
3.09917	9796
3.09983	9794
3.10050	9793
3.10117	9791
3.10183	9790
3.10250	9789
3.10317	9787
3.10383	9786
3.10450	9784
3.10517	9783
3.10583	9781
3.10650	9779
3.10717	9778
3.10783	9776
3.10850	9775
3.10917	9773
3.10983	9771
3.11050	9770
3.11117	9768
3.11183	9766
3.11250	9765
3.11317	9763
3.11383	9761
3.11450	9759
3.11517	9757
3.11583	9756
3.11650	9754
3.11717	9752
3.11783	9750
3.11850	9748
3.11917	9746
3.11983	9744
3.12050	9743
3.12117	9741
3.12183	9739
3.12250	9737
3.12317	9735
3.12383	9733
3.12450	9732
3.12517	9730
3.12583	9728
3.12650	9726
3.12717	9724
3.12783	9723
3.12850	9721
3.12917	9719
3.12983	9718
3.13050	9716
3.13117	9714
3.13183	9712
3.13250	9711
3.13317	9709
3.13383	9707
3.13450	9705
3.13517	9704
3.13583	9702
3.13650	9700
3.13717	9699
3.13783	9697
3.13850	9695
3.13917	9694
3.13983	9692
3.14050	9690
3.14117	9689
3.14183	9687
3.14250	9685
3.14317	9684
3.14383	9682
3.14450	9681
3.14517	9679
3.14583	9677
3.14650	9676
3.14717	9674
3.14783	9673
3.14850	9671
3.14917	9670
3.14983	9668
3.15050	9667
3.15117	9666
3.15183	9664
3.15250	9663
3.15317	9662
3.15383	9661
3.15450	9659
3.15517	9658
3.15583	9657
3.15650	9656
3.15717	9655
3.15783	9654
3.15850	9653
3.15917	9652
3.15983	9651
3.16050	9650
3.16117	9649
3.16183	9648
3.16250	9647
3.16317	9646
3.16383	9646
3.16450	9645
3.16517	9644
3.16583	9643
3.16650	9642
3.16717	9641
3.16783	9641
3.16850	9640
3.16917	9639
3.16983	9638
3.17050	9637
3.17117	9637
3.17183	9636
3.17250	9635
3.17317	9634
3.17383	9634
3.17450	9633
3.17517	9632
3.17583	9632
3.17650	9631
3.17717	9630
3.17783	9630
3.17850	9629
3.17917	9628
3.17983	9628
3.18050	9627
3.18117	9626
3.18183	9626
3.18250	9625
3.18317	9624
3.18383	9623
3.18450	9623
3.18517	9622
3.18583	9621
3.18650	9621
3.18717	9620
3.18783	9619
3.18850	9619
3.18917	9618
3.18983	9618
3.19050	9617
3.19117	9616
3.19183	9616
3.19250	9615
3.19317	9615
3.19383	9614
3.19450	9614
3.19517	9613
3.19583	9613
3.19650	9612
3.19717	9611
3.19783	9611
3.19850	9610
3.19917	9610
3.19983	9609
3.20050	9609
3.20117	9608
3.20183	9607
3.20250	9607
3.20317	9606
3.20383	9606
3.20450	9605
3.20517	9605
3.20583	9604
3.20650	9604
3.20717	9603
3.20783	9603
3.20850	9602
3.20917	9602
3.20983	9602
3.21050	9602
3.21117	9602
3.21183	9601
3.21250	9601
3.21317	9601
3.21383	9601
3.21450	9601
3.21517	9601
3.21583	9601
3.21650	9601
3.21717	9601
3.21783	9602
3.21850	9602
3.21917	9602
3.21983	9602
3.22050	9602
3.22117	9602
3.22183	9602
3.22250	9602
3.22317	9602
3.22383	9602
3.22450	9602
3.22517	9602
3.22583	9602
3.22650	9602
3.22717	9602
3.22783	9603
3.22850	9603
3.22917	9603
3.22983	9603
3.23050	9604
3.23117	9604
3.23183	9604
3.23250	9604
3.23317	9605
3.23383	9605
3.23450	9605
3.23517	9606
3.23583	9606
3.23650	9606
3.23717	9607
3.23783	9607
3.23850	9607
3.23917	9608
3.23983	9608
3.24050	9608
3.24117	9609
3.24183	9609
3.24250	9610
3.24317	9610
3.24383	9611
3.24450	9611
3.24517	9612
3.24583	9612
3.24650	9613
3.24717	9614
3.24783	9614
3.24850	9615
3.24917	9616
3.24983	9616
3.25050	9617
3.25117	9618
3.25183	9618
3.25250	9619
3.25317	9620
3.25383	9620
3.25450	9621
3.25517	9622
3.25583	9622
3.25650	9623
3.25717	9624
3.25783	9625
3.25850	9625
3.25917	9626
3.25983	9627
3.26050	9628
3.26117	9628
3.26183	9629
3.26250	9630
3.26317	9630
3.26383	9631
3.26450	9631
3.26517	9632
3.26583	9632
3.26650	9633
3.26717	9634
3.26783	9634
3.26850	9635
3.26917	9635
3.26983	9636
3.27050	9636
3.27117	9637
3.27183	9637
3.27250	9638
3.27317	9638
3.27383	9639
3.27450	9639
3.27517	9640
3.27583	9640
3.27650	9641
3.27717	9641
3.27783	9642
3.27850	9642
3.27917	9642
3.27983	9643
3.28050	9643
3.28117	9644
3.28183	9644
3.28250	9645
3.28317	9645
3.28383	9646
3.28450	9646
3.28517	9647
3.28583	9647
3.28650	9647
3.28717	9648
3.28783	9648
3.28850	9649
3.28917	9649
3.28983	9649
3.29050	9650
3.29117	9650
3.29183	9650
3.29250	9651
3.29317	9651
3.29383	9651
3.29450	9652
3.29517	9652
3.29583	9653
3.29650	9653
3.29717	9653
3.29783	9654
3.29850	9654
3.29917	9654
3.29983	9655
3.30050	9655
3.30117	9655
3.30183	9656
3.30250	9656
3.30317	9657
3.30383	9657
3.30450	9658
3.30517	9658
3.30583	9659
3.30650	9659
3.30717	9660
3.30783	9660
3.30850	9661
3.30917	9661
3.30983	9662
3.31050	9662
3.31117	9663
3.31183	9663
3.31250	9663
3.31317	9664
3.31383	9664
3.31450	9665
3.31517	9665
3.31583	9665
3.31650	9666
3.31717	9666
3.31783	9667
3.31850	9667
3.31917	9668
3.31983	9668
3.32050	9669
3.32117	9669
3.32183	9670
3.32250	9670
3.32317	9671
3.32383	9671
3.32450	9672
3.32517	9672
3.32583	9673
3.32650	9673
3.32717	9674
3.32783	9674
3.32850	9675
3.32917	9675
3.32983	9675
3.33050	9675
3.33117	9676
3.33183	9676
3.33250	9676
3.33317	9676
3.33383	9676
3.33450	9677
3.33517	9677
3.33583	9677
3.33650	9677
3.33717	9677
3.33783	9677
3.33850	9677
3.33917	9677
3.33983	9677
3.34050	9677
3.34117	9677
3.34183	9677
3.34250	9677
3.34317	9677
3.34383	9677
3.34450	9677
3.34517	9677
3.34583	9677
3.34650	9677
3.34717	9677
3.34783	9677
3.34850	9677
3.34917	9676
3.34983	9676
3.35050	9676
3.35117	9676
3.35183	9676
3.35250	9675
3.35317	9675
3.35383	9675
3.35450	9675
3.35517	9674
3.35583	9674
3.35650	9674
3.35717	9673
3.35783	9673
3.35850	9673
3.35917	9672
3.35983	9672
3.36050	9671
3.36117	9671
3.36183	9670
3.36250	9670
3.36317	9669
3.36383	9669
3.36450	9668
3.36517	9667
3.36583	9667
3.36650	9666
3.36717	9666
3.36783	9665
3.36850	9664
3.36917	9664
3.36983	9663
3.37050	9662
3.37117	9661
3.37183	9661
3.37250	9660
3.37317	9659
3.37383	9658
3.37450	9657
3.37517	9657
3.37583	9656
3.37650	9655
3.37717	9654
3.37783	9653
3.37850	9652
3.37917	9651
3.37983	9651
3.38050	9650
3.38117	9649
3.38183	9648
3.38250	9647
3.38317	9646
3.38383	9645
3.38450	9644
3.38517	9643
3.38583	9642
3.38650	9641
3.38717	9640
3.38783	9639
3.38850	9638
3.38917	9637
3.38983	9636
3.39050	9634
3.39117	9633
3.39183	9632
3.39250	9631
3.39317	9630
3.39383	9629
3.39450	9627
3.39517	9626
3.39583	9625
3.39650	9624
3.39717	9623
3.39783	9622
3.39850	9620
3.39917	9619
3.39983	9618
3.40050	9617
3.40117	9615
3.40183	9614
3.40250	9613
3.40317	9611
3.40383	9610
3.40450	9609
3.40517	9607
3.40583	9606
3.40650	9604
3.40717	9603
3.40783	9601
3.40850	9599
3.40917	9598
3.40983	9596
3.41050	9594
3.41117	9592
3.41183	9590
3.41250	9588
3.41317	9587
3.41383	9585
3.41450	9583
3.41517	9580
3.41583	9578
3.41650	9576
3.41717	9574
3.41783	9572
3.41850	9569
3.41917	9567
3.41983	9565
3.42050	9562
3.42117	9560
3.42183	9557
3.42250	9555
3.42317	9552
3.42383	9550
3.42450	9547
3.42517	9545
3.42583	9542
3.42650	9539
3.42717	9536
3.42783	9534
3.42850	9531
3.42917	9528
3.42983	9526
3.43050	9523
3.43117	9520
3.43183	9517
3.43250	9515
3.43317	9512
3.43383	9509
3.43450	9506
3.43517	9504
3.43583	9501
3.43650	9498
3.43717	9495
3.43783	9493
3.43850	9490
3.43917	9488
3.43983	9485
3.44050	9482
3.44117	9480
3.44183	9477
3.44250	9475
3.44317	9472
3.44383	9470
3.44450	9467
3.44517	9465
3.44583	9462
3.44650	9460
3.44717	9457
3.44783	9455
3.44850	9452
3.44917	9450
3.44983	9447
3.45050	9445
3.45117	9442
3.45183	9440
3.45250	9437
3.45317	9435
3.45383	9432
3.45450	9430
3.45517	9428
3.45583	9425
3.45650	9423
3.45717	9421
3.45783	9419
3.45850	9417
3.45917	9414
3.45983	9412
3.46050	9410
3.46117	9408
3.46183	9406
3.46250	9404
3.46317	9402
3.46383	9400
3.46450	9399
3.46517	9397
3.46583	9395
3.46650	9393
3.46717	9392
3.46783	9390
3.46850	9388
3.46917	9387
3.46983	9386
3.47050	9384
3.47117	9383
3.47183	9381
3.47250	9380
3.47317	9379
3.47383	9378
3.47450	9377
3.47517	9376
3.47583	9375
3.47650	9374
3.47717	9373
3.47783	9373
3.47850	9372
3.47917	9371
3.47983	9371
3.48050	9370
3.48117	9370
3.48183	9369
3.48250	9369
3.48317	9369
3.48383	9368
3.48450	9368
3.48517	9368
3.48583	9368
3.48650	9368
3.48717	9368
3.48783	9368
3.48850	9368
3.48917	9369
3.48983	9369
3.49050	9369
3.49117	9370
3.49183	9371
3.49250	9371
3.49317	9372
3.49383	9373
3.49450	9374
3.49517	9375
3.49583	9376
3.49650	9378
3.49717	9379
3.49783	9381
3.49850	9383
3.49917	9385
3.49983	9387
3.50050	9389
3.50117	9392
3.50183	9394
3.50250	9397
3.50317	9400
3.50383	9403
3.50450	9407
3.50517	9411
3.50583	9415
3.50650	9419
3.50717	9424
3.50783	9428
3.50850	9433
3.50917	9439
3.50983	9444
3.51050	9450
3.51117	9457
3.51183	9463
3.51250	9470
3.51317	9478
3.51383	9486
3.51450	9494
3.51517	9502
3.51583	9511
3.51650	9521
3.51717	9530
3.51783	9540
3.51850	9551
3.51917	9562
3.51983	9574
3.52050	9585
3.52117	9598
3.52183	9611
3.52250	9624
3.52317	9638
3.52383	9652
3.52450	9667
3.52517	9683
3.52583	9698
3.52650	9715
3.52717	9732
3.52783	9749
3.52850	9767
3.52917	9785
3.52983	9804
3.53050	9824
3.53117	9843
3.53183	9864
3.53250	9885
3.53317	9906
3.53383	9928
3.53450	9951
3.53517	9974
3.53583	9998
3.53650	10022
3.53717	10046
3.53783	10071
3.53850	10096
3.53917	10122
3.53983	10148
3.54050	10175
3.54117	10202
3.54183	10229
3.54250	10256
3.54317	10284
3.54383	10312
3.54450	10340
3.54517	10369
3.54583	10398
3.54650	10426
3.54717	10455
3.54783	10484
3.54850	10513
3.54917	10542
3.54983	10571
3.55050	10600
3.55117	10629
3.55183	10658
3.55250	10686
3.55317	10715
3.55383	10743
3.55450	10771
3.55517	10799
3.55583	10826
3.55650	10854
3.55717	10881
3.55783	10907
3.55850	10934
3.55917	10960
3.55983	10985
3.56050	11010
3.56117	11035
3.56183	11059
3.56250	11083
3.56317	11106
3.56383	11129
3.56450	11151
3.56517	11173
3.56583	11194
3.56650	11215
3.56717	11235
3.56783	11255
3.56850	11274
3.56917	11293
3.56983	11311
3.57050	11329
3.57117	11346
3.57183	11363
3.57250	11379
3.57317	11395
3.57383	11410
3.57450	11425
3.57517	11440
3.57583	11454
3.57650	11468
3.57717	11481
3.57783	11494
3.57850	11507
3.57917	11519
3.57983	11531
3.58050	11543
3.58117	11554
3.58183	11565
3.58250	11576
3.58317	11587
3.58383	11597
3.58450	11607
3.58517	11617
3.58583	11627
3.58650	11637
3.58717	11646
3.58783	11656
3.58850	11665
3.58917	11675
3.58983	11684
3.59050	11693
3.59117	11703
3.59183	11712
3.59250	11722
3.59317	11731
3.59383	11741
3.59450	11751
3.59517	11760
3.59583	11770
3.59650	11780
3.59717	11790
3.59783	11800
3.59850	11810
3.59917	11821
3.59983	11831
3.60050	11841
3.60117	11852
3.60183	11863
3.60250	11873
3.60317	11884
3.60383	11895
3.60450	11906
3.60517	11918
3.60583	11929
3.60650	11940
3.60717	11951
3.60783	11962
3.60850	11974
3.60917	11985
3.60983	11996
3.61050	12006
3.61117	12017
3.61183	12028
3.61250	12038
3.61317	12049
3.61383	12059
3.61450	12068
3.61517	12078
3.61583	12087
3.61650	12095
3.61717	12103
3.61783	12111
3.61850	12118
3.61917	12125
3.61983	12131
3.62050	12137
3.62117	12142
3.62183	12147
3.62250	12151
3.62317	12154
3.62383	12156
3.62450	12158
3.62517	12160
3.62583	12160
3.62650	12160
3.62717	12160
3.62783	12158
3.62850	12156
3.62917	12153
3.62983	12149
3.63050	12144
3.63117	12139
3.63183	12132
3.63250	12125
3.63317	12118
3.63383	12109
3.63450	12100
3.63517	12089
3.63583	12078
3.63650	12066
3.63717	12054
3.63783	12040
3.63850	12026
3.63917	12011
3.63983	11995
3.64050	11979
3.64117	11961
3.64183	11943
3.64250	11924
3.64317	11905
3.64383	11885
3.64450	11864
3.64517	11842
3.64583	11820
3.64650	11797
3.64717	11773
3.64783	11749
3.64850	11724
3.64917	11699
3.64983	11672
3.65050	11646
3.65117	11618
3.65183	11591
3.65250	11562
3.65317	11533
3.65383	11504
3.65450	11474
3.65517	11444
3.65583	11413
3.65650	11382
3.65717	11351
3.65783	11319
3.65850	11287
3.65917	11255
3.65983	11223
3.66050	11190
3.66117	11157
3.66183	11124
3.66250	11091
3.66317	11058
3.66383	11024
3.66450	10991
3.66517	10957
3.66583	10924
3.66650	10890
3.66717	10857
3.66783	10824
3.66850	10790
3.66917	10757
3.66983	10724
3.67050	10691
3.67117	10658
3.67183	10625
3.67250	10593
3.67317	10560
3.67383	10528
3.67450	10496
3.67517	10464
3.67583	10433
3.67650	10401
3.67717	10370
3.67783	10339
3.67850	10309
3.67917	10278
3.67983	10248
3.68050	10219
3.68117	10189
3.68183	10160
3.68250	10131
3.68317	10103
3.68383	10074
3.68450	10046
3.68517	10019
3.68583	9991
3.68650	9965
3.68717	9938
3.68783	9912
3.68850	9886
3.68917	9860
3.68983	9835
3.69050	9810
3.69117	9785
3.69183	9761
3.69250	9737
3.69317	9714
3.69383	9690
3.69450	9667
3.69517	9645
3.69583	9623
3.69650	9601
3.69717	9580
3.69783	9558
3.69850	9538
3.69917	9517
3.69983	9497
3.70050	9477
3.70117	9457
3.70183	9438
3.70250	9419
3.70317	9400
3.70383	9382
3.70450	9364
3.70517	9346
3.70583	9329
3.70650	9312
3.70717	9295
3.70783	9278
3.70850	9262
3.70917	9246
3.70983	9230
3.71050	9214
3.71117	9199
3.71183	9184
3.71250	9169
3.71317	9154
3.71383	9140
3.71450	9126
3.71517	9112
3.71583	9098
3.71650	9085
3.71717	9072
3.71783	9059
3.71850	9046
3.71917	9034
3.71983	9022
3.72050	9010
3.72117	8998
3.72183	8986
3.72250	8974
3.72317	8963
3.72383	8952
3.72450	8941
3.72517	8930
3.72583	8920
3.72650	8909
3.72717	8899
3.72783	8889
3.72850	8879
3.72917	8869
3.72983	8859
3.73050	8850
3.73117	8840
3.73183	8831
3.73250	8822
3.73317	8813
3.73383	8804
3.73450	8795
3.73517	8786
3.73583	8778
3.73650	8769
3.73717	8761
3.73783	8753
3.73850	8745
3.73917	8737
3.73983	8729
3.74050	8721
3.74117	8713
3.74183	8706
3.74250	8698
3.74317	8691
3.74383	8684
3.74450	8677
3.74517	8669
3.74583	8662
3.74650	8656
3.74717	8649
3.74783	8642
3.74850	8635
3.74917	8628
3.74983	8622
3.75050	8615
3.75117	8609
3.75183	8603
3.75250	8596
3.75317	8590
3.75383	8584
3.75450	8577
3.75517	8571
3.75583	8565
3.75650	8559
3.75717	8553
3.75783	8548
3.75850	8542
3.75917	8536
3.75983	8531
3.76050	8525
3.76117	8520
3.76183	8514
3.76250	8509
3.76317	8504
3.76383	8499
3.76450	8494
3.76517	8489
3.76583	8484
3.76650	8479
3.76717	8474
3.76783	8470
3.76850	8465
3.76917	8460
3.76983	8456
3.77050	8451
3.77117	8447
3.77183	8442
3.77250	8438
3.77317	8433
3.77383	8429
3.77450	8425
3.77517	8420
3.77583	8416
3.77650	8412
3.77717	8408
3.77783	8403
3.77850	8399
3.77917	8395
3.77983	8391
3.78050	8387
3.78117	8383
3.78183	8379
3.78250	8375
3.78317	8371
3.78383	8367
3.78450	8363
3.78517	8359
3.78583	8355
3.78650	8351
3.78717	8348
3.78783	8344
3.78850	8340
3.78917	8336
3.78983	8333
3.79050	8329
3.79117	8326
3.79183	8322
3.79250	8318
3.79317	8315
3.79383	8311
3.79450	8308
3.79517	8304
3.79583	8301
3.79650	8297
3.79717	8293
3.79783	8290
3.79850	8286
3.79917	8283
3.79983	8279
3.80050	8276
3.80117	8273
3.80183	8269
3.80250	8266
3.80317	8262
3.80383	8259
3.80450	8255
3.80517	8252
3.80583	8249
3.80650	8245
3.80717	8242
3.80783	8239
3.80850	8235
3.80917	8232
3.80983	8229
3.81050	8226
3.81117	8222
3.81183	8219
3.81250	8216
3.81317	8213
3.81383	8210
3.81450	8206
3.81517	8203
3.81583	8200
3.81650	8197
3.81717	8194
3.81783	8191
3.81850	8188
3.81917	8185
3.81983	8182
3.82050	8179
3.82117	8176
3.82183	8174
3.82250	8171
3.82317	8168
3.82383	8165
3.82450	8162
3.82517	8159
3.82583	8156
3.82650	8153
3.82717	8150
3.82783	8148
3.82850	8145
3.82917	8142
3.82983	8139
3.83050	8136
3.83117	8134
3.83183	8131
3.83250	8128
3.83317	8125
3.83383	8122
3.83450	8120
3.83517	8117
3.83583	8114
3.83650	8112
3.83717	8109
3.83783	8106
3.83850	8104
3.83917	8101
3.83983	8099
3.84050	8096
3.84117	8094
3.84183	8091
3.84250	8089
3.84317	8086
3.84383	8084
3.84450	8082
3.84517	8079
3.84583	8077
3.84650	8075
3.84717	8072
3.84783	8070
3.84850	8068
3.84917	8065
3.84983	8063
3.85050	8061
3.85117	8059
3.85183	8056
3.85250	8054
3.85317	8052
3.85383	8050
3.85450	8048
3.85517	8046
3.85583	8044
3.85650	8042
3.85717	8040
3.85783	8038
3.85850	8037
3.85917	8035
3.85983	8033
3.86050	8031
3.86117	8030
3.86183	8028
3.86250	8026
3.86317	8025
3.86383	8023
3.86450	8022
3.86517	8020
3.86583	8019
3.86650	8017
3.86717	8016
3.86783	8015
3.86850	8013
3.86917	8012
3.86983	8010
3.87050	8009
3.87117	8008
3.87183	8006
3.87250	8005
3.87317	8004
3.87383	8003
3.87450	8001
3.87517	8000
3.87583	7999
3.87650	7998
3.87717	7997
3.87783	7995
3.87850	7994
3.87917	7993
3.87983	7992
3.88050	7991
3.88117	7990
3.88183	7989
3.88250	7988
3.88317	7986
3.88383	7985
3.88450	7985
3.88517	7984
3.88583	7983
3.88650	7982
3.88717	7981
3.88783	7980
3.88850	7979
3.88917	7978
3.88983	7977
3.89050	7976
3.89117	7975
3.89183	7974
3.89250	7973
3.89317	7972
3.89383	7971
3.89450	7970
3.89517	7969
3.89583	7968
3.89650	7967
3.89717	7966
3.89783	7964
3.89850	7963
3.89917	7962
3.89983	7961
3.90050	7960
3.90117	7959
3.90183	7958
3.90250	7957
3.90317	7956
3.90383	7955
3.90450	7954
3.90517	7952
3.90583	7951
3.90650	7950
3.90717	7949
3.90783	7948
3.90850	7947
3.90917	7946
3.90983	7945
3.91050	7944
3.91117	7943
3.91183	7942
3.91250	7940
3.91317	7939
3.91383	7938
3.91450	7937
3.91517	7936
3.91583	7935
3.91650	7934
3.91717	7932
3.91783	7931
3.91850	7930
3.91917	7929
3.91983	7928
3.92050	7926
3.92117	7925
3.92183	7924
3.92250	7923
3.92317	7922
3.92383	7921
3.92450	7920
3.92517	7919
3.92583	7918
3.92650	7917
3.92717	7916
3.92783	7914
3.92850	7913
3.92917	7912
3.92983	7911
3.93050	7910
3.93117	7909
3.93183	7908
3.93250	7906
3.93317	7905
3.93383	7904
3.93450	7903
3.93517	7901
3.93583	7900
3.93650	7899
3.93717	7898
3.93783	7896
3.93850	7895
3.93917	7894
3.93983	7892
3.94050	7891
3.94117	7890
3.94183	7889
3.94250	7887
3.94317	7886
3.94383	7884
3.94450	7883
3.94517	7881
3.94583	7880
3.94650	7879
3.94717	7877
3.94783	7876
3.94850	7874
3.94917	7873
3.94983	7871
3.95050	7870
3.95117	7868
3.95183	7867
3.95250	7865
3.95317	7864
3.95383	7862
3.95450	7861
3.95517	7860
3.95583	7858
3.95650	7857
3.95717	7856
3.95783	7854
3.95850	7853
3.95917	7852
3.95983	7851
3.96050	7850
3.96117	7848
3.96183	7847
3.96250	7846
3.96317	7845
3.96383	7844
3.96450	7843
3.96517	7842
3.96583	7840
3.96650	7839
3.96717	7838
3.96783	7837
3.96850	7836
3.96917	7835
3.96983	7834
3.97050	7833
3.97117	7832
3.97183	7831
3.97250	7830
3.97317	7829
3.97383	7829
3.97450	7828
3.97517	7827
3.97583	7827
3.97650	7826
3.97717	7825
3.97783	7825
3.97850	7824
3.97917	7824
3.97983	7823
3.98050	7823
3.98117	7823
3.98183	7822
3.98250	7822
3.98317	7822
3.98383	7821
3.98450	7821
3.98517	7821
3.98583	7821
3.98650	7821
3.98717	7821
3.98783	7821
3.98850	7821
3.98917	7821
3.98983	7821
3.99050	7821
3.99117	7821
3.99183	7821
3.99250	7822
3.99317	7822
3.99383	7823
3.99450	7823
3.99517	7824
3.99583	7825
3.99650	7825
3.99717	7826
3.99783	7827
3.99850	7828
3.99917	7829
3.99983	7831
4.00050	7832
4.00117	7833
4.00183	7835
4.00250	7837
4.00317	7838
4.00383	7840
4.00450	7842
4.00517	7844
4.00583	7846
4.00650	7849
4.00717	7851
4.00783	7853
4.00850	7856
4.00917	7859
4.00983	7862
4.01050	7865
4.01117	7868
4.01183	7871
4.01250	7875
4.01317	7878
4.01383	7882
4.01450	7886
4.01517	7890
4.01583	7894
4.01650	7898
4.01717	7903
4.01783	7907
4.01850	7912
4.01917	7917
4.01983	7922
4.02050	7927
4.02117	7932
4.02183	7938
4.02250	7944
4.02317	7949
4.02383	7956
4.02450	7962
4.02517	7968
4.02583	7975
4.02650	7981
4.02717	7988
4.02783	7996
4.02850	8003
4.02917	8010
4.02983	8018
4.03050	8026
4.03117	8034
4.03183	8042
4.03250	8051
4.03317	8059
4.03383	8068
4.03450	8077
4.03517	8086
4.03583	8095
4.03650	8105
4.03717	8115
4.03783	8125
4.03850	8134
4.03917	8145
4.03983	8155
4.04050	8165
4.04117	8176
4.04183	8187
4.04250	8197
4.04317	8208
4.04383	8219
4.04450	8230
4.04517	8242
4.04583	8253
4.04650	8265
4.04717	8276
4.04783	8288
4.04850	8300
4.04917	8312
4.04983	8324
4.05050	8336
4.05117	8349
4.05183	8361
4.05250	8374
4.05317	8387
4.05383	8399
4.05450	8412
4.05517	8425
4.05583	8439
4.05650	8452
4.05717	8465
4.05783	8478
4.05850	8491
4.05917	8505
4.05983	8518
4.06050	8531
4.06117	8544
4.06183	8558
4.06250	8571
4.06317	8584
4.06383	8597
4.06450	8610
4.06517	8623
4.06583	8636
4.06650	8649
4.06717	8661
4.06783	8674
4.06850	8686
4.06917	8699
4.06983	8711
4.07050	8723
4.07117	8735
4.07183	8747
4.07250	8758
4.07317	8770
4.07383	8781
4.07450	8792
4.07517	8803
4.07583	8814
4.07650	8824
4.07717	8835
4.07783	8845
4.07850	8855
4.07917	8864
4.07983	8874
4.08050	8883
4.08117	8892
4.08183	8901
4.08250	8910
4.08317	8918
4.08383	8927
4.08450	8935
4.08517	8942
4.08583	8950
4.08650	8957
4.08717	8965
4.08783	8971
4.08850	8978
4.08917	8984
4.08983	8991
4.09050	8997
4.09117	9002
4.09183	9008
4.09250	9013
4.09317	9018
4.09383	9023
4.09450	9027
4.09517	9031
4.09583	9035
4.09650	9039
4.09717	9043
4.09783	9046
4.09850	9049
4.09917	9052
4.09983	9054
4.10050	9056
4.10117	9058
4.10183	9060
4.10250	9062
4.10317	9063
4.10383	9064
4.10450	9065
4.10517	9066
4.10583	9067
4.10650	9067
4.10717	9067
4.10783	9067
4.10850	9067
4.10917	9067
4.10983	9066
4.11050	9065
4.11117	9065
4.11183	9064
4.11250	9063
4.11317	9061
4.11383	9060
4.11450	9059
4.11517	9057
4.11583	9056
4.11650	9054
4.11717	9052
4.11783	9051
4.11850	9049
4.11917	9047
4.11983	9045
4.12050	9043
4.12117	9041
4.12183	9039
4.12250	9037
4.12317	9035
4.12383	9033
4.12450	9031
4.12517	9030
4.12583	9028
4.12650	9026
4.12717	9024
4.12783	9022
4.12850	9021
4.12917	9019
4.12983	9017
4.13050	9016
4.13117	9014
4.13183	9013
4.13250	9011
4.13317	9010
4.13383	9009
4.13450	9007
4.13517	9006
4.13583	9005
4.13650	9004
4.13717	9003
4.13783	9002
4.13850	9001
4.13917	9000
4.13983	9000
4.14050	8999
4.14117	8999
4.14183	8999
4.14250	8998
4.14317	8998
4.14383	8998
4.14450	8998
4.14517	8998
4.14583	8998
4.14650	8999
4.14717	8999
4.14783	9000
4.14850	9000
4.14917	9001
4.14983	9002
4.15050	9003
4.15117	9005
4.15183	9006
4.15250	9007
4.15317	9009
4.15383	9010
4.15450	9012
4.15517	9014
4.15583	9016
4.15650	9018
4.15717	9020
4.15783	9022
4.15850	9024
4.15917	9027
4.15983	9029
4.16050	9031
4.16117	9034
4.16183	9037
4.16250	9039
4.16317	9042
4.16383	9045
4.16450	9048
4.16517	9051
4.16583	9054
4.16650	9057
4.16717	9060
4.16783	9064
4.16850	9067
4.16917	9071
4.16983	9074
4.17050	9078
4.17117	9081
4.17183	9085
4.17250	9089
4.17317	9093
4.17383	9098
4.17450	9102
4.17517	9106
4.17583	9111
4.17650	9115
4.17717	9120
4.17783	9124
4.17850	9129
4.17917	9134
4.17983	9139
4.18050	9145
4.18117	9150
4.18183	9155
4.18250	9161
4.18317	9167
4.18383	9173
4.18450	9179
4.18517	9185
4.18583	9192
4.18650	9198
4.18717	9205
4.18783	9213
4.18850	9220
4.18917	9228
4.18983	9237
4.19050	9245
4.19117	9254
4.19183	9264
4.19250	9274
4.19317	9284
4.19383	9295
4.19450	9306
4.19517	9318
4.19583	9330
4.19650	9343
4.19717	9357
4.19783	9371
4.19850	9386
4.19917	9401
4.19983	9418
4.20050	9434
4.20117	9452
4.20183	9471
4.20250	9490
4.20317	9511
4.20383	9532
4.20450	9555
4.20517	9578
4.20583	9603
4.20650	9629
4.20717	9656
4.20783	9684
4.20850	9714
4.20917	9745
4.20983	9778
4.21050	9812
4.21117	9848
4.21183	9886
4.21250	9925
4.21317	9966
4.21383	10009
4.21450	10054
4.21517	10101
4.21583	10150
4.21650	10201
4.21717	10255
4.21783	10311
4.21850	10370
4.21917	10431
4.21983	10494
4.22050	10561
4.22117	10630
4.22183	10702
4.22250	10777
4.22317	10855
4.22383	10936
4.22450	11021
4.22517	11108
4.22583	11200
4.22650	11295
4.22717	11393
4.22783	11495
4.22850	11601
4.22917	11711
4.22983	11825
4.23050	11943
4.23117	12065
4.23183	12191
4.23250	12322
4.23317	12457
4.23383	12596
4.23450	12740
4.23517	12888
4.23583	13041
4.23650	13199
4.23717	13361
4.23783	13529
4.23850	13701
4.23917	13878
4.23983	14060
4.24050	14247
4.24117	14439
4.24183	14637
4.24250	14839
4.24317	15047
4.24383	15260
4.24450	15478
4.24517	15701
4.24583	15930
4.24650	16164
4.24717	16404
4.24783	16648
4.24850	16899
4.24917	17154
4.24983	17415
4.25050	17682
4.25117	17953
4.25183	18230
4.25250	18513
4.25317	18801
4.25383	19094
4.25450	19393
4.25517	19696
4.25583	20005
4.25650	20319
4.25717	20638
4.25783	20962
4.25850	21291
4.25917	21625
4.25983	21964
4.26050	22308
4.26117	22657
4.26183	23010
4.26250	23368
4.26317	23730
4.26383	24097
4.26450	24468
4.26517	24843
4.26583	25223
4.26650	25606
4.26717	25993
4.26783	26384
4.26850	26779
4.26917	27177
4.26983	27579
4.27050	27983
4.27117	28390
4.27183	28801
4.27250	29213
4.27317	29628
4.27383	30045
4.27450	30464
4.27517	30885
4.27583	31308
4.27650	31733
4.27717	32158
4.27783	32585
4.27850	33013
4.27917	33441
4.27983	33870
4.28050	34300
4.28117	34730
4.28183	35161
4.28250	35591
4.28317	36021
4.28383	36451
4.28450	36880
4.28517	37309
4.28583	37736
4.28650	38162
4.28717	38588
4.28783	39011
4.28850	39433
4.28917	39853
4.28983	40271
4.29050	40686
4.29117	41099
4.29183	41509
4.29250	41915
4.29317	42319
4.29383	42718
4.29450	43114
4.29517	43506
4.29583	43894
4.29650	44278
4.29717	44657
4.29783	45032
4.29850	45402
4.29917	45768
4.29983	46128
4.30050	46484
4.30117	46835
4.30183	47180
4.30250	47520
4.30317	47855
4.30383	48184
4.30450	48507
4.30517	48824
4.30583	49135
4.30650	49439
4.30717	49738
4.30783	50029
4.30850	50315
4.30917	50594
4.30983	50866
4.31050	51132
4.31117	51391
4.31183	51644
4.31250	51890
4.31317	52130
4.31383	52364
4.31450	52590
4.31517	52811
4.31583	53025
4.31650	53233
4.31717	53434
4.31783	53629
4.31850	53817
4.31917	53998
4.31983	54173
4.32050	54341
4.32117	54502
4.32183	54656
4.32250	54804
4.32317	54944
4.32383	55077
4.32450	55204
4.32517	55323
4.32583	55435
4.32650	55540
4.32717	55638
4.32783	55729
4.32850	55813
4.32917	55889
4.32983	55959
4.33050	56021
4.33117	56076
4.33183	56124
4.33250	56165
4.33317	56198
4.33383	56225
4.33450	56245
4.33517	56257
4.33583	56262
4.33650	56261
4.33717	56253
4.33783	56237
4.33850	56215
4.33917	56187
4.33983	56152
4.34050	56110
4.34117	56062
4.34183	56008
4.34250	55948
4.34317	55882
4.34383	55811
4.34450	55733
4.34517	55650
4.34583	55562
4.34650	55468
4.34717	55369
4.34783	55264
4.34850	55155
4.34917	55040
4.34983	54919
4.35050	54793
4.35117	54662
4.35183	54526
4.35250	54384
4.35317	54237
4.35383	54086
4.35450	53929
4.35517	53768
4.35583	53603
4.35650	53434
4.35717	53260
4.35783	53083
4.35850	52901
4.35917	52717
4.35983	52528
4.36050	52337
4.36117	52142
4.36183	51943
4.36250	51742
4.36317	51538
4.36383	51331
4.36450	51121
4.36517	50908
4.36583	50693
4.36650	50476
4.36717	50257
4.36783	50035
4.36850	49813
4.36917	49588
4.36983	49362
4.37050	49135
4.37117	48907
4.37183	48677
4.37250	48447
4.37317	48217
4.37383	47985
4.37450	47754
4.37517	47522
4.37583	47290
4.37650	47058
4.37717	46827
4.37783	46596
4.37850	46365
4.37917	46135
4.37983	45907
4.38050	45679
4.38117	45452
4.38183	45227
4.38250	45004
4.38317	44782
4.38383	44563
4.38450	44345
4.38517	44130
4.38583	43917
4.38650	43707
4.38717	43500
4.38783	43296
4.38850	43095
4.38917	42897
4.38983	42703
4.39050	42513
4.39117	42326
4.39183	42144
4.39250	41965
4.39317	41790
4.39383	41620
4.39450	41454
4.39517	41292
4.39583	41135
4.39650	40983
4.39717	40835
4.39783	40692
4.39850	40554
4.39917	40421
4.39983	40293
4.40050	40170
4.40117	40052
4.40183	39940
4.40250	39832
4.40317	39730
4.40383	39634
4.40450	39543
4.40517	39458
4.40583	39378
4.40650	39304
4.40717	39235
4.40783	39173
4.40850	39115
4.40917	39064
4.40983	39018
4.41050	38977
4.41117	38942
4.41183	38913
4.41250	38889
4.41317	38871
4.41383	38858
4.41450	38850
4.41517	38848
4.41583	38851
4.41650	38859
4.41717	38871
4.41783	38889
4.41850	38911
4.41917	38937
4.41983	38968
4.42050	39004
4.42117	39044
4.42183	39089
4.42250	39138
4.42317	39192
4.42383	39249
4.42450	39311
4.42517	39377
4.42583	39446
4.42650	39519
4.42717	39595
4.42783	39674
4.42850	39757
4.42917	39843
4.42983	39932
4.43050	40023
4.43117	40117
4.43183	40214
4.43250	40313
4.43317	40414
4.43383	40517
4.43450	40622
4.43517	40729
4.43583	40837
4.43650	40947
4.43717	41058
4.43783	41171
4.43850	41284
4.43917	41398
4.43983	41512
4.44050	41627
4.44117	41743
4.44183	41858
4.44250	41973
4.44317	42088
4.44383	42201
4.44450	42315
4.44517	42427
4.44583	42538
4.44650	42647
4.44717	42755
4.44783	42861
4.44850	42966
4.44917	43069
4.44983	43170
4.45050	43268
4.45117	43364
4.45183	43458
4.45250	43548
4.45317	43636
4.45383	43721
4.45450	43802
4.45517	43880
4.45583	43954
4.45650	44025
4.45717	44092
4.45783	44155
4.45850	44213
4.45917	44268
4.45983	44318
4.46050	44364
4.46117	44406
4.46183	44442
4.46250	44474
4.46317	44501
4.46383	44523
4.46450	44540
4.46517	44551
4.46583	44558
4.46650	44559
4.46717	44555
4.46783	44545
4.46850	44531
4.46917	44510
4.46983	44484
4.47050	44453
4.47117	44416
4.47183	44374
4.47250	44326
4.47317	44273
4.47383	44214
4.47450	44150
4.47517	44081
4.47583	44006
4.47650	43926
4.47717	43841
4.47783	43750
4.47850	43653
4.47917	43552
4.47983	43444
4.48050	43332
4.48117	43214
4.48183	43092
4.48250	42964
4.48317	42831
4.48383	42693
4.48450	42550
4.48517	42403
4.48583	42251
4.48650	42094
4.48717	41933
4.48783	41768
4.48850	41598
4.48917	41425
4.48983	41247
4.49050	41066
4.49117	40882
4.49183	40694
4.49250	40502
4.49317	40308
4.49383	40111
4.49450	39911
4.49517	39708
4.49583	39503
4.49650	39295
4.49717	39086
4.49783	38874
4.49850	38660
4.49917	38444
4.49983	38227
4.50050	38008
4.50117	37788
4.50183	37567
4.50250	37345
4.50317	37122
4.50383	36899
4.50450	36675
4.50517	36452
4.50583	36228
4.50650	36005
4.50717	35783
4.50783	35561
4.50850	35340
4.50917	35120
4.50983	34901
4.51050	34684
4.51117	34468
4.51183	34254
4.51250	34042
4.51317	33831
4.51383	33624
4.51450	33418
4.51517	33216
4.51583	33016
4.51650	32820
4.51717	32627
4.51783	32437
4.51850	32251
4.51917	32070
4.51983	31892
4.52050	31719
4.52117	31551
4.52183	31387
4.52250	31229
4.52317	31075
4.52383	30928
4.52450	30785
4.52517	30649
4.52583	30518
4.52650	30394
4.52717	30276
4.52783	30164
4.52850	30059
4.52917	29961
4.52983	29869
4.53050	29785
4.53117	29708
4.53183	29638
4.53250	29576
4.53317	29522
4.53383	29476
4.53450	29437
4.53517	29407
4.53583	29386
4.53650	29373
4.53717	29368
4.53783	29373
4.53850	29387
4.53917	29411
4.53983	29444
4.54050	29486
4.54117	29539
4.54183	29602
4.54250	29675
4.54317	29758
4.54383	29852
4.54450	29957
4.54517	30072
4.54583	30198
4.54650	30335
4.54717	30483
4.54783	30642
4.54850	30813
4.54917	30996
4.54983	31191
4.55050	31397
4.55117	31616
4.55183	31846
4.55250	32089
4.55317	32345
4.55383	32613
4.55450	32893
4.55517	33186
4.55583	33491
4.55650	33809
4.55717	34140
4.55783	34483
4.55850	34839
4.55917	35207
4.55983	35587
4.56050	35980
4.56117	36385
4.56183	36802
4.56250	37231
4.56317	37672
4.56383	38125
4.56450	38590
4.56517	39068
4.56583	39558
4.56650	40059
4.56717	40573
4.56783	41099
4.56850	41637
4.56917	42186
4.56983	42748
4.57050	43321
4.57117	43905
4.57183	44501
4.57250	45107
4.57317	45724
4.57383	46352
4.57450	46990
4.57517	47638
4.57583	48296
4.57650	48964
4.57717	49641
4.57783	50328
4.57850	51024
4.57917	51730
4.57983	52444
4.58050	53167
4.58117	53899
4.58183	54639
4.58250	55388
4.58317	56145
4.58383	56910
4.58450	57682
4.58517	58461
4.58583	59246
4.58650	60038
4.58717	60835
4.58783	61637
4.58850	62443
4.58917	63254
4.58983	64068
4.59050	64885
4.59117	65705
4.59183	66526
4.59250	67350
4.59317	68174
4.59383	68999
4.59450	69824
4.59517	70648
4.59583	71471
4.59650	72292
4.59717	73111
4.59783	73928
4.59850	74742
4.59917	75552
4.59983	76358
4.60050	77159
4.60117	77956
4.60183	78746
4.60250	79530
4.60317	80308
4.60383	81078
4.60450	81840
4.60517	82594
4.60583	83340
4.60650	84076
4.60717	84803
4.60783	85521
4.60850	86228
4.60917	86926
4.60983	87613
4.61050	88289
4.61117	88954
4.61183	89607
4.61250	90248
4.61317	90876
4.61383	91491
4.61450	92094
4.61517	92682
4.61583	93256
4.61650	93816
4.61717	94360
4.61783	94890
4.61850	95403
4.61917	95900
4.61983	96381
4.62050	96845
4.62117	97293
4.62183	97723
4.62250	98135
4.62317	98531
4.62383	98908
4.62450	99267
4.62517	99608
4.62583	99930
4.62650	100233
4.62717	100518
4.62783	100784
4.62850	101031
4.62917	101259
4.62983	101468
4.63050	101659
4.63117	101831
4.63183	101984
4.63250	102118
4.63317	102234
4.63383	102331
4.63450	102409
4.63517	102469
4.63583	102510
4.63650	102534
4.63717	102540
4.63783	102528
4.63850	102499
4.63917	102453
4.63983	102390
4.64050	102311
4.64117	102215
4.64183	102104
4.64250	101976
4.64317	101833
4.64383	101675
4.64450	101502
4.64517	101313
4.64583	101110
4.64650	100892
4.64717	100660
4.64783	100414
4.64850	100155
4.64917	99881
4.64983	99595
4.65050	99296
4.65117	98984
4.65183	98661
4.65250	98326
4.65317	97981
4.65383	97625
4.65450	97259
4.65517	96884
4.65583	96501
4.65650	96108
4.65717	95708
4.65783	95300
4.65850	94885
4.65917	94462
4.65983	94034
4.66050	93599
4.66117	93158
4.66183	92712
4.66250	92260
4.66317	91804
4.66383	91343
4.66450	90877
4.66517	90408
4.66583	89936
4.66650	89460
4.66717	88981
4.66783	88500
4.66850	88016
4.66917	87530
4.66983	87042
4.67050	86553
4.67117	86062
4.67183	85569
4.67250	85076
4.67317	84582
4.67383	84088
4.67450	83593
4.67517	83098
4.67583	82604
4.67650	82110
4.67717	81616
4.67783	81123
4.67850	80632
4.67917	80141
4.67983	79652
4.68050	79165
4.68117	78679
4.68183	78196
4.68250	77715
4.68317	77237
4.68383	76762
4.68450	76289
4.68517	75821
4.68583	75355
4.68650	74893
4.68717	74434
4.68783	73979
4.68850	73527
4.68917	73079
4.68983	72635
4.69050	72195
4.69117	71758
4.69183	71326
4.69250	70897
4.69317	70473
4.69383	70053
4.69450	69637
4.69517	69226
4.69583	68818
4.69650	68416
4.69717	68017
4.69783	67623
4.69850	67234
4.69917	66848
4.69983	66467
4.70050	66090
4.70117	65717
4.70183	65348
4.70250	64984
4.70317	64625
4.70383	64269
4.70450	63918
4.70517	63572
4.70583	63229
4.70650	62892
4.70717	62558
4.70783	62229
4.70850	61904
4.70917	61584
4.70983	61267
4.71050	60955
4.71117	60647
4.71183	60342
4.71250	60041
4.71317	59745
4.71383	59452
4.71450	59163
4.71517	58878
4.71583	58597
4.71650	58320
4.71717	58046
4.71783	57776
4.71850	57510
4.71917	57247
4.71983	56988
4.72050	56733
4.72117	56481
4.72183	56233
4.72250	55988
4.72317	55747
4.72383	55509
4.72450	55275
4.72517	55043
4.72583	54815
4.72650	54591
4.72717	54369
4.72783	54151
4.72850	53936
4.72917	53724
4.72983	53515
4.73050	53309
4.73117	53107
4.73183	52907
4.73250	52710
4.73317	52516
4.73383	52325
4.73450	52136
4.73517	51950
4.73583	51767
4.73650	51586
4.73717	51408
4.73783	51232
4.73850	51058
4.73917	50887
4.73983	50718
4.74050	50551
4.74117	50386
4.74183	50224
4.74250	50065
4.74317	49907
4.74383	49752
4.74450	49599
4.74517	49449
4.74583	49300
4.74650	49154
4.74717	49009
4.74783	48866
4.74850	48725
4.74917	48586
4.74983	48449
4.75050	48313
4.75117	48179
4.75183	48047
4.75250	47915
4.75317	47786
4.75383	47658
4.75450	47531
4.75517	47406
4.75583	47283
4.75650	47160
4.75717	47040
4.75783	46920
4.75850	46802
4.75917	46685
4.75983	46570
4.76050	46456
4.76117	46343
4.76183	46232
4.76250	46122
4.76317	46013
4.76383	45906
4.76450	45801
4.76517	45696
4.76583	45593
4.76650	45491
4.76717	45390
4.76783	45290
4.76850	45191
4.76917	45093
4.76983	44996
4.77050	44899
4.77117	44803
4.77183	44708
4.77250	44613
4.77317	44519
4.77383	44425
4.77450	44332
4.77517	44239
4.77583	44147
4.77650	44055
4.77717	43964
4.77783	43873
4.77850	43783
4.77917	43693
4.77983	43603
4.78050	43514
4.78117	43426
4.78183	43338
4.78250	43250
4.78317	43163
4.78383	43077
4.78450	42991
4.78517	42906
4.78583	42822
4.78650	42738
4.78717	42655
4.78783	42573
4.78850	42491
4.78917	42410
4.78983	42330
4.79050	42250
4.79117	42170
4.79183	42091
4.79250	42012
4.79317	41934
4.79383	41856
4.79450	41779
4.79517	41702
4.79583	41625
4.79650	41549
4.79717	41473
4.79783	41397
4.79850	41323
4.79917	41248
4.79983	41174
4.80050	41101
4.80117	41028
4.80183	40955
4.80250	40884
4.80317	40812
4.80383	40742
4.80450	40672
4.80517	40602
4.80583	40533
4.80650	40465
4.80717	40397
4.80783	40329
4.80850	40262
4.80917	40196
4.80983	40130
4.81050	40065
4.81117	40000
4.81183	39935
4.81250	39871
4.81317	39807
4.81383	39743
4.81450	39680
4.81517	39617
4.81583	39555
4.81650	39493
4.81717	39432
4.81783	39371
4.81850	39311
4.81917	39251
4.81983	39191
4.82050	39132
4.82117	39073
4.82183	39015
4.82250	38957
4.82317	38900
4.82383	38843
4.82450	38786
4.82517	38729
4.82583	38673
4.82650	38617
4.82717	38562
4.82783	38506
4.82850	38451
4.82917	38396
4.82983	38341
4.83050	38287
4.83117	38233
4.83183	38179
4.83250	38125
4.83317	38072
4.83383	38019
4.83450	37967
4.83517	37915
4.83583	37863
4.83650	37812
4.83717	37761
4.83783	37710
4.83850	37660
4.83917	37610
4.83983	37560
4.84050	37511
4.84117	37461
4.84183	37413
4.84250	37364
4.84317	37315
4.84383	37267
4.84450	37218
4.84517	37170
4.84583	37122
4.84650	37074
4.84717	37026
4.84783	36979
4.84850	36931
4.84917	36884
4.84983	36836
4.85050	36789
4.85117	36742
4.85183	36695
4.85250	36649
4.85317	36602
4.85383	36555
4.85450	36509
4.85517	36463
4.85583	36417
4.85650	36371
4.85717	36325
4.85783	36279
4.85850	36233
4.85917	36188
4.85983	36143
4.86050	36097
4.86117	36052
4.86183	36007
4.86250	35961
4.86317	35916
4.86383	35871
4.86450	35826
4.86517	35782
4.86583	35737
4.86650	35693
4.86717	35648
4.86783	35604
4.86850	35561
4.86917	35517
4.86983	35474
4.87050	35431
4.87117	35387
4.87183	35345
4.87250	35302
4.87317	35259
4.87383	35216
4.87450	35174
4.87517	35132
4.87583	35089
4.87650	35047
4.87717	35004
4.87783	34962
4.87850	34920
4.87917	34878
4.87983	34836
4.88050	34794
4.88117	34752
4.88183	34711
4.88250	34670
4.88317	34628
4.88383	34587
4.88450	34546
4.88517	34505
4.88583	34465
4.88650	34424
4.88717	34383
4.88783	34343
4.88850	34302
4.88917	34261
4.88983	34221
4.89050	34180
4.89117	34139
4.89183	34099
4.89250	34058
4.89317	34018
4.89383	33977
4.89450	33937
4.89517	33896
4.89583	33856
4.89650	33816
4.89717	33775
4.89783	33735
4.89850	33695
4.89917	33654
4.89983	33614
4.90050	33575
4.90117	33535
4.90183	33495
4.90250	33456
4.90317	33417
4.90383	33378
4.90450	33339
4.90517	33300
4.90583	33261
4.90650	33223
4.90717	33184
4.90783	33146
4.90850	33107
4.90917	33069
4.90983	33032
4.91050	32994
4.91117	32957
4.91183	32919
4.91250	32883
4.91317	32846
4.91383	32809
4.91450	32773
4.91517	32737
4.91583	32702
4.91650	32666
4.91717	32631
4.91783	32597
4.91850	32562
4.91917	32528
4.91983	32494
4.92050	32460
4.92117	32427
4.92183	32393
4.92250	32360
4.92317	32327
4.92383	32293
4.92450	32260
4.92517	32227
4.92583	32194
4.92650	32161
4.92717	32128
4.92783	32095
4.92850	32061
4.92917	32028
4.92983	31995
4.93050	31961
4.93117	31928
4.93183	31894
4.93250	31860
4.93317	31826
4.93383	31791
4.93450	31757
4.93517	31722
4.93583	31687
4.93650	31652
4.93717	31616
4.93783	31580
4.93850	31545
4.93917	31508
4.93983	31472
4.94050	31436
4.94117	31400
4.94183	31364
4.94250	31328
4.94317	31292
4.94383	31256
4.94450	31221
4.94517	31185
4.94583	31150
4.94650	31115
4.94717	31081
4.94783	31047
4.94850	31013
4.94917	30979
4.94983	30946
4.95050	30913
4.95117	30880
4.95183	30848
4.95250	30815
4.95317	30783
4.95383	30751
4.95450	30719
4.95517	30688
4.95583	30656
4.95650	30625
4.95717	30593
4.95783	30562
4.95850	30531
4.95917	30500
4.95983	30470
4.96050	30439
4.96117	30409
4.96183	30379
4.96250	30349
4.96317	30320
4.96383	30291
4.96450	30261
4.96517	30233
4.96583	30204
4.96650	30175
4.96717	30147
4.96783	30119
4.96850	30091
4.96917	30063
4.96983	30036
4.97050	30008
4.97117	29981
4.97183	29953
4.97250	29926
4.97317	29899
4.97383	29871
4.97450	29844
4.97517	29817
4.97583	29790
4.97650	29763
4.97717	29735
4.97783	29708
4.97850	29680
4.97917	29652
4.97983	29625
4.98050	29597
4.98117	29568
4.98183	29540
4.98250	29511
4.98317	29483
4.98383	29454
4.98450	29425
4.98517	29396
4.98583	29367
4.98650	29338
4.98717	29308
4.98783	29279
4.98850	29249
4.98917	29219
4.98983	29189
4.99050	29159
4.99117	29129
4.99183	29099
4.99250	29070
4.99317	29040
4.99383	29011
4.99450	28982
4.99517	28953
4.99583	28924
4.99650	28896
4.99717	28867
4.99783	28839
4.99850	28812
4.99917	28784
4.99983	28757
5.00050	28730
5.00117	28703
5.00183	28676
5.00250	28649
5.00317	28623
5.00383	28596
5.00450	28570
5.00517	28543
5.00583	28517
5.00650	28491
5.00717	28464
5.00783	28438
5.00850	28412
5.00917	28385
5.00983	28358
5.01050	28332
5.01117	28305
5.01183	28278
5.01250	28251
5.01317	28223
5.01383	28196
5.01450	28169
5.01517	28141
5.01583	28114
5.01650	28086
5.01717	28058
5.01783	28030
5.01850	28003
5.01917	27975
5.01983	27948
5.02050	27920
5.02117	27893
5.02183	27866
5.02250	27840
5.02317	27813
5.02383	27787
5.02450	27760
5.02517	27735
5.02583	27709
5.02650	27683
5.02717	27658
5.02783	27633
5.02850	27608
5.02917	27583
5.02983	27558
5.03050	27534
5.03117	27509
5.03183	27485
5.03250	27460
5.03317	27436
5.03383	27412
5.03450	27388
5.03517	27365
5.03583	27341
5.03650	27318
5.03717	27295
5.03783	27272
5.03850	27249
5.03917	27227
5.03983	27205
5.04050	27183
5.04117	27161
5.04183	27140
5.04250	27118
5.04317	27097
5.04383	27076
5.04450	27056
5.04517	27035
5.04583	27015
5.04650	26994
5.04717	26974
5.04783	26954
5.04850	26934
5.04917	26914
5.04983	26894
5.05050	26874
5.05117	26854
5.05183	26835
5.05250	26815
5.05317	26795
5.05383	26775
5.05450	26755
5.05517	26735
5.05583	26715
5.05650	26695
5.05717	26675
5.05783	26655
5.05850	26634
5.05917	26614
5.05983	26593
5.06050	26572
5.06117	26551
5.06183	26531
5.06250	26510
5.06317	26489
5.06383	26469
5.06450	26448
5.06517	26427
5.06583	26406
5.06650	26385
5.06717	26364
5.06783	26343
5.06850	26321
5.06917	26300
5.06983	26279
5.07050	26257
5.07117	26235
5.07183	26214
5.07250	26192
5.07317	26170
5.07383	26149
5.07450	26127
5.07517	26105
5.07583	26083
5.07650	26061
5.07717	26040
5.07783	26018
5.07850	25996
5.07917	25974
5.07983	25953
5.08050	25931
5.08117	25910
5.08183	25889
5.08250	25867
5.08317	25846
5.08383	25825
5.08450	25804
5.08517	25783
5.08583	25762
5.08650	25741
5.08717	25720
5.08783	25700
5.08850	25680
5.08917	25659
5.08983	25639
5.09050	25619
5.09117	25599
5.09183	25578
5.09250	25558
5.09317	25538
5.09383	25517
5.09450	25497
5.09517	25476
5.09583	25455
5.09650	25435
5.09717	25414
5.09783	25393
5.09850	25372
5.09917	25351
5.09983	25329
5.10050	25308
5.10117	25287
5.10183	25266
5.10250	25244
5.10317	25223
5.10383	25202
5.10450	25181
5.10517	25159
5.10583	25138
5.10650	25117
5.10717	25096
5.10783	25076
5.10850	25055
5.10917	25035
5.10983	25014
5.11050	24994
5.11117	24974
5.11183	24954
5.11250	24934
5.11317	24915
5.11383	24896
5.11450	24877
5.11517	24858
5.11583	24840
5.11650	24821
5.11717	24803
5.11783	24785
5.11850	24767
5.11917	24750
5.11983	24733
5.12050	24715
5.12117	24698
5.12183	24681
5.12250	24665
5.12317	24648
5.12383	24632
5.12450	24615
5.12517	24599
5.12583	24583
5.12650	24567
5.12717	24551
5.12783	24535
5.12850	24519
5.12917	24504
5.12983	24488
5.13050	24473
5.13117	24457
5.13183	24442
5.13250	24426
5.13317	24411
5.13383	24396
5.13450	24380
5.13517	24365
5.13583	24350
5.13650	24335
5.13717	24321
5.13783	24306
5.13850	24291
5.13917	24277
5.13983	24262
5.14050	24248
5.14117	24234
5.14183	24221
5.14250	24207
5.14317	24194
5.14383	24180
5.14450	24167
5.14517	24154
5.14583	24142
5.14650	24129
5.14717	24117
5.14783	24104
5.14850	24092
5.14917	24081
5.14983	24069
5.15050	24057
5.15117	24046
5.15183	24035
5.15250	24024
5.15317	24013
5.15383	24002
5.15450	23991
5.15517	23981
5.15583	23970
5.15650	23960
5.15717	23950
5.15783	23940
5.15850	23931
5.15917	23922
5.15983	23913
5.16050	23904
5.16117	23896
5.16183	23888
5.16250	23880
5.16317	23872
5.16383	23865
5.16450	23858
5.16517	23851
5.16583	23845
5.16650	23838
5.16717	23832
5.16783	23827
5.16850	23821
5.16917	23816
5.16983	23811
5.17050	23806
5.17117	23802
5.17183	23797
5.17250	23793
5.17317	23789
5.17383	23786
5.17450	23782
5.17517	23779
5.17583	23775
5.17650	23772
5.17717	23769
5.17783	23767
5.17850	23764
5.17917	23762
5.17983	23760
5.18050	23758
5.18117	23756
5.18183	23755
5.18250	23753
5.18317	23752
5.18383	23751
5.18450	23750
5.18517	23749
5.18583	23748
5.18650	23747
5.18717	23746
5.18783	23746
5.18850	23745
5.18917	23745
5.18983	23744
5.19050	23743
5.19117	23743
5.19183	23742
5.19250	23741
5.19317	23740
5.19383	23740
5.19450	23739
5.19517	23738
5.19583	23737
5.19650	23736
5.19717	23736
5.19783	23735
5.19850	23735
5.19917	23734
5.19983	23734
5.20050	23734
5.20117	23733
5.20183	23733
5.20250	23733
5.20317	23733
5.20383	23732
5.20450	23732
5.20517	23732
5.20583	23732
5.20650	23731
5.20717	23731
5.20783	23730
5.20850	23729
5.20917	23728
5.20983	23727
5.21050	23726
5.21117	23724
5.21183	23722
5.21250	23720
5.21317	23717
5.21383	23715
5.21450	23712
5.21517	23708
5.21583	23705
5.21650	23701
5.21717	23697
5.21783	23693
5.21850	23688
5.21917	23683
5.21983	23678
5.22050	23673
5.22117	23668
5.22183	23662
5.22250	23656
5.22317	23650
5.22383	23643
5.22450	23636
5.22517	23629
5.22583	23621
5.22650	23614
5.22717	23605
5.22783	23597
5.22850	23588
5.22917	23579
5.22983	23569
5.23050	23559
5.23117	23549
5.23183	23539
5.23250	23528
5.23317	23517
5.23383	23506
5.23450	23494
5.23517	23482
5.23583	23470
5.23650	23458
5.23717	23445
5.23783	23432
5.23850	23419
5.23917	23405
5.23983	23392
5.24050	23378
5.24117	23363
5.24183	23349
5.24250	23334
5.24317	23319
5.24383	23303
5.24450	23288
5.24517	23272
5.24583	23255
5.24650	23238
5.24717	23221
5.24783	23204
5.24850	23186
5.24917	23168
5.24983	23149
5.25050	23131
5.25117	23112
5.25183	23093
5.25250	23073
5.25317	23054
5.25383	23034
5.25450	23014
5.25517	22994
5.25583	22973
5.25650	22953
5.25717	22932
5.25783	22911
5.25850	22889
5.25917	22868
5.25983	22846
5.26050	22824
5.26117	22802
5.26183	22779
5.26250	22757
5.26317	22734
5.26383	22710
5.26450	22687
5.26517	22664
5.26583	22640
5.26650	22616
5.26717	22592
5.26783	22568
5.26850	22543
5.26917	22519
5.26983	22494
5.27050	22469
5.27117	22444
5.27183	22419
5.27250	22394
5.27317	22369
5.27383	22344
5.27450	22319
5.27517	22293
5.27583	22268
5.27650	22243
5.27717	22218
5.27783	22192
5.27850	22167
5.27917	22142
5.27983	22117
5.28050	22091
5.28117	22066
5.28183	22041
5.28250	22016
5.28317	21991
5.28383	21966
5.28450	21941
5.28517	21916
5.28583	21891
5.28650	21866
5.28717	21841
5.28783	21816
5.28850	21792
5.28917	21767
5.28983	21742
5.29050	21717
5.29117	21692
5.29183	21668
5.29250	21643
5.29317	21618
5.29383	21593
5.29450	21569
5.29517	21544
5.29583	21520
5.29650	21495
5.29717	21470
5.29783	21446
5.29850	21421
5.29917	21397
5.29983	21373
5.30050	21349
5.30117	21325
5.30183	21301
5.30250	21277
5.30317	21253
5.30383	21230
5.30450	21206
5.30517	21183
5.30583	21160
5.30650	21137
5.30717	21114
5.30783	21091
5.30850	21069
5.30917	21046
5.30983	21024
5.31050	21002
5.31117	20980
5.31183	20958
5.31250	20936
5.31317	20914
5.31383	20893
5.31450	20872
5.31517	20851
5.31583	20831
5.31650	20810
5.31717	20790
5.31783	20770
5.31850	20750
5.31917	20731
5.31983	20711
5.32050	20692
5.32117	20673
5.32183	20654
5.32250	20635
5.32317	20617
5.32383	20598
5.32450	20580
5.32517	20562
5.32583	20544
5.32650	20526
5.32717	20509
5.32783	20491
5.32850	20474
5.32917	20457
5.32983	20439
5.33050	20422
5.33117	20406
5.33183	20389
5.33250	20372
5.33317	20355
5.33383	20339
5.33450	20322
5.33517	20306
5.33583	20290
5.33650	20273
5.33717	20257
5.33783	20241
5.33850	20225
5.33917	20209
5.33983	20193
5.34050	20177
5.34117	20161
5.34183	20146
5.34250	20130
5.34317	20115
5.34383	20099
5.34450	20084
5.34517	20068
5.34583	20053
5.34650	20038
5.34717	20022
5.34783	20007
5.34850	19992
5.34917	19976
5.34983	19961
5.35050	19946
5.35117	19930
5.35183	19915
5.35250	19900
5.35317	19884
5.35383	19869
5.35450	19854
5.35517	19839
5.35583	19824
5.35650	19808
5.35717	19793
5.35783	19778
5.35850	19763
5.35917	19747
5.35983	19732
5.36050	19717
5.36117	19702
5.36183	19687
5.36250	19672
5.36317	19657
5.36383	19642
5.36450	19628
5.36517	19613
5.36583	19598
5.36650	19583
5.36717	19568
5.36783	19554
5.36850	19539
5.36917	19524
5.36983	19509
5.37050	19495
5.37117	19480
5.37183	19465
5.37250	19450
5.37317	19435
5.37383	19420
5.37450	19406
5.37517	19391
5.37583	19376
5.37650	19361
5.37717	19345
5.37783	19330
5.37850	19314
5.37917	19299
5.37983	19283
5.38050	19267
5.38117	19251
5.38183	19235
5.38250	19219
5.38317	19203
5.38383	19187
5.38450	19172
5.38517	19156
5.38583	19140
5.38650	19125
5.38717	19110
5.38783	19094
5.38850	19079
5.38917	19065
5.38983	19050
5.39050	19036
5.39117	19021
5.39183	19007
5.39250	18993
5.39317	18979
5.39383	18966
5.39450	18952
5.39517	18939
5.39583	18925
5.39650	18912
5.39717	18898
5.39783	18885
5.39850	18872
5.39917	18858
5.39983	18845
5.40050	18832
5.40117	18819
5.40183	18805
5.40250	18792
5.40317	18779
5.40383	18766
5.40450	18752
5.40517	18739
5.40583	18726
5.40650	18713
5.40717	18699
5.40783	18686
5.40850	18673
5.40917	18659
5.40983	18646
5.41050	18633
5.41117	18620
5.41183	18606
5.41250	18593
5.41317	18579
5.41383	18566
5.41450	18553
5.41517	18539
5.41583	18526
5.41650	18512
5.41717	18499
5.41783	18485
5.41850	18472
5.41917	18459
5.41983	18445
5.42050	18432
5.42117	18419
5.42183	18406
5.42250	18393
5.42317	18380
5.42383	18367
5.42450	18354
5.42517	18340
5.42583	18327
5.42650	18314
5.42717	18300
5.42783	18287
5.42850	18273
5.42917	18260
5.42983	18246
5.43050	18232
5.43117	18219
5.43183	18205
5.43250	18191
5.43317	18177
5.43383	18163
5.43450	18149
5.43517	18135
5.43583	18122
5.43650	18108
5.43717	18094
5.43783	18080
5.43850	18066
5.43917	18052
5.43983	18038
5.44050	18024
5.44117	18010
5.44183	17996
5.44250	17981
5.44317	17967
5.44383	17953
5.44450	17938
5.44517	17924
5.44583	17909
5.44650	17894
5.44717	17880
5.44783	17865
5.44850	17850
5.44917	17835
5.44983	17820
5.45050	17804
5.45117	17789
5.45183	17774
5.45250	17758
5.45317	17743
5.45383	17728
5.45450	17712
5.45517	17697
5.45583	17682
5.45650	17667
5.45717	17652
5.45783	17637
5.45850	17622
5.45917	17607
5.45983	17592
5.46050	17577
5.46117	17562
5.46183	17547
5.46250	17533
5.46317	17518
5.46383	17504
5.46450	17489
5.46517	17475
5.46583	17461
5.46650	17446
5.46717	17432
5.46783	17418
5.46850	17404
5.46917	17390
5.46983	17376
5.47050	17362
5.47117	17348
5.47183	17334
5.47250	17320
5.47317	17306
5.47383	17292
5.47450	17278
5.47517	17265
5.47583	17251
5.47650	17237
5.47717	17223
5.47783	17210
5.47850	17196
5.47917	17183
5.47983	17169
5.48050	17156
5.48117	17143
5.48183	17129
5.48250	17116
5.48317	17103
5.48383	17090
5.48450	17077
5.48517	17063
5.48583	17050
5.48650	17037
5.48717	17023
5.48783	17010
5.48850	16997
5.48917	16984
5.48983	16971
5.49050	16959
5.49117	16946
5.49183	16933
5.49250	16921
5.49317	16908
5.49383	16896
5.49450	16884
5.49517	16872
5.49583	16860
5.49650	16848
5.49717	16836
5.49783	16824
5.49850	16812
5.49917	16800
5.49983	16788
5.50050	16776
5.50117	16764
5.50183	16752
5.50250	16740
5.50317	16728
5.50383	16716
5.50450	16704
5.50517	16692
5.50583	16680
5.50650	16668
5.50717	16656
5.50783	16644
5.50850	16632
5.50917	16621
5.50983	16609
5.51050	16597
5.51117	16585
5.51183	16573
5.51250	16562
5.51317	16550
5.51383	16538
5.51450	16527
5.51517	16515
5.51583	16504
5.51650	16492
5.51717	16481
5.51783	16469
5.51850	16458
5.51917	16447
5.51983	16435
5.52050	16424
5.52117	16413
5.52183	16402
5.52250	16390
5.52317	16379
5.52383	16368
5.52450	16357
5.52517	16346
5.52583	16335
5.52650	16323
5.52717	16312
5.52783	16301
5.52850	16290
5.52917	16279
5.52983	16268
5.53050	16257
5.53117	16246
5.53183	16235
5.53250	16223
5.53317	16212
5.53383	16201
5.53450	16190
5.53517	16180
5.53583	16169
5.53650	16158
5.53717	16147
5.53783	16137
5.53850	16126
5.53917	16115
5.53983	16105
5.54050	16095
5.54117	16084
5.54183	16074
5.54250	16064
5.54317	16054
5.54383	16044
5.54450	16034
5.54517	16024
5.54583	16014
5.54650	16004
5.54717	15995
5.54783	15985
5.54850	15975
5.54917	15965
5.54983	15955
5.55050	15945
5.55117	15935
5.55183	15925
5.55250	15915
5.55317	15905
5.55383	15896
5.55450	15886
5.55517	15876
5.55583	15867
5.55650	15857
5.55717	15847
5.55783	15838
5.55850	15828
5.55917	15819
5.55983	15809
5.56050	15800
5.56117	15791
5.56183	15781
5.56250	15772
5.56317	15763
5.56383	15754
5.56450	15744
5.56517	15735
5.56583	15726
5.56650	15717
5.56717	15708
5.56783	15698
5.56850	15689
5.56917	15680
5.56983	15671
5.57050	15662
5.57117	15652
5.57183	15643
5.57250	15634
5.57317	15625
5.57383	15616
5.57450	15607
5.57517	15598
5.57583	15589
5.57650	15580
5.57717	15571
5.57783	15562
5.57850	15553
5.57917	15544
5.57983	15535
5.58050	15526
5.58117	15517
5.58183	15508
5.58250	15499
5.58317	15491
5.58383	15482
5.58450	15473
5.58517	15464
5.58583	15455
5.58650	15446
5.58717	15438
5.58783	15429
5.58850	15420
5.58917	15411
5.58983	15402
5.59050	15394
5.59117	15385
5.59183	15376
5.59250	15368
5.59317	15359
5.59383	15351
5.59450	15342
5.59517	15334
5.59583	15326
5.59650	15317
5.59717	15309
5.59783	15301
5.59850	15293
5.59917	15285
5.59983	15276
5.60050	15268
5.60117	15260
5.60183	15252
5.60250	15244
5.60317	15236
5.60383	15228
5.60450	15220
5.60517	15213
5.60583	15205
5.60650	15197
5.60717	15189
5.60783	15181
5.60850	15173
5.60917	15165
5.60983	15158
5.61050	15150
5.61117	15142
5.61183	15134
5.61250	15126
5.61317	15118
5.61383	15110
5.61450	15102
5.61517	15094
5.61583	15086
5.61650	15078
5.61717	15070
5.61783	15062
5.61850	15054
5.61917	15045
5.61983	15037
5.62050	15029
5.62117	15021
5.62183	15013
5.62250	15005
5.62317	14997
5.62383	14989
5.62450	14981
5.62517	14973
5.62583	14965
5.62650	14957
5.62717	14949
5.62783	14940
5.62850	14932
5.62917	14924
5.62983	14915
5.63050	14907
5.63117	14898
5.63183	14890
5.63250	14882
5.63317	14873
5.63383	14865
5.63450	14857
5.63517	14849
5.63583	14841
5.63650	14833
5.63717	14825
5.63783	14817
5.63850	14809
5.63917	14801
5.63983	14793
5.64050	14785
5.64117	14777
5.64183	14769
5.64250	14761
5.64317	14753
5.64383	14745
5.64450	14737
5.64517	14729
5.64583	14721
5.64650	14714
5.64717	14706
5.64783	14698
5.64850	14690
5.64917	14682
5.64983	14674
5.65050	14666
5.65117	14658
5.65183	14650
5.65250	14642
5.65317	14634
5.65383	14626
5.65450	14618
5.65517	14610
5.65583	14602
5.65650	14594
5.65717	14586
5.65783	14578
5.65850	14571
5.65917	14563
5.65983	14555
5.66050	14547
5.66117	14540
5.66183	14532
5.66250	14525
5.66317	14517
5.66383	14510
5.66450	14503
5.66517	14495
5.66583	14488
5.66650	14481
5.66717	14474
5.66783	14466
5.66850	14459
5.66917	14452
5.66983	14445
5.67050	14438
5.67117	14431
5.67183	14424
5.67250	14417
5.67317	14410
5.67383	14403
5.67450	14396
5.67517	14389
5.67583	14382
5.67650	14375
5.67717	14368
5.67783	14361
5.67850	14354
5.67917	14347
5.67983	14339
5.68050	14332
5.68117	14325
5.68183	14318
5.68250	14311
5.68317	14304
5.68383	14297
5.68450	14291
5.68517	14284
5.68583	14277
5.68650	14271
5.68717	14264
5.68783	14257
5.68850	14251
5.68917	14244
5.68983	14238
5.69050	14231
5.69117	14225
5.69183	14218
5.69250	14212
5.69317	14206
5.69383	14199
5.69450	14193
5.69517	14187
5.69583	14181
5.69650	14175
5.69717	14169
5.69783	14163
5.69850	14157
5.69917	14151
5.69983	14144
5.70050	14138
5.70117	14132
5.70183	14126
5.70250	14120
5.70317	14115
5.70383	14109
5.70450	14103
5.70517	14097
5.70583	14091
5.70650	14085
5.70717	14079
5.70783	14073
5.70850	14067
5.70917	14061
5.70983	14055
5.71050	14049
5.71117	14043
5.71183	14036
5.71250	14030
5.71317	14024
5.71383	14018
5.71450	14012
5.71517	14006
5.71583	14000
5.71650	13994
5.71717	13988
5.71783	13981
5.71850	13975
5.71917	13969
5.71983	13963
5.72050	13957
5.72117	13952
5.72183	13946
5.72250	13940
5.72317	13934
5.72383	13928
5.72450	13922
5.72517	13916
5.72583	13911
5.72650	13905
5.72717	13899
5.72783	13894
5.72850	13888
5.72917	13883
5.72983	13877
5.73050	13872
5.73117	13867
5.73183	13861
5.73250	13856
5.73317	13851
5.73383	13846
5.73450	13841
5.73517	13836
5.73583	13831
5.73650	13826
5.73717	13822
5.73783	13817
5.73850	13813
5.73917	13808
5.73983	13804
5.74050	13799
5.74117	13795
5.74183	13791
5.74250	13787
5.74317	13783
5.74383	13779
5.74450	13775
5.74517	13771
5.74583	13767
5.74650	13763
5.74717	13759
5.74783	13756
5.74850	13752
5.74917	13748
5.74983	13745
5.75050	13741
5.75117	13738
5.75183	13735
5.75250	13732
5.75317	13728
5.75383	13725
5.75450	13722
5.75517	13720
5.75583	13717
5.75650	13714
5.75717	13711
5.75783	13709
5.75850	13706
5.75917	13704
5.75983	13702
5.76050	13700
5.76117	13698
5.76183	13696
5.76250	13694
5.76317	13692
5.76383	13690
5.76450	13689
5.76517	13688
5.76583	13686
5.76650	13685
5.76717	13684
5.76783	13683
5.76850	13681
5.76917	13680
5.76983	13679
5.77050	13679
5.77117	13678
5.77183	13677
5.77250	13676
5.77317	13676
5.77383	13675
5.77450	13675
5.77517	13674
5.77583	13674
5.77650	13674
5.77717	13673
5.77783	13673
5.77850	13673
5.77917	13672
5.77983	13672
5.78050	13671
5.78117	13671
5.78183	13671
5.78250	13670
5.78317	13670
5.78383	13669
5.78450	13669
5.78517	13668
5.78583	13667
5.78650	13667
5.78717	13666
5.78783	13666
5.78850	13665
5.78917	13664
5.78983	13664
5.79050	13663
5.79117	13663
5.79183	13662
5.79250	13662
5.79317	13661
5.79383	13661
5.79450	13661
5.79517	13660
5.79583	13660
5.79650	13660
5.79717	13660
5.79783	13660
5.79850	13660
5.79917	13660
5.79983	13660
5.80050	13660
5.80117	13660
5.80183	13660
5.80250	13660
5.80317	13661
5.80383	13661
5.80450	13662
5.80517	13662
5.80583	13663
5.80650	13664
5.80717	13665
5.80783	13665
5.80850	13666
5.80917	13667
5.80983	13668
5.81050	13669
5.81117	13669
5.81183	13670
5.81250	13671
5.81317	13672
5.81383	13672
5.81450	13673
5.81517	13674
5.81583	13674
5.81650	13675
5.81717	13676
5.81783	13676
5.81850	13677
5.81917	13677
5.81983	13678
5.82050	13678
5.82117	13679
5.82183	13679
5.82250	13679
5.82317	13680
5.82383	13680
5.82450	13681
5.82517	13681
5.82583	13682
5.82650	13682
5.82717	13683
5.82783	13683
5.82850	13684
5.82917	13684
5.82983	13685
5.83050	13685
5.83117	13685
5.83183	13686
5.83250	13686
5.83317	13687
5.83383	13687
5.83450	13687
5.83517	13688
5.83583	13688
5.83650	13688
5.83717	13688
5.83783	13687
5.83850	13687
5.83917	13687
5.83983	13686
5.84050	13686
5.84117	13685
5.84183	13685
5.84250	13684
5.84317	13683
5.84383	13682
5.84450	13681
5.84517	13680
5.84583	13679
5.84650	13678
5.84717	13676
5.84783	13675
5.84850	13673
5.84917	13672
5.84983	13670
5.85050	13668
5.85117	13666
5.85183	13664
5.85250	13662
5.85317	13659
5.85383	13657
5.85450	13654
5.85517	13652
5.85583	13649
5.85650	13646
5.85717	13643
5.85783	13640
5.85850	13636
5.85917	13633
5.85983	13629
5.86050	13625
5.86117	13621
5.86183	13617
5.86250	13613
5.86317	13609
5.86383	13604
5.86450	13600
5.86517	13595
5.86583	13590
5.86650	13585
5.86717	13581
5.86783	13576
5.86850	13571
5.86917	13566
5.86983	13561
5.87050	13555
5.87117	13550
5.87183	13545
5.87250	13539
5.87317	13534
5.87383	13528
5.87450	13522
5.87517	13516
5.87583	13510
5.87650	13504
5.87717	13498
5.87783	13492
5.87850	13485
5.87917	13479
5.87983	13473
5.88050	13466
5.88117	13459
5.88183	13452
5.88250	13446
5.88317	13439
5.88383	13432
5.88450	13425
5.88517	13418
5.88583	13411
5.88650	13403
5.88717	13396
5.88783	13389
5.88850	13382
5.88917	13374
5.88983	13367
5.89050	13360
5.89117	13352
5.89183	13345
5.89250	13337
5.89317	13330
5.89383	13322
5.89450	13315
5.89517	13307
5.89583	13300
5.89650	13292
5.89717	13284
5.89783	13276
5.89850	13269
5.89917	13261
5.89983	13253
5.90050	13246
5.90117	13238
5.90183	13230
5.90250	13222
5.90317	13215
5.90383	13207
5.90450	13199
5.90517	13191
5.90583	13183
5.90650	13176
5.90717	13168
5.90783	13160
5.90850	13152
5.90917	13145
5.90983	13137
5.91050	13129
5.91117	13121
5.91183	13114
5.91250	13106
5.91317	13098
5.91383	13091
5.91450	13083
5.91517	13076
5.91583	13068
5.91650	13061
5.91717	13053
5.91783	13046
5.91850	13038
5.91917	13031
5.91983	13024
5.92050	13017
5.92117	13009
5.92183	13002
5.92250	12995
5.92317	12988
5.92383	12981
5.92450	12973
5.92517	12966
5.92583	12959
5.92650	12952
5.92717	12944
5.92783	12937
5.92850	12929
5.92917	12922
5.92983	12915
5.93050	12907
5.93117	12900
5.93183	12892
5.93250	12885
5.93317	12878
5.93383	12870
5.93450	12863
5.93517	12855
5.93583	12848
5.93650	12841
5.93717	12833
5.93783	12826
5.93850	12819
5.93917	12812
5.93983	12805
5.94050	12798
5.94117	12791
5.94183	12784
5.94250	12777
5.94317	12770
5.94383	12763
5.94450	12757
5.94517	12750
5.94583	12743
5.94650	12737
5.94717	12730
5.94783	12724
5.94850	12717
5.94917	12710
5.94983	12704
5.95050	12698
5.95117	12691
5.95183	12685
5.95250	12678
5.95317	12672
5.95383	12665
5.95450	12659
5.95517	12653
5.95583	12646
5.95650	12640
5.95717	12634
5.95783	12628
5.95850	12622
5.95917	12616
5.95983	12610
5.96050	12604
5.96117	12598
5.96183	12592
5.96250	12586
5.96317	12580
5.96383	12575
5.96450	12569
5.96517	12563
5.96583	12558
5.96650	12552
5.96717	12546
5.96783	12541
5.96850	12535
5.96917	12530
5.96983	12524
5.97050	12519
5.97117	12513
5.97183	12508
5.97250	12502
5.97317	12497
5.97383	12492
5.97450	12486
5.97517	12481
5.97583	12476
5.97650	12471
5.97717	12466
5.97783	12461
5.97850	12456
5.97917	12451
5.97983	12446
5.98050	12442
5.98117	12437
5.98183	12432
5.98250	12428
5.98317	12423
5.98383	12419
5.98450	12415
5.98517	12410
5.98583	12406
5.98650	12402
5.98717	12398
5.98783	12393
5.98850	12389
5.98917	12385
5.98983	12381
5.99050	12377
5.99117	12373
5.99183	12368
5.99250	12364
5.99317	12360
5.99383	12356
5.99450	12352
5.99517	12348
5.99583	12344
5.99650	12340
5.99717	12335
5.99783	12331
5.99850	12327
5.99917	12324
5.99983	12320
6.00050	12316
6.00117	12312
6.00183	12309
6.00250	12305
6.00317	12301
6.00383	12298
6.00450	12294
6.00517	12291
6.00583	12287
6.00650	12284
6.00717	12280
6.00783	12277
6.00850	12274
6.00917	12270
6.00983	12267
6.01050	12263
6.01117	12260
6.01183	12256
6.01250	12253
6.01317	12249
6.01383	12246
6.01450	12242
6.01517	12239
6.01583	12235
6.01650	12232
6.01717	12228
6.01783	12225
6.01850	12221
6.01917	12218
6.01983	12214
6.02050	12210
6.02117	12207
6.02183	12203
6.02250	12199
6.02317	12195
6.02383	12192
6.02450	12188
6.02517	12184
6.02583	12180
6.02650	12177
6.02717	12173
6.02783	12169
6.02850	12166
6.02917	12162
6.02983	12158
6.03050	12154
6.03117	12151
6.03183	12147
6.03250	12143
6.03317	12139
6.03383	12135
6.03450	12132
6.03517	12128
6.03583	12124
6.03650	12120
6.03717	12116
6.03783	12113
6.03850	12109
6.03917	12105
6.03983	12102
6.04050	12098
6.04117	12094
6.04183	12091
6.04250	12087
6.04317	12083
6.04383	12080
6.04450	12076
6.04517	12073
6.04583	12070
6.04650	12066
6.04717	12063
6.04783	12060
6.04850	12057
6.04917	12053
6.04983	12050
6.05050	12047
6.05117	12044
6.05183	12041
6.05250	12039
6.05317	12036
6.05383	12033
6.05450	12030
6.05517	12027
6.05583	12025
6.05650	12022
6.05717	12019
6.05783	12017
6.05850	12014
6.05917	12012
6.05983	12009
6.06050	12007
6.06117	12004
6.06183	12002
6.06250	11999
6.06317	11997
6.06383	11994
6.06450	11992
6.06517	11989
6.06583	11987
6.06650	11984
6.06717	11982
6.06783	11980
6.06850	11977
6.06917	11975
6.06983	11973
6.07050	11970
6.07117	11968
6.07183	11966
6.07250	11964
6.07317	11962
6.07383	11960
6.07450	11958
6.07517	11956
6.07583	11954
6.07650	11952
6.07717	11950
6.07783	11948
6.07850	11946
6.07917	11944
6.07983	11942
6.08050	11940
6.08117	11938
6.08183	11935
6.08250	11933
6.08317	11931
6.08383	11929
6.08450	11926
6.08517	11924
6.08583	11922
6.08650	11920
6.08717	11917
6.08783	11915
6.08850	11913
6.08917	11910
6.08983	11908
6.09050	11906
6.09117	11903
6.09183	11901
6.09250	11898
6.09317	11896
6.09383	11894
6.09450	11891
6.09517	11889
6.09583	11886
6.09650	11884
6.09717	11882
6.09783	11879
6.09850	11877
6.09917	11875
6.09983	11872
6.10050	11870
6.10117	11868
6.10183	11866
6.10250	11863
6.10317	11861
6.10383	11859
6.10450	11856
6.10517	11854
6.10583	11852
6.10650	11850
6.10717	11848
6.10783	11846
6.10850	11844
6.10917	11842
6.10983	11840
6.11050	11838
6.11117	11837
6.11183	11835
6.11250	11833
6.11317	11832
6.11383	11831
6.11450	11829
6.11517	11828
6.11583	11827
6.11650	11825
6.11717	11824
6.11783	11823
6.11850	11822
6.11917	11821
6.11983	11820
6.12050	11820
6.12117	11819
6.12183	11818
6.12250	11817
6.12317	11816
6.12383	11815
6.12450	11815
6.12517	11814
6.12583	11813
6.12650	11812
6.12717	11811
6.12783	11811
6.12850	11810
6.12917	11809
6.12983	11809
6.13050	11808
6.13117	11807
6.13183	11807
6.13250	11806
6.13317	11805
6.13383	11804
6.13450	11804
6.13517	11803
6.13583	11802
6.13650	11801
6.13717	11801
6.13783	11800
6.13850	11799
6.13917	11798
6.13983	11797
6.14050	11796
6.14117	11795
6.14183	11794
6.14250	11792
6.14317	11791
6.14383	11790
6.14450	11789
6.14517	11787
6.14583	11786
6.14650	11784
6.14717	11783
6.14783	11781
6.14850	11780
6.14917	11778
6.14983	11776
6.15050	11775
6.15117	11773
6.15183	11771
6.15250	11769
6.15317	11767
6.15383	11765
6.15450	11763
6.15517	11761
6.15583	11759
6.15650	11757
6.15717	11754
6.15783	11752
6.15850	11749
6.15917	11747
6.15983	11744
6.16050	11741
6.16117	11738
6.16183	11736
6.16250	11733
6.16317	11729
6.16383	11726
6.16450	11723
6.16517	11720
6.16583	11717
6.16650	11714
6.16717	11710
6.16783	11707
6.16850	11704
6.16917	11701
6.16983	11697
6.17050	11694
6.17117	11691
6.17183	11688
6.17250	11685
6.17317	11682
6.17383	11679
6.17450	11676
6.17517	11673
6.17583	11670
6.17650	11667
6.17717	11664
6.17783	11661
6.17850	11658
6.17917	11655
6.17983	11653
6.18050	11650
6.18117	11647
6.18183	11644
6.18250	11641
6.18317	11638
6.18383	11635
6.18450	11632
6.18517	11629
6.18583	11626
6.18650	11623
6.18717	11620
6.18783	11618
6.18850	11615
6.18917	11612
6.18983	11609
6.19050	11607
6.19117	11604
6.19183	11602
6.19250	11599
6.19317	11596
6.19383	11594
6.19450	11591
6.19517	11589
6.19583	11586
6.19650	11584
6.19717	11582
6.19783	11579
6.19850	11577
6.19917	11575
6.19983	11573
6.20050	11571
6.20117	11569
6.20183	11567
6.20250	11565
6.20317	11563
6.20383	11561
6.20450	11559
6.20517	11557
6.20583	11556
6.20650	11554
6.20717	11552
6.20783	11550
6.20850	11548
6.20917	11546
6.20983	11544
6.21050	11543
6.21117	11541
6.21183	11539
6.21250	11537
6.21317	11535
6.21383	11534
6.21450	11532
6.21517	11530
6.21583	11528
6.21650	11526
6.21717	11524
6.21783	11522
6.21850	11521
6.21917	11519
6.21983	11517
6.22050	11515
6.22117	11513
6.22183	11511
6.22250	11509
6.22317	11507
6.22383	11506
6.22450	11504
6.22517	11502
6.22583	11500
6.22650	11499
6.22717	11497
6.22783	11495
6.22850	11494
6.22917	11492
6.22983	11491
6.23050	11490
6.23117	11488
6.23183	11487
6.23250	11486
6.23317	11485
6.23383	11484
6.23450	11483
6.23517	11482
6.23583	11481
6.23650	11480
6.23717	11479
6.23783	11478
6.23850	11477
6.23917	11476
6.23983	11475
6.24050	11474
6.24117	11474
6.24183	11473
6.24250	11473
6.24317	11472
6.24383	11471
6.24450	11471
6.24517	11471
6.24583	11470
6.24650	11470
6.24717	11470
6.24783	11470
6.24850	11470
6.24917	11470
6.24983	11470
6.25050	11470
6.25117	11470
6.25183	11470
6.25250	11470
6.25317	11471
6.25383	11471
6.25450	11471
6.25517	11472
6.25583	11472
6.25650	11473
6.25717	11473
6.25783	11474
6.25850	11475
6.25917	11475
6.25983	11476
6.26050	11477
6.26117	11478
6.26183	11479
6.26250	11481
6.26317	11482
6.26383	11483
6.26450	11485
6.26517	11486
6.26583	11488
6.26650	11489
6.26717	11491
6.26783	11492
6.26850	11494
6.26917	11495
6.26983	11497
6.27050	11499
6.27117	11500
6.27183	11502
6.27250	11504
6.27317	11505
6.27383	11507
6.27450	11509
6.27517	11511
6.27583	11512
6.27650	11514
6.27717	11516
6.27783	11518
6.27850	11519
6.27917	11521
6.27983	11523
6.28050	11525
6.28117	11526
6.28183	11528
6.28250	11530
6.28317	11532
6.28383	11533
6.28450	11535
6.28517	11537
6.28583	11538
6.28650	11540
6.28717	11541
6.28783	11543
6.28850	11544
6.28917	11546
6.28983	11547
6.29050	11548
6.29117	11550
6.29183	11551
6.29250	11552
6.29317	11553
6.29383	11554
6.29450	11555
6.29517	11555
6.29583	11556
6.29650	11557
6.29717	11557
6.29783	11558
6.29850	11558
6.29917	11559
6.29983	11559
6.30050	11559
6.30117	11559
6.30183	11560
6.30250	11560
6.30317	11560
6.30383	11560
6.30450	11559
6.30517	11559
6.30583	11559
6.30650	11559
6.30717	11558
6.30783	11558
6.30850	11558
6.30917	11557
6.30983	11556
6.31050	11556
6.31117	11555
6.31183	11554
6.31250	11553
6.31317	11552
6.31383	11551
6.31450	11550
6.31517	11549
6.31583	11548
6.31650	11547
6.31717	11545
6.31783	11544
6.31850	11543
6.31917	11541
6.31983	11540
6.32050	11539
6.32117	11537
6.32183	11536
6.32250	11534
6.32317	11533
6.32383	11531
6.32450	11530
6.32517	11528
6.32583	11526
6.32650	11524
6.32717	11523
6.32783	11521
6.32850	11519
6.32917	11516
6.32983	11514
6.33050	11512
6.33117	11510
6.33183	11508
6.33250	11505
6.33317	11503
6.33383	11500
6.33450	11497
6.33517	11495
6.33583	11492
6.33650	11489
6.33717	11486
6.33783	11483
6.33850	11480
6.33917	11477
6.33983	11474
6.34050	11470
6.34117	11467
6.34183	11464
6.34250	11460
6.34317	11457
6.34383	11453
6.34450	11450
6.34517	11446
6.34583	11442
6.34650	11438
6.34717	11435
6.34783	11431
6.34850	11427
6.34917	11423
6.34983	11419
6.35050	11415
6.35117	11410
6.35183	11406
6.35250	11402
6.35317	11398
6.35383	11394
6.35450	11390
6.35517	11386
6.35583	11381
6.35650	11377
6.35717	11373
6.35783	11368
6.35850	11364
6.35917	11360
6.35983	11355
6.36050	11351
6.36117	11346
6.36183	11342
6.36250	11337
6.36317	11332
6.36383	11328
6.36450	11323
6.36517	11318
6.36583	11314
6.36650	11309
6.36717	11304
6.36783	11299
6.36850	11294
6.36917	11289
6.36983	11284
6.37050	11279
6.37117	11274
6.37183	11269
6.37250	11264
6.37317	11259
6.37383	11254
6.37450	11249
6.37517	11244
6.37583	11239
6.37650	11234
6.37717	11229
6.37783	11224
6.37850	11219
6.37917	11214
6.37983	11209
6.38050	11203
6.38117	11198
6.38183	11193
6.38250	11188
6.38317	11183
6.38383	11178
6.38450	11173
6.38517	11168
6.38583	11163
6.38650	11158
6.38717	11153
6.38783	11147
6.38850	11142
6.38917	11137
6.38983	11132
6.39050	11127
6.39117	11122
6.39183	11117
6.39250	11112
6.39317	11107
6.39383	11102
6.39450	11097
6.39517	11092
6.39583	11087
6.39650	11083
6.39717	11078
6.39783	11073
6.39850	11068
6.39917	11063
6.39983	11059

