[Header]
Application Name	LabSolutions
Version	5.73
Data File Name	C:\LabSolutions\Data\Project1\stephen\2016-01-06\39.gcd
Output Date	1/11/2016
Output Time	1:19:46 PM

[Configuration]
Instrument Name	WEISSTA-PC-Instrument1
Instrument #	1
Line #	1
# of Detectors	1
Detector ID	DET#2
Detector Name	DFID1
# of Channels	1

[Chromatogram (Ch1)]
Interval(msec)	40
# of Points	9600
Start Time(min)	0.000
End Time(min)	6.400
R.Time (min)	Intensity
0.00033	21
0.00100	21
0.00167	22
0.00233	22
0.00300	23
0.00367	23
0.00433	23
0.00500	24
0.00567	24
0.00633	24
0.00700	25
0.00767	25
0.00833	25
0.00900	25
0.00967	25
0.01033	25
0.01100	25
0.01167	24
0.01233	24
0.01300	23
0.01367	22
0.01433	21
0.01500	20
0.01567	19
0.01633	18
0.01700	16
0.01767	14
0.01833	12
0.01900	10
0.01967	8
0.02033	6
0.02100	3
0.02167	1
0.02233	-2
0.02300	-5
0.02367	-8
0.02433	-11
0.02500	-14
0.02567	-17
0.02633	-20
0.02700	-24
0.02767	-27
0.02833	-30
0.02900	-33
0.02967	-37
0.03033	-40
0.03100	-43
0.03167	-46
0.03233	-49
0.03300	-52
0.03367	-55
0.03433	-58
0.03500	-60
0.03567	-63
0.03633	-66
0.03700	-68
0.03767	-70
0.03833	-73
0.03900	-75
0.03967	-77
0.04033	-79
0.04100	-81
0.04167	-83
0.04233	-85
0.04300	-87
0.04367	-89
0.04433	-90
0.04500	-92
0.04567	-94
0.04633	-95
0.04700	-97
0.04767	-98
0.04833	-100
0.04900	-101
0.04967	-102
0.05033	-104
0.05100	-105
0.05167	-107
0.05233	-108
0.05300	-109
0.05367	-110
0.05433	-111
0.05500	-113
0.05567	-114
0.05633	-115
0.05700	-116
0.05767	-118
0.05833	-119
0.05900	-120
0.05967	-121
0.06033	-122
0.06100	-123
0.06167	-124
0.06233	-125
0.06300	-126
0.06367	-127
0.06433	-128
0.06500	-129
0.06567	-130
0.06633	-131
0.06700	-132
0.06767	-133
0.06833	-134
0.06900	-135
0.06967	-136
0.07033	-137
0.07100	-137
0.07167	-138
0.07233	-139
0.07300	-140
0.07367	-141
0.07433	-142
0.07500	-143
0.07567	-143
0.07633	-144
0.07700	-145
0.07767	-146
0.07833	-146
0.07900	-147
0.07967	-148
0.08033	-148
0.08100	-149
0.08167	-149
0.08233	-150
0.08300	-150
0.08367	-151
0.08433	-151
0.08500	-152
0.08567	-152
0.08633	-152
0.08700	-150
0.08767	-146
0.08833	-138
0.08900	-123
0.08967	-101
0.09033	-74
0.09100	-38
0.09167	18
0.09233	98
0.09300	219
0.09367	357
0.09433	510
0.09500	687
0.09567	871
0.09633	1055
0.09700	1252
0.09767	1481
0.09833	1726
0.09900	1970
0.09967	2233
0.10033	2515
0.10100	2817
0.10167	3118
0.10233	3407
0.10300	3698
0.10367	3989
0.10433	4266
0.10500	4527
0.10567	4779
0.10633	5013
0.10700	5234
0.10767	5453
0.10833	5692
0.10900	5939
0.10967	6175
0.11033	6398
0.11100	6603
0.11167	6800
0.11233	7019
0.11300	7263
0.11367	7538
0.11433	7834
0.11500	8144
0.11567	8445
0.11633	8723
0.11700	8973
0.11767	9196
0.11833	9393
0.11900	9569
0.11967	9722
0.12033	9853
0.12100	9964
0.12167	10068
0.12233	10167
0.12300	10276
0.12367	10373
0.12433	10457
0.12500	10524
0.12567	10573
0.12633	10606
0.12700	10624
0.12767	10626
0.12833	10613
0.12900	10587
0.12967	10550
0.13033	10503
0.13100	10472
0.13167	10575
0.13233	11226
0.13300	13488
0.13367	19743
0.13433	34383
0.13500	64873
0.13567	122386
0.13633	223031
0.13700	386718
0.13767	636268
0.13833	993323
0.13900	1479268
0.13967	2113050
0.14033	2911092
0.14100	3886213
0.14167	5049553
0.14233	6409427
0.14300	7972256
0.14367	9741641
0.14433	11719589
0.14500	13906019
0.14567	16299729
0.14633	18898320
0.14700	21698583
0.14767	24696355
0.14833	27886361
0.14900	31261943
0.14967	34814761
0.15033	38534688
0.15100	42409491
0.15167	46424906
0.15233	50564694
0.15300	54811255
0.15367	59146476
0.15433	63552134
0.15500	68010233
0.15567	72502456
0.15633	77010894
0.15700	81517545
0.15767	86004902
0.15833	90455437
0.15900	94852209
0.15967	99178091
0.16033	103416400
0.16100	107550886
0.16167	111566983
0.16233	115450715
0.16300	119190463
0.16367	122776789
0.16433	126202250
0.16500	129461332
0.16567	132550034
0.16633	135465923
0.16700	138207704
0.16767	140775238
0.16833	143169224
0.16900	145391324
0.16967	147443698
0.17033	149329218
0.17100	151050992
0.17167	152612669
0.17233	154018089
0.17300	155271488
0.17367	156377248
0.17433	157340028
0.17500	158164534
0.17567	158855631
0.17633	159418120
0.17700	159856936
0.17767	160176927
0.17833	160382898
0.17900	160479560
0.17967	160471540
0.18033	160363444
0.18100	160159729
0.18167	159864725
0.18233	159482570
0.18300	159017349
0.18367	158473022
0.18433	157853529
0.18500	157162619
0.18567	156403929
0.18633	155580872
0.18700	154696837
0.18767	153755101
0.18833	152758879
0.18900	151711178
0.18967	150614897
0.19033	149472757
0.19100	148287436
0.19167	147061508
0.19233	145797516
0.19300	144497903
0.19367	143164997
0.19433	141801044
0.19500	140408221
0.19567	138988657
0.19633	137544463
0.19700	136077765
0.19767	134590608
0.19833	133084949
0.19900	131562606
0.19967	130025345
0.20033	128474861
0.20100	126912857
0.20167	125340944
0.20233	123760664
0.20300	122173441
0.20367	120580683
0.20433	118983718
0.20500	117383854
0.20567	115782327
0.20633	114180336
0.20700	112579030
0.20767	110979545
0.20833	109382955
0.20900	107790282
0.20967	106202486
0.21033	104620466
0.21100	103045099
0.21167	101477218
0.21233	99917614
0.21300	98367012
0.21367	96826119
0.21433	95295592
0.21500	93776077
0.21567	92268185
0.21633	90772528
0.21700	89289711
0.21767	87820424
0.21833	86365541
0.21900	84926077
0.21967	83502919
0.22033	82096629
0.22100	80707440
0.22167	79335374
0.22233	77980329
0.22300	76642180
0.22367	75320821
0.22433	74016187
0.22500	72728202
0.22567	71456825
0.22633	70202030
0.22700	68963781
0.22767	67742057
0.22833	66536816
0.22900	65348015
0.22967	64175603
0.23033	63019531
0.23100	61879731
0.23167	60756140
0.23233	59648676
0.23300	58557261
0.23367	57481805
0.23433	56422222
0.23500	55378401
0.23567	54350229
0.23633	53337580
0.23700	52340344
0.23767	51358400
0.23833	50391626
0.23900	49439889
0.23967	48503061
0.24033	47581009
0.24100	46673602
0.24167	45780709
0.24233	44902202
0.24300	44037951
0.24367	43187823
0.24433	42351679
0.24500	41529372
0.24567	40720756
0.24633	39925676
0.24700	39143993
0.24767	38375561
0.24833	37620242
0.24900	36877887
0.24967	36148348
0.25033	35431477
0.25100	34727130
0.25167	34035157
0.25233	33355415
0.25300	32687753
0.25367	32032025
0.25433	31388091
0.25500	30755807
0.25567	30135036
0.25633	29525635
0.25700	28927466
0.25767	28340386
0.25833	27764254
0.25900	27198923
0.25967	26644250
0.26033	26100096
0.26100	25566320
0.26167	25042774
0.26233	24529306
0.26300	24025761
0.26367	23531988
0.26433	23047830
0.26500	22573135
0.26567	22107745
0.26633	21651505
0.26700	21204258
0.26767	20765848
0.26833	20336113
0.26900	19914894
0.26967	19502034
0.27033	19097376
0.27100	18700765
0.27167	18312043
0.27233	17931058
0.27300	17557658
0.27367	17191695
0.27433	16833018
0.27500	16481483
0.27567	16136947
0.27633	15799274
0.27700	15468325
0.27767	15143962
0.27833	14826050
0.27900	14514458
0.27967	14209057
0.28033	13909725
0.28100	13616338
0.28167	13328774
0.28233	13046908
0.28300	12770621
0.28367	12499792
0.28433	12234309
0.28500	11974061
0.28567	11718939
0.28633	11468838
0.28700	11223654
0.28767	10983281
0.28833	10747619
0.28900	10516572
0.28967	10290043
0.29033	10067942
0.29100	9850179
0.29167	9636669
0.29233	9427327
0.29300	9222073
0.29367	9020827
0.29433	8823512
0.29500	8630052
0.29567	8440374
0.29633	8254406
0.29700	8072080
0.29767	7893329
0.29833	7718087
0.29900	7546290
0.29967	7377875
0.30033	7212783
0.30100	7050954
0.30167	6892332
0.30233	6736859
0.30300	6584481
0.30367	6435144
0.30433	6288795
0.30500	6145384
0.30567	6004860
0.30633	5867175
0.30700	5732282
0.30767	5600135
0.30833	5470689
0.30900	5343899
0.30967	5219721
0.31033	5098112
0.31100	4979030
0.31167	4862434
0.31233	4748284
0.31300	4636538
0.31367	4527159
0.31433	4420108
0.31500	4315346
0.31567	4212837
0.31633	4112544
0.31700	4014430
0.31767	3918460
0.31833	3824597
0.31900	3732808
0.31967	3643057
0.32033	3555311
0.32100	3469535
0.32167	3385696
0.32233	3303760
0.32300	3223694
0.32367	3145466
0.32433	3069043
0.32500	2994391
0.32567	2921479
0.32633	2850276
0.32700	2780751
0.32767	2712873
0.32833	2646611
0.32900	2581937
0.32967	2518820
0.33033	2457231
0.33100	2397143
0.33167	2338527
0.33233	2281355
0.33300	2225602
0.33367	2171241
0.33433	2118245
0.33500	2066591
0.33567	2016252
0.33633	1967205
0.33700	1919427
0.33767	1872895
0.33833	1827587
0.33900	1783485
0.33967	1740566
0.34033	1698813
0.34100	1658206
0.34167	1618726
0.34233	1580355
0.34300	1543074
0.34367	1506865
0.34433	1471707
0.34500	1437583
0.34567	1404472
0.34633	1372354
0.34700	1341209
0.34767	1311015
0.34833	1281749
0.34900	1253393
0.34967	1225923
0.35033	1199318
0.35100	1173558
0.35167	1148621
0.35233	1124488
0.35300	1101142
0.35367	1078565
0.35433	1056741
0.35500	1035658
0.35567	1015302
0.35633	995662
0.35700	976729
0.35767	958493
0.35833	940944
0.35900	924071
0.35967	907865
0.36033	892314
0.36100	877406
0.36167	863127
0.36233	849464
0.36300	836400
0.36367	823919
0.36433	812002
0.36500	800627
0.36567	789774
0.36633	779422
0.36700	769548
0.36767	760132
0.36833	751150
0.36900	742583
0.36967	734410
0.37033	726611
0.37100	719167
0.37167	712058
0.37233	705267
0.37300	698776
0.37367	692568
0.37433	686627
0.37500	680938
0.37567	675485
0.37633	670254
0.37700	665229
0.37767	660396
0.37833	655738
0.37900	651241
0.37967	646890
0.38033	642670
0.38100	638568
0.38167	634570
0.38233	630662
0.38300	626832
0.38367	623066
0.38433	619350
0.38500	615671
0.38567	612013
0.38633	608364
0.38700	604708
0.38767	601030
0.38833	597317
0.38900	593553
0.38967	589727
0.39033	585824
0.39100	581833
0.39167	577744
0.39233	573544
0.39300	569226
0.39367	564780
0.39433	560202
0.39500	555487
0.39567	550633
0.39633	545638
0.39700	540504
0.39767	535233
0.39833	529830
0.39900	524301
0.39967	518650
0.40033	512886
0.40100	507017
0.40167	501050
0.40233	494995
0.40300	488859
0.40367	482653
0.40433	476386
0.40500	470065
0.40567	463701
0.40633	457302
0.40700	450875
0.40767	444429
0.40833	437973
0.40900	431512
0.40967	425055
0.41033	418608
0.41100	412178
0.41167	405772
0.41233	399394
0.41300	393050
0.41367	386747
0.41433	380487
0.41500	374276
0.41567	368118
0.41633	362016
0.41700	355974
0.41767	349996
0.41833	344083
0.41900	338240
0.41967	332467
0.42033	326768
0.42100	321143
0.42167	315596
0.42233	310126
0.42300	304736
0.42367	299427
0.42433	294198
0.42500	289052
0.42567	283989
0.42633	279008
0.42700	274112
0.42767	269298
0.42833	264569
0.42900	259923
0.42967	255360
0.43033	250880
0.43100	246483
0.43167	242168
0.43233	237935
0.43300	233782
0.43367	229710
0.43433	225717
0.43500	221803
0.43567	217967
0.43633	214208
0.43700	210526
0.43767	206919
0.43833	203386
0.43900	199928
0.43967	196541
0.44033	193227
0.44100	189983
0.44167	186808
0.44233	183702
0.44300	180663
0.44367	177689
0.44433	174781
0.44500	171937
0.44567	169155
0.44633	166436
0.44700	163778
0.44767	161180
0.44833	158643
0.44900	156165
0.44967	153745
0.45033	151382
0.45100	149077
0.45167	146828
0.45233	144634
0.45300	142494
0.45367	140409
0.45433	138375
0.45500	136394
0.45567	134465
0.45633	132586
0.45700	130757
0.45767	128978
0.45833	127248
0.45900	125567
0.45967	123935
0.46033	122351
0.46100	120815
0.46167	119328
0.46233	117890
0.46300	116500
0.46367	115160
0.46433	113871
0.46500	112631
0.46567	111443
0.46633	110305
0.46700	109216
0.46767	108175
0.46833	107181
0.46900	106230
0.46967	105321
0.47033	104452
0.47100	103622
0.47167	102829
0.47233	102072
0.47300	101348
0.47367	100655
0.47433	99992
0.47500	99358
0.47567	98750
0.47633	98168
0.47700	97609
0.47767	97072
0.47833	96556
0.47900	96059
0.47967	95582
0.48033	95121
0.48100	94677
0.48167	94248
0.48233	93833
0.48300	93432
0.48367	93043
0.48433	92665
0.48500	92298
0.48567	91941
0.48633	91594
0.48700	91254
0.48767	90922
0.48833	90598
0.48900	90279
0.48967	89967
0.49033	89659
0.49100	89356
0.49167	89057
0.49233	88762
0.49300	88470
0.49367	88180
0.49433	87892
0.49500	87606
0.49567	87321
0.49633	87037
0.49700	86754
0.49767	86472
0.49833	86189
0.49900	85907
0.49967	85624
0.50033	85341
0.50100	85058
0.50167	84774
0.50233	84489
0.50300	84203
0.50367	83916
0.50433	83627
0.50500	83337
0.50567	83046
0.50633	82753
0.50700	82458
0.50767	82162
0.50833	81864
0.50900	81564
0.50967	81262
0.51033	80959
0.51100	80653
0.51167	80346
0.51233	80037
0.51300	79726
0.51367	79414
0.51433	79099
0.51500	78783
0.51567	78465
0.51633	78145
0.51700	77824
0.51767	77501
0.51833	77176
0.51900	76850
0.51967	76522
0.52033	76192
0.52100	75861
0.52167	75529
0.52233	75195
0.52300	74860
0.52367	74524
0.52433	74186
0.52500	73848
0.52567	73508
0.52633	73168
0.52700	72827
0.52767	72485
0.52833	72142
0.52900	71798
0.52967	71454
0.53033	71109
0.53100	70764
0.53167	70419
0.53233	70073
0.53300	69727
0.53367	69380
0.53433	69034
0.53500	68687
0.53567	68340
0.53633	67994
0.53700	67648
0.53767	67301
0.53833	66955
0.53900	66610
0.53967	66265
0.54033	65920
0.54100	65576
0.54167	65232
0.54233	64890
0.54300	64548
0.54367	64207
0.54433	63866
0.54500	63527
0.54567	63189
0.54633	62852
0.54700	62516
0.54767	62182
0.54833	61849
0.54900	61517
0.54967	61187
0.55033	60859
0.55100	60533
0.55167	60208
0.55233	59886
0.55300	59566
0.55367	59248
0.55433	58932
0.55500	58618
0.55567	58307
0.55633	57998
0.55700	57691
0.55767	57387
0.55833	57085
0.55900	56784
0.55967	56486
0.56033	56190
0.56100	55896
0.56167	55604
0.56233	55313
0.56300	55025
0.56367	54737
0.56433	54451
0.56500	54167
0.56567	53884
0.56633	53602
0.56700	53322
0.56767	53042
0.56833	52764
0.56900	52488
0.56967	52212
0.57033	51938
0.57100	51664
0.57167	51392
0.57233	51122
0.57300	50852
0.57367	50584
0.57433	50317
0.57500	50051
0.57567	49786
0.57633	49522
0.57700	49260
0.57767	48998
0.57833	48738
0.57900	48480
0.57967	48222
0.58033	47965
0.58100	47710
0.58167	47456
0.58233	47203
0.58300	46952
0.58367	46702
0.58433	46453
0.58500	46205
0.58567	45959
0.58633	45713
0.58700	45470
0.58767	45227
0.58833	44986
0.58900	44746
0.58967	44507
0.59033	44270
0.59100	44034
0.59167	43800
0.59233	43567
0.59300	43336
0.59367	43106
0.59433	42877
0.59500	42650
0.59567	42425
0.59633	42200
0.59700	41978
0.59767	41756
0.59833	41536
0.59900	41318
0.59967	41101
0.60033	40886
0.60100	40672
0.60167	40459
0.60233	40249
0.60300	40039
0.60367	39832
0.60433	39625
0.60500	39421
0.60567	39217
0.60633	39015
0.60700	38815
0.60767	38617
0.60833	38419
0.60900	38223
0.60967	38029
0.61033	37836
0.61100	37645
0.61167	37455
0.61233	37267
0.61300	37080
0.61367	36894
0.61433	36710
0.61500	36527
0.61567	36346
0.61633	36167
0.61700	35988
0.61767	35812
0.61833	35636
0.61900	35462
0.61967	35289
0.62033	35118
0.62100	34948
0.62167	34779
0.62233	34612
0.62300	34446
0.62367	34281
0.62433	34118
0.62500	33955
0.62567	33794
0.62633	33634
0.62700	33475
0.62767	33317
0.62833	33160
0.62900	33005
0.62967	32851
0.63033	32697
0.63100	32545
0.63167	32394
0.63233	32244
0.63300	32095
0.63367	31948
0.63433	31801
0.63500	31655
0.63567	31511
0.63633	31368
0.63700	31226
0.63767	31084
0.63833	30945
0.63900	30806
0.63967	30668
0.64033	30531
0.64100	30396
0.64167	30261
0.64233	30128
0.64300	29996
0.64367	29864
0.64433	29734
0.64500	29605
0.64567	29477
0.64633	29350
0.64700	29224
0.64767	29099
0.64833	28976
0.64900	28853
0.64967	28731
0.65033	28610
0.65100	28490
0.65167	28370
0.65233	28252
0.65300	28134
0.65367	28018
0.65433	27902
0.65500	27787
0.65567	27672
0.65633	27559
0.65700	27446
0.65767	27334
0.65833	27222
0.65900	27111
0.65967	27001
0.66033	26891
0.66100	26782
0.66167	26674
0.66233	26566
0.66300	26459
0.66367	26353
0.66433	26247
0.66500	26141
0.66567	26037
0.66633	25933
0.66700	25829
0.66767	25726
0.66833	25624
0.66900	25522
0.66967	25421
0.67033	25321
0.67100	25221
0.67167	25121
0.67233	25023
0.67300	24925
0.67367	24827
0.67433	24730
0.67500	24634
0.67567	24539
0.67633	24444
0.67700	24350
0.67767	24257
0.67833	24165
0.67900	24074
0.67967	23984
0.68033	23895
0.68100	23807
0.68167	23720
0.68233	23635
0.68300	23551
0.68367	23469
0.68433	23390
0.68500	23312
0.68567	23236
0.68633	23162
0.68700	23092
0.68767	23024
0.68833	22959
0.68900	22897
0.68967	22839
0.69033	22785
0.69100	22734
0.69167	22687
0.69233	22644
0.69300	22606
0.69367	22572
0.69433	22543
0.69500	22518
0.69567	22497
0.69633	22482
0.69700	22470
0.69767	22463
0.69833	22460
0.69900	22461
0.69967	22465
0.70033	22473
0.70100	22484
0.70167	22497
0.70233	22512
0.70300	22529
0.70367	22547
0.70433	22565
0.70500	22584
0.70567	22602
0.70633	22619
0.70700	22635
0.70767	22649
0.70833	22661
0.70900	22670
0.70967	22677
0.71033	22680
0.71100	22680
0.71167	22676
0.71233	22668
0.71300	22657
0.71367	22642
0.71433	22623
0.71500	22600
0.71567	22573
0.71633	22542
0.71700	22508
0.71767	22470
0.71833	22428
0.71900	22383
0.71967	22336
0.72033	22285
0.72100	22231
0.72167	22175
0.72233	22116
0.72300	22054
0.72367	21991
0.72433	21925
0.72500	21858
0.72567	21788
0.72633	21717
0.72700	21645
0.72767	21571
0.72833	21496
0.72900	21419
0.72967	21342
0.73033	21264
0.73100	21185
0.73167	21105
0.73233	21025
0.73300	20944
0.73367	20862
0.73433	20780
0.73500	20698
0.73567	20615
0.73633	20533
0.73700	20450
0.73767	20367
0.73833	20283
0.73900	20200
0.73967	20117
0.74033	20034
0.74100	19952
0.74167	19869
0.74233	19786
0.74300	19704
0.74367	19622
0.74433	19541
0.74500	19459
0.74567	19378
0.74633	19298
0.74700	19217
0.74767	19138
0.74833	19058
0.74900	18979
0.74967	18901
0.75033	18823
0.75100	18745
0.75167	18668
0.75233	18591
0.75300	18515
0.75367	18440
0.75433	18365
0.75500	18290
0.75567	18217
0.75633	18143
0.75700	18071
0.75767	17998
0.75833	17927
0.75900	17856
0.75967	17786
0.76033	17716
0.76100	17647
0.76167	17578
0.76233	17510
0.76300	17443
0.76367	17377
0.76433	17311
0.76500	17246
0.76567	17181
0.76633	17117
0.76700	17053
0.76767	16991
0.76833	16928
0.76900	16867
0.76967	16806
0.77033	16745
0.77100	16686
0.77167	16626
0.77233	16568
0.77300	16510
0.77367	16452
0.77433	16395
0.77500	16339
0.77567	16283
0.77633	16228
0.77700	16173
0.77767	16119
0.77833	16065
0.77900	16012
0.77967	15959
0.78033	15907
0.78100	15856
0.78167	15805
0.78233	15754
0.78300	15704
0.78367	15654
0.78433	15605
0.78500	15557
0.78567	15508
0.78633	15461
0.78700	15413
0.78767	15367
0.78833	15320
0.78900	15275
0.78967	15229
0.79033	15184
0.79100	15140
0.79167	15096
0.79233	15052
0.79300	15009
0.79367	14966
0.79433	14924
0.79500	14882
0.79567	14840
0.79633	14799
0.79700	14758
0.79767	14717
0.79833	14677
0.79900	14637
0.79967	14598
0.80033	14559
0.80100	14520
0.80167	14481
0.80233	14443
0.80300	14405
0.80367	14368
0.80433	14331
0.80500	14294
0.80567	14257
0.80633	14221
0.80700	14185
0.80767	14150
0.80833	14115
0.80900	14080
0.80967	14046
0.81033	14011
0.81100	13977
0.81167	13944
0.81233	13910
0.81300	13877
0.81367	13845
0.81433	13812
0.81500	13780
0.81567	13749
0.81633	13717
0.81700	13686
0.81767	13655
0.81833	13625
0.81900	13595
0.81967	13565
0.82033	13536
0.82100	13506
0.82167	13477
0.82233	13449
0.82300	13420
0.82367	13392
0.82433	13364
0.82500	13337
0.82567	13309
0.82633	13282
0.82700	13255
0.82767	13228
0.82833	13202
0.82900	13175
0.82967	13149
0.83033	13123
0.83100	13097
0.83167	13071
0.83233	13046
0.83300	13020
0.83367	12995
0.83433	12970
0.83500	12945
0.83567	12920
0.83633	12895
0.83700	12871
0.83767	12846
0.83833	12822
0.83900	12798
0.83967	12774
0.84033	12750
0.84100	12726
0.84167	12703
0.84233	12679
0.84300	12656
0.84367	12632
0.84433	12609
0.84500	12586
0.84567	12563
0.84633	12541
0.84700	12518
0.84767	12495
0.84833	12473
0.84900	12451
0.84967	12428
0.85033	12406
0.85100	12384
0.85167	12363
0.85233	12341
0.85300	12319
0.85367	12298
0.85433	12276
0.85500	12255
0.85567	12233
0.85633	12212
0.85700	12191
0.85767	12170
0.85833	12149
0.85900	12128
0.85967	12108
0.86033	12087
0.86100	12067
0.86167	12046
0.86233	12026
0.86300	12006
0.86367	11985
0.86433	11965
0.86500	11945
0.86567	11925
0.86633	11905
0.86700	11885
0.86767	11866
0.86833	11846
0.86900	11826
0.86967	11807
0.87033	11787
0.87100	11768
0.87167	11749
0.87233	11730
0.87300	11711
0.87367	11692
0.87433	11673
0.87500	11654
0.87567	11636
0.87633	11617
0.87700	11599
0.87767	11581
0.87833	11563
0.87900	11544
0.87967	11526
0.88033	11508
0.88100	11491
0.88167	11473
0.88233	11455
0.88300	11437
0.88367	11420
0.88433	11402
0.88500	11385
0.88567	11368
0.88633	11351
0.88700	11334
0.88767	11317
0.88833	11300
0.88900	11283
0.88967	11266
0.89033	11250
0.89100	11233
0.89167	11217
0.89233	11201
0.89300	11184
0.89367	11168
0.89433	11152
0.89500	11136
0.89567	11120
0.89633	11105
0.89700	11089
0.89767	11073
0.89833	11058
0.89900	11042
0.89967	11027
0.90033	11011
0.90100	10996
0.90167	10980
0.90233	10965
0.90300	10950
0.90367	10935
0.90433	10920
0.90500	10905
0.90567	10890
0.90633	10875
0.90700	10860
0.90767	10845
0.90833	10830
0.90900	10815
0.90967	10800
0.91033	10785
0.91100	10771
0.91167	10756
0.91233	10742
0.91300	10727
0.91367	10713
0.91433	10699
0.91500	10684
0.91567	10670
0.91633	10656
0.91700	10642
0.91767	10628
0.91833	10614
0.91900	10600
0.91967	10587
0.92033	10573
0.92100	10559
0.92167	10546
0.92233	10532
0.92300	10519
0.92367	10505
0.92433	10492
0.92500	10479
0.92567	10465
0.92633	10452
0.92700	10439
0.92767	10426
0.92833	10413
0.92900	10400
0.92967	10387
0.93033	10374
0.93100	10362
0.93167	10349
0.93233	10336
0.93300	10324
0.93367	10311
0.93433	10299
0.93500	10286
0.93567	10274
0.93633	10262
0.93700	10249
0.93767	10237
0.93833	10225
0.93900	10213
0.93967	10201
0.94033	10188
0.94100	10176
0.94167	10164
0.94233	10152
0.94300	10140
0.94367	10128
0.94433	10116
0.94500	10104
0.94567	10091
0.94633	10079
0.94700	10067
0.94767	10055
0.94833	10044
0.94900	10032
0.94967	10020
0.95033	10008
0.95100	9997
0.95167	9985
0.95233	9973
0.95300	9962
0.95367	9950
0.95433	9939
0.95500	9928
0.95567	9916
0.95633	9905
0.95700	9894
0.95767	9884
0.95833	9873
0.95900	9863
0.95967	9852
0.96033	9842
0.96100	9832
0.96167	9822
0.96233	9812
0.96300	9802
0.96367	9792
0.96433	9782
0.96500	9773
0.96567	9763
0.96633	9754
0.96700	9744
0.96767	9735
0.96833	9726
0.96900	9716
0.96967	9707
0.97033	9698
0.97100	9689
0.97167	9679
0.97233	9670
0.97300	9661
0.97367	9651
0.97433	9642
0.97500	9632
0.97567	9623
0.97633	9613
0.97700	9603
0.97767	9593
0.97833	9583
0.97900	9573
0.97967	9563
0.98033	9553
0.98100	9543
0.98167	9532
0.98233	9522
0.98300	9511
0.98367	9501
0.98433	9490
0.98500	9479
0.98567	9469
0.98633	9458
0.98700	9447
0.98767	9436
0.98833	9425
0.98900	9414
0.98967	9403
0.99033	9392
0.99100	9381
0.99167	9370
0.99233	9359
0.99300	9348
0.99367	9337
0.99433	9326
0.99500	9315
0.99567	9304
0.99633	9293
0.99700	9282
0.99767	9271
0.99833	9260
0.99900	9249
0.99967	9238
1.00033	9228
1.00100	9217
1.00167	9206
1.00233	9195
1.00300	9185
1.00367	9174
1.00433	9164
1.00500	9153
1.00567	9143
1.00633	9132
1.00700	9122
1.00767	9112
1.00833	9101
1.00900	9091
1.00967	9081
1.01033	9071
1.01100	9061
1.01167	9051
1.01233	9041
1.01300	9032
1.01367	9022
1.01433	9013
1.01500	9003
1.01567	8994
1.01633	8985
1.01700	8977
1.01767	8968
1.01833	8960
1.01900	8952
1.01967	8944
1.02033	8936
1.02100	8928
1.02167	8921
1.02233	8914
1.02300	8907
1.02367	8900
1.02433	8893
1.02500	8887
1.02567	8881
1.02633	8874
1.02700	8868
1.02767	8862
1.02833	8857
1.02900	8851
1.02967	8845
1.03033	8840
1.03100	8834
1.03167	8829
1.03233	8823
1.03300	8818
1.03367	8812
1.03433	8807
1.03500	8802
1.03567	8796
1.03633	8790
1.03700	8785
1.03767	8779
1.03833	8773
1.03900	8768
1.03967	8762
1.04033	8756
1.04100	8750
1.04167	8743
1.04233	8737
1.04300	8731
1.04367	8725
1.04433	8718
1.04500	8712
1.04567	8705
1.04633	8699
1.04700	8692
1.04767	8685
1.04833	8678
1.04900	8672
1.04967	8665
1.05033	8658
1.05100	8651
1.05167	8644
1.05233	8637
1.05300	8630
1.05367	8623
1.05433	8615
1.05500	8608
1.05567	8601
1.05633	8594
1.05700	8587
1.05767	8580
1.05833	8573
1.05900	8566
1.05967	8558
1.06033	8551
1.06100	8544
1.06167	8537
1.06233	8529
1.06300	8522
1.06367	8515
1.06433	8508
1.06500	8500
1.06567	8493
1.06633	8486
1.06700	8479
1.06767	8471
1.06833	8464
1.06900	8457
1.06967	8449
1.07033	8442
1.07100	8435
1.07167	8428
1.07233	8420
1.07300	8413
1.07367	8406
1.07433	8399
1.07500	8391
1.07567	8384
1.07633	8377
1.07700	8370
1.07767	8363
1.07833	8356
1.07900	8349
1.07967	8341
1.08033	8334
1.08100	8327
1.08167	8320
1.08233	8313
1.08300	8306
1.08367	8300
1.08433	8293
1.08500	8286
1.08567	8279
1.08633	8272
1.08700	8265
1.08767	8258
1.08833	8251
1.08900	8244
1.08967	8238
1.09033	8231
1.09100	8224
1.09167	8217
1.09233	8210
1.09300	8203
1.09367	8196
1.09433	8189
1.09500	8182
1.09567	8175
1.09633	8168
1.09700	8161
1.09767	8154
1.09833	8147
1.09900	8140
1.09967	8133
1.10033	8126
1.10100	8119
1.10167	8111
1.10233	8104
1.10300	8097
1.10367	8090
1.10433	8083
1.10500	8076
1.10567	8069
1.10633	8062
1.10700	8055
1.10767	8049
1.10833	8042
1.10900	8035
1.10967	8028
1.11033	8022
1.11100	8015
1.11167	8008
1.11233	8002
1.11300	7995
1.11367	7988
1.11433	7982
1.11500	7975
1.11567	7969
1.11633	7962
1.11700	7956
1.11767	7950
1.11833	7943
1.11900	7937
1.11967	7931
1.12033	7925
1.12100	7919
1.12167	7912
1.12233	7906
1.12300	7900
1.12367	7894
1.12433	7889
1.12500	7883
1.12567	7877
1.12633	7871
1.12700	7865
1.12767	7860
1.12833	7854
1.12900	7849
1.12967	7844
1.13033	7838
1.13100	7833
1.13167	7828
1.13233	7823
1.13300	7818
1.13367	7813
1.13433	7809
1.13500	7804
1.13567	7800
1.13633	7796
1.13700	7792
1.13767	7788
1.13833	7784
1.13900	7780
1.13967	7776
1.14033	7773
1.14100	7769
1.14167	7766
1.14233	7762
1.14300	7759
1.14367	7756
1.14433	7752
1.14500	7749
1.14567	7746
1.14633	7743
1.14700	7740
1.14767	7737
1.14833	7734
1.14900	7731
1.14967	7728
1.15033	7725
1.15100	7721
1.15167	7718
1.15233	7715
1.15300	7712
1.15367	7708
1.15433	7705
1.15500	7702
1.15567	7698
1.15633	7695
1.15700	7691
1.15767	7687
1.15833	7684
1.15900	7680
1.15967	7676
1.16033	7672
1.16100	7668
1.16167	7663
1.16233	7659
1.16300	7655
1.16367	7650
1.16433	7646
1.16500	7641
1.16567	7637
1.16633	7632
1.16700	7627
1.16767	7623
1.16833	7618
1.16900	7613
1.16967	7608
1.17033	7603
1.17100	7598
1.17167	7593
1.17233	7588
1.17300	7583
1.17367	7578
1.17433	7573
1.17500	7568
1.17567	7563
1.17633	7558
1.17700	7553
1.17767	7548
1.17833	7543
1.17900	7537
1.17967	7532
1.18033	7527
1.18100	7522
1.18167	7517
1.18233	7512
1.18300	7508
1.18367	7503
1.18433	7498
1.18500	7493
1.18567	7489
1.18633	7484
1.18700	7479
1.18767	7475
1.18833	7470
1.18900	7466
1.18967	7461
1.19033	7457
1.19100	7452
1.19167	7448
1.19233	7444
1.19300	7440
1.19367	7436
1.19433	7432
1.19500	7428
1.19567	7424
1.19633	7420
1.19700	7416
1.19767	7412
1.19833	7409
1.19900	7405
1.19967	7402
1.20033	7398
1.20100	7395
1.20167	7392
1.20233	7389
1.20300	7385
1.20367	7382
1.20433	7380
1.20500	7377
1.20567	7374
1.20633	7371
1.20700	7369
1.20767	7366
1.20833	7364
1.20900	7361
1.20967	7359
1.21033	7357
1.21100	7355
1.21167	7353
1.21233	7351
1.21300	7349
1.21367	7348
1.21433	7346
1.21500	7344
1.21567	7343
1.21633	7341
1.21700	7340
1.21767	7338
1.21833	7337
1.21900	7335
1.21967	7334
1.22033	7332
1.22100	7331
1.22167	7329
1.22233	7328
1.22300	7327
1.22367	7325
1.22433	7324
1.22500	7323
1.22567	7322
1.22633	7321
1.22700	7319
1.22767	7318
1.22833	7317
1.22900	7316
1.22967	7315
1.23033	7314
1.23100	7314
1.23167	7313
1.23233	7312
1.23300	7311
1.23367	7311
1.23433	7310
1.23500	7309
1.23567	7309
1.23633	7308
1.23700	7308
1.23767	7307
1.23833	7307
1.23900	7307
1.23967	7306
1.24033	7306
1.24100	7306
1.24167	7305
1.24233	7305
1.24300	7305
1.24367	7304
1.24433	7304
1.24500	7304
1.24567	7303
1.24633	7303
1.24700	7303
1.24767	7303
1.24833	7302
1.24900	7302
1.24967	7302
1.25033	7302
1.25100	7302
1.25167	7302
1.25233	7302
1.25300	7302
1.25367	7303
1.25433	7303
1.25500	7303
1.25567	7304
1.25633	7304
1.25700	7305
1.25767	7306
1.25833	7307
1.25900	7308
1.25967	7309
1.26033	7310
1.26100	7312
1.26167	7313
1.26233	7315
1.26300	7317
1.26367	7319
1.26433	7322
1.26500	7324
1.26567	7327
1.26633	7330
1.26700	7333
1.26767	7337
1.26833	7341
1.26900	7345
1.26967	7349
1.27033	7354
1.27100	7359
1.27167	7364
1.27233	7370
1.27300	7376
1.27367	7382
1.27433	7388
1.27500	7395
1.27567	7402
1.27633	7410
1.27700	7418
1.27767	7426
1.27833	7434
1.27900	7443
1.27967	7451
1.28033	7461
1.28100	7470
1.28167	7480
1.28233	7490
1.28300	7500
1.28367	7510
1.28433	7520
1.28500	7530
1.28567	7541
1.28633	7551
1.28700	7561
1.28767	7571
1.28833	7582
1.28900	7591
1.28967	7601
1.29033	7611
1.29100	7620
1.29167	7629
1.29233	7638
1.29300	7646
1.29367	7654
1.29433	7662
1.29500	7669
1.29567	7676
1.29633	7683
1.29700	7688
1.29767	7694
1.29833	7699
1.29900	7704
1.29967	7708
1.30033	7712
1.30100	7715
1.30167	7718
1.30233	7720
1.30300	7723
1.30367	7724
1.30433	7725
1.30500	7726
1.30567	7726
1.30633	7726
1.30700	7726
1.30767	7725
1.30833	7724
1.30900	7723
1.30967	7721
1.31033	7719
1.31100	7716
1.31167	7713
1.31233	7710
1.31300	7707
1.31367	7704
1.31433	7700
1.31500	7695
1.31567	7691
1.31633	7686
1.31700	7681
1.31767	7676
1.31833	7671
1.31900	7665
1.31967	7660
1.32033	7654
1.32100	7647
1.32167	7641
1.32233	7635
1.32300	7628
1.32367	7621
1.32433	7614
1.32500	7607
1.32567	7600
1.32633	7593
1.32700	7585
1.32767	7578
1.32833	7570
1.32900	7562
1.32967	7554
1.33033	7546
1.33100	7538
1.33167	7529
1.33233	7521
1.33300	7512
1.33367	7503
1.33433	7495
1.33500	7486
1.33567	7477
1.33633	7468
1.33700	7459
1.33767	7450
1.33833	7441
1.33900	7432
1.33967	7423
1.34033	7414
1.34100	7405
1.34167	7395
1.34233	7386
1.34300	7377
1.34367	7368
1.34433	7359
1.34500	7349
1.34567	7340
1.34633	7331
1.34700	7322
1.34767	7313
1.34833	7304
1.34900	7295
1.34967	7286
1.35033	7277
1.35100	7268
1.35167	7260
1.35233	7251
1.35300	7242
1.35367	7234
1.35433	7225
1.35500	7217
1.35567	7209
1.35633	7201
1.35700	7193
1.35767	7185
1.35833	7177
1.35900	7169
1.35967	7162
1.36033	7154
1.36100	7147
1.36167	7139
1.36233	7132
1.36300	7125
1.36367	7118
1.36433	7111
1.36500	7104
1.36567	7097
1.36633	7091
1.36700	7084
1.36767	7078
1.36833	7071
1.36900	7065
1.36967	7059
1.37033	7053
1.37100	7047
1.37167	7041
1.37233	7035
1.37300	7029
1.37367	7024
1.37433	7018
1.37500	7013
1.37567	7007
1.37633	7002
1.37700	6997
1.37767	6992
1.37833	6987
1.37900	6982
1.37967	6977
1.38033	6972
1.38100	6967
1.38167	6963
1.38233	6958
1.38300	6953
1.38367	6949
1.38433	6945
1.38500	6940
1.38567	6936
1.38633	6932
1.38700	6927
1.38767	6923
1.38833	6919
1.38900	6915
1.38967	6911
1.39033	6907
1.39100	6903
1.39167	6899
1.39233	6895
1.39300	6891
1.39367	6887
1.39433	6883
1.39500	6879
1.39567	6875
1.39633	6871
1.39700	6867
1.39767	6863
1.39833	6859
1.39900	6855
1.39967	6852
1.40033	6848
1.40100	6844
1.40167	6840
1.40233	6836
1.40300	6832
1.40367	6829
1.40433	6825
1.40500	6821
1.40567	6817
1.40633	6813
1.40700	6810
1.40767	6806
1.40833	6802
1.40900	6798
1.40967	6795
1.41033	6791
1.41100	6787
1.41167	6784
1.41233	6780
1.41300	6776
1.41367	6773
1.41433	6769
1.41500	6766
1.41567	6763
1.41633	6759
1.41700	6756
1.41767	6752
1.41833	6749
1.41900	6746
1.41967	6743
1.42033	6739
1.42100	6736
1.42167	6733
1.42233	6730
1.42300	6727
1.42367	6724
1.42433	6721
1.42500	6718
1.42567	6715
1.42633	6712
1.42700	6709
1.42767	6707
1.42833	6704
1.42900	6701
1.42967	6699
1.43033	6696
1.43100	6693
1.43167	6691
1.43233	6689
1.43300	6686
1.43367	6684
1.43433	6682
1.43500	6679
1.43567	6677
1.43633	6675
1.43700	6673
1.43767	6671
1.43833	6669
1.43900	6667
1.43967	6665
1.44033	6663
1.44100	6661
1.44167	6659
1.44233	6657
1.44300	6655
1.44367	6653
1.44433	6651
1.44500	6649
1.44567	6648
1.44633	6646
1.44700	6644
1.44767	6642
1.44833	6641
1.44900	6639
1.44967	6637
1.45033	6636
1.45100	6634
1.45167	6632
1.45233	6631
1.45300	6629
1.45367	6627
1.45433	6626
1.45500	6624
1.45567	6622
1.45633	6621
1.45700	6619
1.45767	6618
1.45833	6616
1.45900	6614
1.45967	6613
1.46033	6611
1.46100	6609
1.46167	6608
1.46233	6606
1.46300	6605
1.46367	6603
1.46433	6602
1.46500	6600
1.46567	6598
1.46633	6597
1.46700	6595
1.46767	6593
1.46833	6591
1.46900	6590
1.46967	6588
1.47033	6586
1.47100	6584
1.47167	6583
1.47233	6581
1.47300	6579
1.47367	6577
1.47433	6575
1.47500	6573
1.47567	6571
1.47633	6569
1.47700	6567
1.47767	6565
1.47833	6563
1.47900	6561
1.47967	6559
1.48033	6557
1.48100	6555
1.48167	6553
1.48233	6550
1.48300	6548
1.48367	6546
1.48433	6544
1.48500	6542
1.48567	6539
1.48633	6537
1.48700	6534
1.48767	6532
1.48833	6530
1.48900	6527
1.48967	6525
1.49033	6522
1.49100	6520
1.49167	6517
1.49233	6515
1.49300	6512
1.49367	6510
1.49433	6507
1.49500	6505
1.49567	6502
1.49633	6500
1.49700	6497
1.49767	6495
1.49833	6492
1.49900	6489
1.49967	6487
1.50033	6484
1.50100	6482
1.50167	6479
1.50233	6477
1.50300	6474
1.50367	6472
1.50433	6470
1.50500	6467
1.50567	6465
1.50633	6462
1.50700	6460
1.50767	6457
1.50833	6455
1.50900	6452
1.50967	6450
1.51033	6448
1.51100	6445
1.51167	6443
1.51233	6440
1.51300	6438
1.51367	6436
1.51433	6433
1.51500	6431
1.51567	6429
1.51633	6426
1.51700	6424
1.51767	6422
1.51833	6419
1.51900	6417
1.51967	6415
1.52033	6413
1.52100	6411
1.52167	6408
1.52233	6406
1.52300	6404
1.52367	6402
1.52433	6400
1.52500	6398
1.52567	6396
1.52633	6394
1.52700	6392
1.52767	6390
1.52833	6388
1.52900	6387
1.52967	6385
1.53033	6383
1.53100	6381
1.53167	6380
1.53233	6378
1.53300	6376
1.53367	6375
1.53433	6373
1.53500	6371
1.53567	6370
1.53633	6368
1.53700	6367
1.53767	6365
1.53833	6363
1.53900	6362
1.53967	6361
1.54033	6359
1.54100	6358
1.54167	6356
1.54233	6355
1.54300	6354
1.54367	6352
1.54433	6351
1.54500	6350
1.54567	6348
1.54633	6347
1.54700	6345
1.54767	6344
1.54833	6343
1.54900	6341
1.54967	6340
1.55033	6338
1.55100	6337
1.55167	6335
1.55233	6334
1.55300	6332
1.55367	6331
1.55433	6329
1.55500	6328
1.55567	6326
1.55633	6324
1.55700	6323
1.55767	6321
1.55833	6319
1.55900	6317
1.55967	6316
1.56033	6314
1.56100	6312
1.56167	6310
1.56233	6308
1.56300	6307
1.56367	6305
1.56433	6303
1.56500	6301
1.56567	6299
1.56633	6298
1.56700	6296
1.56767	6294
1.56833	6293
1.56900	6291
1.56967	6290
1.57033	6288
1.57100	6286
1.57167	6285
1.57233	6283
1.57300	6282
1.57367	6281
1.57433	6279
1.57500	6278
1.57567	6276
1.57633	6275
1.57700	6274
1.57767	6272
1.57833	6271
1.57900	6270
1.57967	6269
1.58033	6267
1.58100	6266
1.58167	6265
1.58233	6264
1.58300	6263
1.58367	6262
1.58433	6261
1.58500	6260
1.58567	6260
1.58633	6259
1.58700	6258
1.58767	6257
1.58833	6256
1.58900	6255
1.58967	6254
1.59033	6253
1.59100	6253
1.59167	6252
1.59233	6251
1.59300	6250
1.59367	6249
1.59433	6248
1.59500	6247
1.59567	6246
1.59633	6245
1.59700	6244
1.59767	6244
1.59833	6243
1.59900	6241
1.59967	6240
1.60033	6239
1.60100	6238
1.60167	6237
1.60233	6236
1.60300	6235
1.60367	6234
1.60433	6233
1.60500	6232
1.60567	6231
1.60633	6230
1.60700	6228
1.60767	6227
1.60833	6226
1.60900	6225
1.60967	6224
1.61033	6223
1.61100	6222
1.61167	6221
1.61233	6219
1.61300	6218
1.61367	6217
1.61433	6216
1.61500	6215
1.61567	6215
1.61633	6214
1.61700	6213
1.61767	6212
1.61833	6211
1.61900	6210
1.61967	6210
1.62033	6209
1.62100	6208
1.62167	6208
1.62233	6207
1.62300	6206
1.62367	6206
1.62433	6205
1.62500	6204
1.62567	6204
1.62633	6203
1.62700	6203
1.62767	6202
1.62833	6201
1.62900	6201
1.62967	6200
1.63033	6199
1.63100	6198
1.63167	6198
1.63233	6197
1.63300	6196
1.63367	6195
1.63433	6195
1.63500	6194
1.63567	6193
1.63633	6192
1.63700	6192
1.63767	6191
1.63833	6190
1.63900	6189
1.63967	6188
1.64033	6187
1.64100	6187
1.64167	6186
1.64233	6185
1.64300	6184
1.64367	6184
1.64433	6183
1.64500	6182
1.64567	6182
1.64633	6181
1.64700	6181
1.64767	6181
1.64833	6180
1.64900	6180
1.64967	6179
1.65033	6179
1.65100	6179
1.65167	6178
1.65233	6178
1.65300	6178
1.65367	6178
1.65433	6178
1.65500	6178
1.65567	6178
1.65633	6177
1.65700	6177
1.65767	6177
1.65833	6177
1.65900	6177
1.65967	6177
1.66033	6176
1.66100	6176
1.66167	6176
1.66233	6175
1.66300	6175
1.66367	6175
1.66433	6174
1.66500	6174
1.66567	6173
1.66633	6173
1.66700	6172
1.66767	6172
1.66833	6171
1.66900	6171
1.66967	6170
1.67033	6170
1.67100	6169
1.67167	6168
1.67233	6168
1.67300	6167
1.67367	6166
1.67433	6166
1.67500	6165
1.67567	6164
1.67633	6163
1.67700	6162
1.67767	6161
1.67833	6160
1.67900	6159
1.67967	6158
1.68033	6157
1.68100	6156
1.68167	6155
1.68233	6154
1.68300	6153
1.68367	6152
1.68433	6151
1.68500	6150
1.68567	6149
1.68633	6148
1.68700	6147
1.68767	6146
1.68833	6145
1.68900	6144
1.68967	6143
1.69033	6142
1.69100	6141
1.69167	6140
1.69233	6139
1.69300	6138
1.69367	6137
1.69433	6136
1.69500	6135
1.69567	6134
1.69633	6133
1.69700	6132
1.69767	6130
1.69833	6129
1.69900	6128
1.69967	6127
1.70033	6126
1.70100	6125
1.70167	6124
1.70233	6123
1.70300	6122
1.70367	6121
1.70433	6119
1.70500	6118
1.70567	6117
1.70633	6116
1.70700	6115
1.70767	6114
1.70833	6113
1.70900	6112
1.70967	6111
1.71033	6110
1.71100	6109
1.71167	6108
1.71233	6107
1.71300	6106
1.71367	6106
1.71433	6105
1.71500	6105
1.71567	6105
1.71633	6105
1.71700	6105
1.71767	6106
1.71833	6108
1.71900	6110
1.71967	6114
1.72033	6118
1.72100	6124
1.72167	6131
1.72233	6141
1.72300	6153
1.72367	6168
1.72433	6187
1.72500	6210
1.72567	6239
1.72633	6273
1.72700	6315
1.72767	6366
1.72833	6427
1.72900	6500
1.72967	6588
1.73033	6692
1.73100	6815
1.73167	6961
1.73233	7132
1.73300	7332
1.73367	7566
1.73433	7838
1.73500	8153
1.73567	8515
1.73633	8931
1.73700	9408
1.73767	9950
1.73833	10567
1.73900	11266
1.73967	12054
1.74033	12941
1.74100	13935
1.74167	15046
1.74233	16284
1.74300	17658
1.74367	19178
1.74433	20854
1.74500	22695
1.74567	24711
1.74633	26912
1.74700	29306
1.74767	31904
1.74833	34713
1.74900	37742
1.74967	40997
1.75033	44485
1.75100	48209
1.75167	52171
1.75233	56372
1.75300	60812
1.75367	65489
1.75433	70400
1.75500	75542
1.75567	80909
1.75633	86494
1.75700	92285
1.75767	98272
1.75833	104439
1.75900	110773
1.75967	117255
1.76033	123864
1.76100	130580
1.76167	137379
1.76233	144234
1.76300	151118
1.76367	158002
1.76433	164858
1.76500	171655
1.76567	178367
1.76633	184963
1.76700	191416
1.76767	197699
1.76833	203784
1.76900	209648
1.76967	215266
1.77033	220620
1.77100	225692
1.77167	230467
1.77233	234930
1.77300	239071
1.77367	242882
1.77433	246355
1.77500	249488
1.77567	252276
1.77633	254721
1.77700	256822
1.77767	258584
1.77833	260012
1.77900	261112
1.77967	261893
1.78033	262365
1.78100	262538
1.78167	262424
1.78233	262034
1.78300	261382
1.78367	260480
1.78433	259340
1.78500	257977
1.78567	256402
1.78633	254630
1.78700	252672
1.78767	250543
1.78833	248253
1.78900	245816
1.78967	243243
1.79033	240546
1.79100	237735
1.79167	234820
1.79233	231814
1.79300	228723
1.79367	225560
1.79433	222331
1.79500	219045
1.79567	215711
1.79633	212335
1.79700	208925
1.79767	205488
1.79833	202030
1.79900	198557
1.79967	195074
1.80033	191586
1.80100	188099
1.80167	184617
1.80233	181144
1.80300	177683
1.80367	174240
1.80433	170816
1.80500	167416
1.80567	164041
1.80633	160695
1.80700	157379
1.80767	154097
1.80833	150850
1.80900	147640
1.80967	144469
1.81033	141337
1.81100	138247
1.81167	135199
1.81233	132195
1.81300	129236
1.81367	126321
1.81433	123453
1.81500	120631
1.81567	117856
1.81633	115128
1.81700	112448
1.81767	109816
1.81833	107231
1.81900	104695
1.81967	102207
1.82033	99767
1.82100	97374
1.82167	95029
1.82233	92731
1.82300	90480
1.82367	88276
1.82433	86119
1.82500	84007
1.82567	81940
1.82633	79919
1.82700	77942
1.82767	76009
1.82833	74120
1.82900	72273
1.82967	70469
1.83033	68706
1.83100	66985
1.83167	65304
1.83233	63663
1.83300	62061
1.83367	60498
1.83433	58972
1.83500	57484
1.83567	56033
1.83633	54617
1.83700	53237
1.83767	51891
1.83833	50579
1.83900	49301
1.83967	48055
1.84033	46841
1.84100	45658
1.84167	44507
1.84233	43385
1.84300	42292
1.84367	41229
1.84433	40193
1.84500	39185
1.84567	38204
1.84633	37250
1.84700	36321
1.84767	35417
1.84833	34538
1.84900	33683
1.84967	32852
1.85033	32043
1.85100	31256
1.85167	30492
1.85233	29748
1.85300	29026
1.85367	28323
1.85433	27641
1.85500	26977
1.85567	26333
1.85633	25706
1.85700	25097
1.85767	24506
1.85833	23932
1.85900	23373
1.85967	22831
1.86033	22305
1.86100	21794
1.86167	21297
1.86233	20815
1.86300	20347
1.86367	19892
1.86433	19451
1.86500	19023
1.86567	18607
1.86633	18203
1.86700	17811
1.86767	17431
1.86833	17062
1.86900	16703
1.86967	16356
1.87033	16018
1.87100	15690
1.87167	15372
1.87233	15064
1.87300	14764
1.87367	14474
1.87433	14192
1.87500	13918
1.87567	13653
1.87633	13395
1.87700	13146
1.87767	12903
1.87833	12668
1.87900	12440
1.87967	12219
1.88033	12005
1.88100	11797
1.88167	11595
1.88233	11399
1.88300	11209
1.88367	11025
1.88433	10847
1.88500	10674
1.88567	10506
1.88633	10343
1.88700	10185
1.88767	10032
1.88833	9884
1.88900	9740
1.88967	9600
1.89033	9465
1.89100	9334
1.89167	9207
1.89233	9084
1.89300	8965
1.89367	8849
1.89433	8737
1.89500	8629
1.89567	8523
1.89633	8421
1.89700	8322
1.89767	8227
1.89833	8134
1.89900	8044
1.89967	7957
1.90033	7872
1.90100	7790
1.90167	7711
1.90233	7634
1.90300	7559
1.90367	7487
1.90433	7417
1.90500	7349
1.90567	7283
1.90633	7219
1.90700	7157
1.90767	7097
1.90833	7038
1.90900	6982
1.90967	6927
1.91033	6874
1.91100	6822
1.91167	6772
1.91233	6723
1.91300	6676
1.91367	6630
1.91433	6585
1.91500	6542
1.91567	6500
1.91633	6459
1.91700	6420
1.91767	6381
1.91833	6344
1.91900	6307
1.91967	6272
1.92033	6237
1.92100	6204
1.92167	6171
1.92233	6140
1.92300	6109
1.92367	6079
1.92433	6050
1.92500	6021
1.92567	5994
1.92633	5967
1.92700	5941
1.92767	5915
1.92833	5891
1.92900	5867
1.92967	5843
1.93033	5820
1.93100	5798
1.93167	5776
1.93233	5755
1.93300	5735
1.93367	5715
1.93433	5695
1.93500	5676
1.93567	5658
1.93633	5640
1.93700	5622
1.93767	5605
1.93833	5589
1.93900	5572
1.93967	5557
1.94033	5541
1.94100	5526
1.94167	5512
1.94233	5498
1.94300	5484
1.94367	5471
1.94433	5458
1.94500	5445
1.94567	5433
1.94633	5421
1.94700	5409
1.94767	5398
1.94833	5387
1.94900	5376
1.94967	5365
1.95033	5355
1.95100	5345
1.95167	5335
1.95233	5326
1.95300	5317
1.95367	5308
1.95433	5299
1.95500	5290
1.95567	5282
1.95633	5274
1.95700	5266
1.95767	5258
1.95833	5251
1.95900	5244
1.95967	5236
1.96033	5229
1.96100	5223
1.96167	5216
1.96233	5210
1.96300	5203
1.96367	5197
1.96433	5191
1.96500	5185
1.96567	5179
1.96633	5174
1.96700	5168
1.96767	5163
1.96833	5158
1.96900	5153
1.96967	5148
1.97033	5143
1.97100	5138
1.97167	5133
1.97233	5129
1.97300	5124
1.97367	5120
1.97433	5115
1.97500	5111
1.97567	5107
1.97633	5103
1.97700	5099
1.97767	5095
1.97833	5091
1.97900	5087
1.97967	5083
1.98033	5079
1.98100	5075
1.98167	5072
1.98233	5068
1.98300	5065
1.98367	5061
1.98433	5058
1.98500	5054
1.98567	5051
1.98633	5048
1.98700	5044
1.98767	5041
1.98833	5038
1.98900	5035
1.98967	5032
1.99033	5029
1.99100	5026
1.99167	5023
1.99233	5020
1.99300	5018
1.99367	5015
1.99433	5012
1.99500	5010
1.99567	5007
1.99633	5004
1.99700	5002
1.99767	4999
1.99833	4997
1.99900	4994
1.99967	4992
2.00033	4990
2.00100	4987
2.00167	4985
2.00233	4983
2.00300	4981
2.00367	4979
2.00433	4976
2.00500	4974
2.00567	4972
2.00633	4970
2.00700	4968
2.00767	4966
2.00833	4964
2.00900	4962
2.00967	4960
2.01033	4957
2.01100	4955
2.01167	4953
2.01233	4951
2.01300	4949
2.01367	4947
2.01433	4945
2.01500	4943
2.01567	4940
2.01633	4938
2.01700	4936
2.01767	4934
2.01833	4932
2.01900	4930
2.01967	4928
2.02033	4926
2.02100	4924
2.02167	4921
2.02233	4919
2.02300	4917
2.02367	4915
2.02433	4913
2.02500	4912
2.02567	4910
2.02633	4908
2.02700	4906
2.02767	4904
2.02833	4902
2.02900	4900
2.02967	4899
2.03033	4897
2.03100	4895
2.03167	4893
2.03233	4891
2.03300	4890
2.03367	4888
2.03433	4886
2.03500	4885
2.03567	4883
2.03633	4882
2.03700	4880
2.03767	4878
2.03833	4877
2.03900	4875
2.03967	4874
2.04033	4872
2.04100	4870
2.04167	4869
2.04233	4867
2.04300	4866
2.04367	4865
2.04433	4863
2.04500	4862
2.04567	4860
2.04633	4859
2.04700	4858
2.04767	4856
2.04833	4855
2.04900	4853
2.04967	4852
2.05033	4851
2.05100	4849
2.05167	4848
2.05233	4846
2.05300	4845
2.05367	4843
2.05433	4842
2.05500	4840
2.05567	4839
2.05633	4837
2.05700	4836
2.05767	4834
2.05833	4833
2.05900	4831
2.05967	4830
2.06033	4828
2.06100	4827
2.06167	4825
2.06233	4823
2.06300	4822
2.06367	4820
2.06433	4819
2.06500	4817
2.06567	4816
2.06633	4814
2.06700	4813
2.06767	4811
2.06833	4810
2.06900	4808
2.06967	4807
2.07033	4805
2.07100	4804
2.07167	4802
2.07233	4801
2.07300	4799
2.07367	4798
2.07433	4796
2.07500	4795
2.07567	4793
2.07633	4792
2.07700	4791
2.07767	4789
2.07833	4788
2.07900	4786
2.07967	4785
2.08033	4783
2.08100	4782
2.08167	4780
2.08233	4779
2.08300	4778
2.08367	4776
2.08433	4775
2.08500	4773
2.08567	4772
2.08633	4770
2.08700	4769
2.08767	4767
2.08833	4766
2.08900	4764
2.08967	4763
2.09033	4761
2.09100	4760
2.09167	4758
2.09233	4757
2.09300	4755
2.09367	4754
2.09433	4752
2.09500	4751
2.09567	4749
2.09633	4748
2.09700	4746
2.09767	4745
2.09833	4743
2.09900	4742
2.09967	4741
2.10033	4739
2.10100	4738
2.10167	4736
2.10233	4735
2.10300	4734
2.10367	4733
2.10433	4731
2.10500	4730
2.10567	4729
2.10633	4727
2.10700	4726
2.10767	4725
2.10833	4723
2.10900	4722
2.10967	4721
2.11033	4720
2.11100	4718
2.11167	4717
2.11233	4716
2.11300	4715
2.11367	4713
2.11433	4712
2.11500	4711
2.11567	4709
2.11633	4708
2.11700	4707
2.11767	4705
2.11833	4704
2.11900	4703
2.11967	4701
2.12033	4700
2.12100	4699
2.12167	4697
2.12233	4696
2.12300	4695
2.12367	4694
2.12433	4692
2.12500	4691
2.12567	4690
2.12633	4688
2.12700	4687
2.12767	4686
2.12833	4684
2.12900	4683
2.12967	4682
2.13033	4680
2.13100	4679
2.13167	4678
2.13233	4676
2.13300	4675
2.13367	4674
2.13433	4672
2.13500	4671
2.13567	4669
2.13633	4668
2.13700	4666
2.13767	4665
2.13833	4664
2.13900	4662
2.13967	4661
2.14033	4659
2.14100	4658
2.14167	4657
2.14233	4655
2.14300	4654
2.14367	4653
2.14433	4651
2.14500	4650
2.14567	4649
2.14633	4647
2.14700	4646
2.14767	4645
2.14833	4643
2.14900	4642
2.14967	4640
2.15033	4639
2.15100	4638
2.15167	4636
2.15233	4635
2.15300	4633
2.15367	4632
2.15433	4631
2.15500	4629
2.15567	4628
2.15633	4626
2.15700	4625
2.15767	4624
2.15833	4622
2.15900	4621
2.15967	4620
2.16033	4618
2.16100	4617
2.16167	4616
2.16233	4614
2.16300	4613
2.16367	4612
2.16433	4610
2.16500	4609
2.16567	4608
2.16633	4607
2.16700	4605
2.16767	4604
2.16833	4603
2.16900	4602
2.16967	4600
2.17033	4599
2.17100	4598
2.17167	4597
2.17233	4596
2.17300	4595
2.17367	4594
2.17433	4593
2.17500	4591
2.17567	4590
2.17633	4589
2.17700	4588
2.17767	4587
2.17833	4586
2.17900	4585
2.17967	4584
2.18033	4583
2.18100	4582
2.18167	4581
2.18233	4579
2.18300	4578
2.18367	4577
2.18433	4576
2.18500	4575
2.18567	4574
2.18633	4573
2.18700	4572
2.18767	4570
2.18833	4569
2.18900	4568
2.18967	4567
2.19033	4566
2.19100	4565
2.19167	4564
2.19233	4563
2.19300	4562
2.19367	4561
2.19433	4560
2.19500	4559
2.19567	4558
2.19633	4557
2.19700	4557
2.19767	4556
2.19833	4555
2.19900	4555
2.19967	4554
2.20033	4553
2.20100	4553
2.20167	4552
2.20233	4552
2.20300	4551
2.20367	4551
2.20433	4551
2.20500	4550
2.20567	4550
2.20633	4550
2.20700	4550
2.20767	4550
2.20833	4550
2.20900	4550
2.20967	4550
2.21033	4551
2.21100	4551
2.21167	4551
2.21233	4552
2.21300	4552
2.21367	4553
2.21433	4554
2.21500	4554
2.21567	4555
2.21633	4556
2.21700	4557
2.21767	4558
2.21833	4559
2.21900	4560
2.21967	4561
2.22033	4562
2.22100	4563
2.22167	4564
2.22233	4565
2.22300	4566
2.22367	4566
2.22433	4567
2.22500	4568
2.22567	4569
2.22633	4570
2.22700	4571
2.22767	4571
2.22833	4572
2.22900	4573
2.22967	4573
2.23033	4574
2.23100	4574
2.23167	4575
2.23233	4575
2.23300	4576
2.23367	4576
2.23433	4576
2.23500	4576
2.23567	4576
2.23633	4576
2.23700	4576
2.23767	4576
2.23833	4576
2.23900	4576
2.23967	4576
2.24033	4576
2.24100	4575
2.24167	4575
2.24233	4574
2.24300	4574
2.24367	4574
2.24433	4573
2.24500	4573
2.24567	4572
2.24633	4572
2.24700	4571
2.24767	4570
2.24833	4570
2.24900	4569
2.24967	4569
2.25033	4568
2.25100	4567
2.25167	4567
2.25233	4566
2.25300	4566
2.25367	4565
2.25433	4564
2.25500	4564
2.25567	4563
2.25633	4562
2.25700	4562
2.25767	4561
2.25833	4560
2.25900	4560
2.25967	4559
2.26033	4558
2.26100	4557
2.26167	4557
2.26233	4556
2.26300	4555
2.26367	4554
2.26433	4553
2.26500	4552
2.26567	4551
2.26633	4550
2.26700	4549
2.26767	4548
2.26833	4547
2.26900	4546
2.26967	4545
2.27033	4544
2.27100	4543
2.27167	4542
2.27233	4541
2.27300	4540
2.27367	4539
2.27433	4537
2.27500	4536
2.27567	4535
2.27633	4534
2.27700	4532
2.27767	4531
2.27833	4530
2.27900	4529
2.27967	4528
2.28033	4526
2.28100	4525
2.28167	4524
2.28233	4522
2.28300	4521
2.28367	4520
2.28433	4518
2.28500	4517
2.28567	4516
2.28633	4514
2.28700	4513
2.28767	4512
2.28833	4510
2.28900	4509
2.28967	4508
2.29033	4507
2.29100	4505
2.29167	4504
2.29233	4503
2.29300	4502
2.29367	4501
2.29433	4500
2.29500	4498
2.29567	4497
2.29633	4496
2.29700	4495
2.29767	4494
2.29833	4493
2.29900	4492
2.29967	4492
2.30033	4491
2.30100	4490
2.30167	4489
2.30233	4488
2.30300	4487
2.30367	4487
2.30433	4486
2.30500	4485
2.30567	4484
2.30633	4484
2.30700	4483
2.30767	4482
2.30833	4482
2.30900	4481
2.30967	4480
2.31033	4480
2.31100	4479
2.31167	4479
2.31233	4479
2.31300	4478
2.31367	4478
2.31433	4478
2.31500	4477
2.31567	4477
2.31633	4477
2.31700	4477
2.31767	4477
2.31833	4476
2.31900	4476
2.31967	4476
2.32033	4476
2.32100	4476
2.32167	4476
2.32233	4477
2.32300	4477
2.32367	4477
2.32433	4477
2.32500	4477
2.32567	4477
2.32633	4477
2.32700	4477
2.32767	4477
2.32833	4477
2.32900	4477
2.32967	4478
2.33033	4478
2.33100	4478
2.33167	4478
2.33233	4478
2.33300	4479
2.33367	4479
2.33433	4479
2.33500	4479
2.33567	4479
2.33633	4480
2.33700	4480
2.33767	4480
2.33833	4480
2.33900	4481
2.33967	4481
2.34033	4481
2.34100	4482
2.34167	4482
2.34233	4482
2.34300	4483
2.34367	4483
2.34433	4483
2.34500	4484
2.34567	4484
2.34633	4484
2.34700	4485
2.34767	4485
2.34833	4486
2.34900	4486
2.34967	4486
2.35033	4487
2.35100	4487
2.35167	4488
2.35233	4488
2.35300	4489
2.35367	4489
2.35433	4489
2.35500	4490
2.35567	4490
2.35633	4491
2.35700	4491
2.35767	4491
2.35833	4492
2.35900	4492
2.35967	4493
2.36033	4493
2.36100	4493
2.36167	4494
2.36233	4494
2.36300	4494
2.36367	4494
2.36433	4495
2.36500	4495
2.36567	4495
2.36633	4495
2.36700	4495
2.36767	4496
2.36833	4496
2.36900	4496
2.36967	4496
2.37033	4496
2.37100	4496
2.37167	4496
2.37233	4496
2.37300	4496
2.37367	4496
2.37433	4496
2.37500	4496
2.37567	4496
2.37633	4496
2.37700	4496
2.37767	4496
2.37833	4496
2.37900	4496
2.37967	4496
2.38033	4495
2.38100	4495
2.38167	4495
2.38233	4495
2.38300	4495
2.38367	4495
2.38433	4495
2.38500	4495
2.38567	4494
2.38633	4494
2.38700	4494
2.38767	4494
2.38833	4493
2.38900	4493
2.38967	4493
2.39033	4492
2.39100	4492
2.39167	4492
2.39233	4491
2.39300	4491
2.39367	4490
2.39433	4490
2.39500	4490
2.39567	4489
2.39633	4489
2.39700	4488
2.39767	4488
2.39833	4487
2.39900	4487
2.39967	4486
2.40033	4486
2.40100	4486
2.40167	4485
2.40233	4485
2.40300	4484
2.40367	4484
2.40433	4484
2.40500	4483
2.40567	4483
2.40633	4483
2.40700	4482
2.40767	4482
2.40833	4482
2.40900	4481
2.40967	4481
2.41033	4480
2.41100	4480
2.41167	4480
2.41233	4479
2.41300	4479
2.41367	4478
2.41433	4478
2.41500	4477
2.41567	4477
2.41633	4476
2.41700	4476
2.41767	4475
2.41833	4474
2.41900	4474
2.41967	4473
2.42033	4473
2.42100	4472
2.42167	4471
2.42233	4471
2.42300	4470
2.42367	4469
2.42433	4469
2.42500	4468
2.42567	4467
2.42633	4466
2.42700	4465
2.42767	4465
2.42833	4464
2.42900	4463
2.42967	4462
2.43033	4461
2.43100	4460
2.43167	4460
2.43233	4459
2.43300	4458
2.43367	4457
2.43433	4456
2.43500	4455
2.43567	4454
2.43633	4453
2.43700	4452
2.43767	4451
2.43833	4450
2.43900	4449
2.43967	4448
2.44033	4447
2.44100	4446
2.44167	4445
2.44233	4444
2.44300	4443
2.44367	4442
2.44433	4440
2.44500	4439
2.44567	4438
2.44633	4437
2.44700	4435
2.44767	4434
2.44833	4433
2.44900	4431
2.44967	4430
2.45033	4428
2.45100	4427
2.45167	4425
2.45233	4423
2.45300	4422
2.45367	4420
2.45433	4419
2.45500	4417
2.45567	4415
2.45633	4414
2.45700	4412
2.45767	4411
2.45833	4409
2.45900	4407
2.45967	4406
2.46033	4404
2.46100	4402
2.46167	4401
2.46233	4399
2.46300	4397
2.46367	4396
2.46433	4394
2.46500	4392
2.46567	4390
2.46633	4389
2.46700	4387
2.46767	4385
2.46833	4384
2.46900	4382
2.46967	4380
2.47033	4379
2.47100	4377
2.47167	4375
2.47233	4374
2.47300	4372
2.47367	4370
2.47433	4369
2.47500	4367
2.47567	4365
2.47633	4364
2.47700	4362
2.47767	4360
2.47833	4359
2.47900	4357
2.47967	4355
2.48033	4354
2.48100	4352
2.48167	4350
2.48233	4349
2.48300	4347
2.48367	4345
2.48433	4344
2.48500	4342
2.48567	4341
2.48633	4339
2.48700	4338
2.48767	4336
2.48833	4334
2.48900	4333
2.48967	4331
2.49033	4330
2.49100	4328
2.49167	4327
2.49233	4325
2.49300	4324
2.49367	4322
2.49433	4321
2.49500	4319
2.49567	4318
2.49633	4316
2.49700	4314
2.49767	4313
2.49833	4311
2.49900	4309
2.49967	4308
2.50033	4306
2.50100	4304
2.50167	4303
2.50233	4301
2.50300	4299
2.50367	4297
2.50433	4296
2.50500	4294
2.50567	4292
2.50633	4290
2.50700	4289
2.50767	4287
2.50833	4285
2.50900	4284
2.50967	4282
2.51033	4280
2.51100	4279
2.51167	4277
2.51233	4276
2.51300	4274
2.51367	4273
2.51433	4271
2.51500	4269
2.51567	4268
2.51633	4266
2.51700	4265
2.51767	4263
2.51833	4261
2.51900	4260
2.51967	4258
2.52033	4257
2.52100	4255
2.52167	4253
2.52233	4252
2.52300	4250
2.52367	4249
2.52433	4247
2.52500	4245
2.52567	4244
2.52633	4242
2.52700	4240
2.52767	4239
2.52833	4237
2.52900	4236
2.52967	4234
2.53033	4233
2.53100	4231
2.53167	4230
2.53233	4228
2.53300	4227
2.53367	4225
2.53433	4224
2.53500	4223
2.53567	4221
2.53633	4220
2.53700	4219
2.53767	4217
2.53833	4216
2.53900	4215
2.53967	4213
2.54033	4212
2.54100	4211
2.54167	4209
2.54233	4208
2.54300	4207
2.54367	4206
2.54433	4205
2.54500	4203
2.54567	4202
2.54633	4201
2.54700	4200
2.54767	4198
2.54833	4197
2.54900	4196
2.54967	4195
2.55033	4194
2.55100	4193
2.55167	4191
2.55233	4190
2.55300	4189
2.55367	4188
2.55433	4186
2.55500	4185
2.55567	4184
2.55633	4183
2.55700	4181
2.55767	4180
2.55833	4179
2.55900	4178
2.55967	4176
2.56033	4175
2.56100	4174
2.56167	4173
2.56233	4171
2.56300	4170
2.56367	4169
2.56433	4168
2.56500	4166
2.56567	4165
2.56633	4164
2.56700	4163
2.56767	4162
2.56833	4160
2.56900	4159
2.56967	4158
2.57033	4157
2.57100	4156
2.57167	4155
2.57233	4154
2.57300	4152
2.57367	4151
2.57433	4150
2.57500	4149
2.57567	4148
2.57633	4147
2.57700	4146
2.57767	4144
2.57833	4143
2.57900	4142
2.57967	4141
2.58033	4140
2.58100	4139
2.58167	4138
2.58233	4137
2.58300	4136
2.58367	4135
2.58433	4134
2.58500	4133
2.58567	4133
2.58633	4132
2.58700	4131
2.58767	4130
2.58833	4129
2.58900	4128
2.58967	4127
2.59033	4126
2.59100	4125
2.59167	4125
2.59233	4124
2.59300	4123
2.59367	4122
2.59433	4122
2.59500	4121
2.59567	4120
2.59633	4120
2.59700	4119
2.59767	4118
2.59833	4118
2.59900	4117
2.59967	4117
2.60033	4116
2.60100	4115
2.60167	4115
2.60233	4114
2.60300	4114
2.60367	4113
2.60433	4113
2.60500	4112
2.60567	4112
2.60633	4111
2.60700	4110
2.60767	4110
2.60833	4109
2.60900	4108
2.60967	4107
2.61033	4107
2.61100	4106
2.61167	4105
2.61233	4105
2.61300	4104
2.61367	4103
2.61433	4102
2.61500	4102
2.61567	4101
2.61633	4100
2.61700	4099
2.61767	4098
2.61833	4098
2.61900	4097
2.61967	4096
2.62033	4095
2.62100	4095
2.62167	4094
2.62233	4093
2.62300	4093
2.62367	4092
2.62433	4091
2.62500	4090
2.62567	4090
2.62633	4089
2.62700	4088
2.62767	4087
2.62833	4087
2.62900	4086
2.62967	4085
2.63033	4084
2.63100	4083
2.63167	4083
2.63233	4082
2.63300	4081
2.63367	4080
2.63433	4079
2.63500	4078
2.63567	4077
2.63633	4077
2.63700	4076
2.63767	4075
2.63833	4074
2.63900	4073
2.63967	4072
2.64033	4071
2.64100	4070
2.64167	4068
2.64233	4067
2.64300	4066
2.64367	4065
2.64433	4064
2.64500	4063
2.64567	4062
2.64633	4061
2.64700	4060
2.64767	4059
2.64833	4058
2.64900	4057
2.64967	4055
2.65033	4054
2.65100	4053
2.65167	4052
2.65233	4051
2.65300	4050
2.65367	4049
2.65433	4048
2.65500	4047
2.65567	4046
2.65633	4045
2.65700	4044
2.65767	4043
2.65833	4042
2.65900	4041
2.65967	4040
2.66033	4039
2.66100	4038
2.66167	4037
2.66233	4036
2.66300	4036
2.66367	4035
2.66433	4034
2.66500	4033
2.66567	4032
2.66633	4031
2.66700	4030
2.66767	4029
2.66833	4028
2.66900	4027
2.66967	4026
2.67033	4025
2.67100	4024
2.67167	4024
2.67233	4023
2.67300	4022
2.67367	4021
2.67433	4020
2.67500	4019
2.67567	4018
2.67633	4017
2.67700	4016
2.67767	4016
2.67833	4015
2.67900	4014
2.67967	4013
2.68033	4012
2.68100	4011
2.68167	4010
2.68233	4009
2.68300	4008
2.68367	4007
2.68433	4006
2.68500	4005
2.68567	4004
2.68633	4003
2.68700	4002
2.68767	4001
2.68833	4000
2.68900	3999
2.68967	3998
2.69033	3997
2.69100	3996
2.69167	3995
2.69233	3994
2.69300	3993
2.69367	3992
2.69433	3991
2.69500	3989
2.69567	3988
2.69633	3987
2.69700	3986
2.69767	3985
2.69833	3984
2.69900	3983
2.69967	3982
2.70033	3981
2.70100	3980
2.70167	3979
2.70233	3978
2.70300	3977
2.70367	3976
2.70433	3975
2.70500	3973
2.70567	3972
2.70633	3971
2.70700	3970
2.70767	3969
2.70833	3968
2.70900	3967
2.70967	3966
2.71033	3965
2.71100	3964
2.71167	3963
2.71233	3962
2.71300	3962
2.71367	3961
2.71433	3960
2.71500	3959
2.71567	3959
2.71633	3958
2.71700	3957
2.71767	3957
2.71833	3956
2.71900	3955
2.71967	3955
2.72033	3954
2.72100	3954
2.72167	3953
2.72233	3952
2.72300	3952
2.72367	3951
2.72433	3951
2.72500	3950
2.72567	3950
2.72633	3949
2.72700	3949
2.72767	3949
2.72833	3948
2.72900	3948
2.72967	3947
2.73033	3947
2.73100	3946
2.73167	3946
2.73233	3945
2.73300	3945
2.73367	3944
2.73433	3944
2.73500	3944
2.73567	3943
2.73633	3943
2.73700	3943
2.73767	3942
2.73833	3942
2.73900	3942
2.73967	3942
2.74033	3941
2.74100	3941
2.74167	3941
2.74233	3941
2.74300	3940
2.74367	3940
2.74433	3940
2.74500	3940
2.74567	3940
2.74633	3940
2.74700	3940
2.74767	3940
2.74833	3940
2.74900	3940
2.74967	3940
2.75033	3940
2.75100	3941
2.75167	3941
2.75233	3941
2.75300	3941
2.75367	3941
2.75433	3941
2.75500	3941
2.75567	3941
2.75633	3942
2.75700	3942
2.75767	3942
2.75833	3942
2.75900	3942
2.75967	3943
2.76033	3943
2.76100	3943
2.76167	3943
2.76233	3944
2.76300	3944
2.76367	3944
2.76433	3945
2.76500	3945
2.76567	3946
2.76633	3946
2.76700	3947
2.76767	3947
2.76833	3948
2.76900	3948
2.76967	3949
2.77033	3950
2.77100	3951
2.77167	3951
2.77233	3952
2.77300	3953
2.77367	3954
2.77433	3955
2.77500	3956
2.77567	3957
2.77633	3958
2.77700	3959
2.77767	3961
2.77833	3962
2.77900	3963
2.77967	3965
2.78033	3967
2.78100	3968
2.78167	3970
2.78233	3972
2.78300	3974
2.78367	3976
2.78433	3978
2.78500	3980
2.78567	3982
2.78633	3984
2.78700	3986
2.78767	3989
2.78833	3991
2.78900	3994
2.78967	3996
2.79033	3999
2.79100	4002
2.79167	4004
2.79233	4007
2.79300	4010
2.79367	4013
2.79433	4017
2.79500	4020
2.79567	4023
2.79633	4027
2.79700	4030
2.79767	4034
2.79833	4037
2.79900	4041
2.79967	4045
2.80033	4049
2.80100	4053
2.80167	4057
2.80233	4061
2.80300	4065
2.80367	4069
2.80433	4073
2.80500	4077
2.80567	4082
2.80633	4086
2.80700	4090
2.80767	4095
2.80833	4099
2.80900	4103
2.80967	4108
2.81033	4112
2.81100	4117
2.81167	4121
2.81233	4126
2.81300	4130
2.81367	4134
2.81433	4139
2.81500	4143
2.81567	4147
2.81633	4151
2.81700	4155
2.81767	4159
2.81833	4163
2.81900	4167
2.81967	4171
2.82033	4174
2.82100	4178
2.82167	4181
2.82233	4184
2.82300	4188
2.82367	4191
2.82433	4194
2.82500	4196
2.82567	4199
2.82633	4202
2.82700	4204
2.82767	4206
2.82833	4208
2.82900	4210
2.82967	4212
2.83033	4213
2.83100	4215
2.83167	4216
2.83233	4217
2.83300	4218
2.83367	4219
2.83433	4219
2.83500	4220
2.83567	4220
2.83633	4220
2.83700	4220
2.83767	4220
2.83833	4219
2.83900	4219
2.83967	4218
2.84033	4217
2.84100	4216
2.84167	4215
2.84233	4214
2.84300	4213
2.84367	4211
2.84433	4210
2.84500	4208
2.84567	4207
2.84633	4205
2.84700	4203
2.84767	4201
2.84833	4199
2.84900	4197
2.84967	4195
2.85033	4192
2.85100	4190
2.85167	4188
2.85233	4186
2.85300	4183
2.85367	4181
2.85433	4178
2.85500	4176
2.85567	4173
2.85633	4171
2.85700	4168
2.85767	4165
2.85833	4163
2.85900	4160
2.85967	4157
2.86033	4154
2.86100	4152
2.86167	4149
2.86233	4146
2.86300	4143
2.86367	4141
2.86433	4138
2.86500	4135
2.86567	4132
2.86633	4130
2.86700	4127
2.86767	4125
2.86833	4122
2.86900	4120
2.86967	4117
2.87033	4115
2.87100	4113
2.87167	4110
2.87233	4108
2.87300	4106
2.87367	4104
2.87433	4102
2.87500	4100
2.87567	4098
2.87633	4096
2.87700	4094
2.87767	4092
2.87833	4090
2.87900	4089
2.87967	4087
2.88033	4086
2.88100	4085
2.88167	4084
2.88233	4083
2.88300	4082
2.88367	4081
2.88433	4080
2.88500	4079
2.88567	4078
2.88633	4078
2.88700	4078
2.88767	4077
2.88833	4077
2.88900	4077
2.88967	4077
2.89033	4077
2.89100	4078
2.89167	4078
2.89233	4078
2.89300	4079
2.89367	4080
2.89433	4080
2.89500	4081
2.89567	4082
2.89633	4083
2.89700	4084
2.89767	4085
2.89833	4086
2.89900	4087
2.89967	4088
2.90033	4090
2.90100	4091
2.90167	4092
2.90233	4093
2.90300	4095
2.90367	4096
2.90433	4097
2.90500	4098
2.90567	4100
2.90633	4101
2.90700	4102
2.90767	4103
2.90833	4104
2.90900	4105
2.90967	4106
2.91033	4107
2.91100	4108
2.91167	4108
2.91233	4109
2.91300	4109
2.91367	4110
2.91433	4110
2.91500	4110
2.91567	4110
2.91633	4110
2.91700	4110
2.91767	4110
2.91833	4109
2.91900	4108
2.91967	4108
2.92033	4107
2.92100	4105
2.92167	4104
2.92233	4103
2.92300	4101
2.92367	4099
2.92433	4097
2.92500	4095
2.92567	4093
2.92633	4090
2.92700	4088
2.92767	4085
2.92833	4082
2.92900	4079
2.92967	4076
2.93033	4072
2.93100	4069
2.93167	4065
2.93233	4062
2.93300	4058
2.93367	4054
2.93433	4050
2.93500	4046
2.93567	4042
2.93633	4038
2.93700	4034
2.93767	4029
2.93833	4025
2.93900	4020
2.93967	4016
2.94033	4011
2.94100	4007
2.94167	4002
2.94233	3997
2.94300	3992
2.94367	3988
2.94433	3983
2.94500	3978
2.94567	3973
2.94633	3969
2.94700	3964
2.94767	3959
2.94833	3954
2.94900	3949
2.94967	3944
2.95033	3940
2.95100	3935
2.95167	3930
2.95233	3925
2.95300	3921
2.95367	3916
2.95433	3911
2.95500	3907
2.95567	3902
2.95633	3897
2.95700	3893
2.95767	3888
2.95833	3884
2.95900	3880
2.95967	3875
2.96033	3871
2.96100	3867
2.96167	3863
2.96233	3858
2.96300	3854
2.96367	3850
2.96433	3846
2.96500	3842
2.96567	3838
2.96633	3834
2.96700	3831
2.96767	3827
2.96833	3823
2.96900	3819
2.96967	3816
2.97033	3812
2.97100	3809
2.97167	3805
2.97233	3802
2.97300	3798
2.97367	3795
2.97433	3791
2.97500	3788
2.97567	3785
2.97633	3782
2.97700	3779
2.97767	3776
2.97833	3773
2.97900	3770
2.97967	3767
2.98033	3764
2.98100	3761
2.98167	3758
2.98233	3755
2.98300	3752
2.98367	3749
2.98433	3746
2.98500	3743
2.98567	3740
2.98633	3738
2.98700	3735
2.98767	3732
2.98833	3730
2.98900	3727
2.98967	3724
2.99033	3722
2.99100	3719
2.99167	3717
2.99233	3714
2.99300	3712
2.99367	3710
2.99433	3707
2.99500	3705
2.99567	3703
2.99633	3700
2.99700	3698
2.99767	3696
2.99833	3694
2.99900	3692
2.99967	3689
3.00033	3687
3.00100	3685
3.00167	3683
3.00233	3681
3.00300	3680
3.00367	3678
3.00433	3676
3.00500	3674
3.00567	3672
3.00633	3671
3.00700	3669
3.00767	3667
3.00833	3665
3.00900	3664
3.00967	3662
3.01033	3660
3.01100	3659
3.01167	3657
3.01233	3655
3.01300	3653
3.01367	3652
3.01433	3650
3.01500	3648
3.01567	3647
3.01633	3645
3.01700	3643
3.01767	3642
3.01833	3640
3.01900	3639
3.01967	3637
3.02033	3635
3.02100	3634
3.02167	3632
3.02233	3631
3.02300	3630
3.02367	3628
3.02433	3627
3.02500	3625
3.02567	3624
3.02633	3623
3.02700	3622
3.02767	3620
3.02833	3619
3.02900	3618
3.02967	3616
3.03033	3615
3.03100	3614
3.03167	3613
3.03233	3611
3.03300	3610
3.03367	3609
3.03433	3608
3.03500	3607
3.03567	3605
3.03633	3604
3.03700	3603
3.03767	3602
3.03833	3601
3.03900	3600
3.03967	3599
3.04033	3598
3.04100	3597
3.04167	3596
3.04233	3595
3.04300	3594
3.04367	3593
3.04433	3592
3.04500	3591
3.04567	3590
3.04633	3589
3.04700	3588
3.04767	3587
3.04833	3586
3.04900	3586
3.04967	3585
3.05033	3584
3.05100	3583
3.05167	3582
3.05233	3582
3.05300	3581
3.05367	3580
3.05433	3580
3.05500	3579
3.05567	3579
3.05633	3578
3.05700	3578
3.05767	3577
3.05833	3577
3.05900	3576
3.05967	3576
3.06033	3575
3.06100	3575
3.06167	3574
3.06233	3574
3.06300	3574
3.06367	3573
3.06433	3573
3.06500	3573
3.06567	3573
3.06633	3572
3.06700	3572
3.06767	3572
3.06833	3572
3.06900	3572
3.06967	3572
3.07033	3571
3.07100	3571
3.07167	3571
3.07233	3571
3.07300	3571
3.07367	3571
3.07433	3571
3.07500	3570
3.07567	3570
3.07633	3570
3.07700	3570
3.07767	3570
3.07833	3570
3.07900	3570
3.07967	3570
3.08033	3570
3.08100	3570
3.08167	3570
3.08233	3570
3.08300	3570
3.08367	3569
3.08433	3569
3.08500	3569
3.08567	3569
3.08633	3569
3.08700	3569
3.08767	3569
3.08833	3569
3.08900	3569
3.08967	3569
3.09033	3568
3.09100	3568
3.09167	3568
3.09233	3568
3.09300	3568
3.09367	3568
3.09433	3567
3.09500	3567
3.09567	3567
3.09633	3567
3.09700	3566
3.09767	3566
3.09833	3566
3.09900	3565
3.09967	3565
3.10033	3564
3.10100	3564
3.10167	3563
3.10233	3563
3.10300	3563
3.10367	3562
3.10433	3562
3.10500	3561
3.10567	3561
3.10633	3560
3.10700	3560
3.10767	3559
3.10833	3559
3.10900	3558
3.10967	3558
3.11033	3557
3.11100	3556
3.11167	3556
3.11233	3555
3.11300	3555
3.11367	3554
3.11433	3553
3.11500	3552
3.11567	3552
3.11633	3551
3.11700	3550
3.11767	3549
3.11833	3549
3.11900	3548
3.11967	3547
3.12033	3546
3.12100	3545
3.12167	3544
3.12233	3544
3.12300	3543
3.12367	3542
3.12433	3541
3.12500	3540
3.12567	3540
3.12633	3539
3.12700	3538
3.12767	3537
3.12833	3536
3.12900	3536
3.12967	3535
3.13033	3534
3.13100	3534
3.13167	3533
3.13233	3532
3.13300	3531
3.13367	3531
3.13433	3530
3.13500	3529
3.13567	3529
3.13633	3528
3.13700	3527
3.13767	3527
3.13833	3526
3.13900	3525
3.13967	3525
3.14033	3524
3.14100	3523
3.14167	3523
3.14233	3522
3.14300	3521
3.14367	3521
3.14433	3520
3.14500	3519
3.14567	3519
3.14633	3518
3.14700	3517
3.14767	3517
3.14833	3516
3.14900	3515
3.14967	3515
3.15033	3514
3.15100	3513
3.15167	3513
3.15233	3512
3.15300	3512
3.15367	3511
3.15433	3510
3.15500	3510
3.15567	3509
3.15633	3508
3.15700	3508
3.15767	3507
3.15833	3506
3.15900	3506
3.15967	3505
3.16033	3504
3.16100	3503
3.16167	3503
3.16233	3502
3.16300	3501
3.16367	3501
3.16433	3500
3.16500	3499
3.16567	3499
3.16633	3498
3.16700	3498
3.16767	3497
3.16833	3496
3.16900	3496
3.16967	3495
3.17033	3495
3.17100	3494
3.17167	3494
3.17233	3493
3.17300	3492
3.17367	3492
3.17433	3491
3.17500	3491
3.17567	3490
3.17633	3489
3.17700	3489
3.17767	3488
3.17833	3488
3.17900	3487
3.17967	3487
3.18033	3486
3.18100	3486
3.18167	3485
3.18233	3484
3.18300	3484
3.18367	3483
3.18433	3483
3.18500	3482
3.18567	3482
3.18633	3481
3.18700	3481
3.18767	3480
3.18833	3480
3.18900	3479
3.18967	3479
3.19033	3479
3.19100	3478
3.19167	3478
3.19233	3477
3.19300	3477
3.19367	3477
3.19433	3476
3.19500	3476
3.19567	3476
3.19633	3475
3.19700	3475
3.19767	3475
3.19833	3474
3.19900	3474
3.19967	3474
3.20033	3473
3.20100	3473
3.20167	3473
3.20233	3472
3.20300	3472
3.20367	3472
3.20433	3472
3.20500	3471
3.20567	3471
3.20633	3471
3.20700	3471
3.20767	3471
3.20833	3471
3.20900	3471
3.20967	3471
3.21033	3471
3.21100	3470
3.21167	3470
3.21233	3470
3.21300	3470
3.21367	3470
3.21433	3470
3.21500	3470
3.21567	3470
3.21633	3470
3.21700	3470
3.21767	3470
3.21833	3470
3.21900	3470
3.21967	3470
3.22033	3470
3.22100	3470
3.22167	3470
3.22233	3470
3.22300	3471
3.22367	3471
3.22433	3471
3.22500	3471
3.22567	3471
3.22633	3471
3.22700	3471
3.22767	3471
3.22833	3472
3.22900	3472
3.22967	3472
3.23033	3472
3.23100	3472
3.23167	3472
3.23233	3472
3.23300	3472
3.23367	3473
3.23433	3473
3.23500	3473
3.23567	3473
3.23633	3473
3.23700	3473
3.23767	3473
3.23833	3473
3.23900	3473
3.23967	3473
3.24033	3473
3.24100	3474
3.24167	3474
3.24233	3474
3.24300	3474
3.24367	3474
3.24433	3474
3.24500	3474
3.24567	3474
3.24633	3474
3.24700	3474
3.24767	3474
3.24833	3474
3.24900	3474
3.24967	3474
3.25033	3474
3.25100	3474
3.25167	3474
3.25233	3474
3.25300	3474
3.25367	3474
3.25433	3475
3.25500	3475
3.25567	3475
3.25633	3475
3.25700	3475
3.25767	3475
3.25833	3475
3.25900	3475
3.25967	3475
3.26033	3475
3.26100	3475
3.26167	3475
3.26233	3475
3.26300	3475
3.26367	3475
3.26433	3475
3.26500	3475
3.26567	3475
3.26633	3476
3.26700	3476
3.26767	3476
3.26833	3476
3.26900	3476
3.26967	3476
3.27033	3476
3.27100	3476
3.27167	3476
3.27233	3476
3.27300	3476
3.27367	3476
3.27433	3476
3.27500	3476
3.27567	3477
3.27633	3477
3.27700	3477
3.27767	3477
3.27833	3477
3.27900	3477
3.27967	3477
3.28033	3477
3.28100	3477
3.28167	3477
3.28233	3477
3.28300	3477
3.28367	3477
3.28433	3477
3.28500	3477
3.28567	3477
3.28633	3477
3.28700	3478
3.28767	3478
3.28833	3478
3.28900	3478
3.28967	3478
3.29033	3478
3.29100	3478
3.29167	3478
3.29233	3478
3.29300	3478
3.29367	3478
3.29433	3478
3.29500	3478
3.29567	3478
3.29633	3478
3.29700	3478
3.29767	3478
3.29833	3478
3.29900	3478
3.29967	3478
3.30033	3478
3.30100	3477
3.30167	3477
3.30233	3477
3.30300	3477
3.30367	3477
3.30433	3476
3.30500	3476
3.30567	3476
3.30633	3476
3.30700	3476
3.30767	3476
3.30833	3475
3.30900	3475
3.30967	3475
3.31033	3475
3.31100	3475
3.31167	3475
3.31233	3475
3.31300	3475
3.31367	3475
3.31433	3475
3.31500	3474
3.31567	3474
3.31633	3474
3.31700	3474
3.31767	3474
3.31833	3473
3.31900	3473
3.31967	3473
3.32033	3473
3.32100	3472
3.32167	3472
3.32233	3472
3.32300	3472
3.32367	3471
3.32433	3471
3.32500	3471
3.32567	3470
3.32633	3470
3.32700	3470
3.32767	3469
3.32833	3469
3.32900	3469
3.32967	3468
3.33033	3468
3.33100	3468
3.33167	3467
3.33233	3467
3.33300	3467
3.33367	3466
3.33433	3466
3.33500	3465
3.33567	3465
3.33633	3465
3.33700	3464
3.33767	3464
3.33833	3464
3.33900	3464
3.33967	3463
3.34033	3463
3.34100	3463
3.34167	3463
3.34233	3462
3.34300	3462
3.34367	3462
3.34433	3462
3.34500	3462
3.34567	3462
3.34633	3462
3.34700	3462
3.34767	3462
3.34833	3462
3.34900	3462
3.34967	3462
3.35033	3461
3.35100	3461
3.35167	3461
3.35233	3461
3.35300	3461
3.35367	3461
3.35433	3461
3.35500	3461
3.35567	3461
3.35633	3461
3.35700	3461
3.35767	3461
3.35833	3461
3.35900	3461
3.35967	3461
3.36033	3461
3.36100	3461
3.36167	3461
3.36233	3461
3.36300	3461
3.36367	3461
3.36433	3461
3.36500	3461
3.36567	3461
3.36633	3461
3.36700	3461
3.36767	3461
3.36833	3461
3.36900	3461
3.36967	3461
3.37033	3461
3.37100	3461
3.37167	3461
3.37233	3461
3.37300	3461
3.37367	3461
3.37433	3462
3.37500	3462
3.37567	3462
3.37633	3462
3.37700	3462
3.37767	3462
3.37833	3462
3.37900	3462
3.37967	3463
3.38033	3463
3.38100	3463
3.38167	3463
3.38233	3463
3.38300	3463
3.38367	3464
3.38433	3464
3.38500	3464
3.38567	3464
3.38633	3464
3.38700	3465
3.38767	3465
3.38833	3465
3.38900	3465
3.38967	3466
3.39033	3466
3.39100	3466
3.39167	3466
3.39233	3466
3.39300	3467
3.39367	3467
3.39433	3467
3.39500	3467
3.39567	3468
3.39633	3468
3.39700	3468
3.39767	3468
3.39833	3469
3.39900	3469
3.39967	3469
3.40033	3470
3.40100	3470
3.40167	3471
3.40233	3471
3.40300	3472
3.40367	3472
3.40433	3473
3.40500	3473
3.40567	3473
3.40633	3474
3.40700	3474
3.40767	3475
3.40833	3475
3.40900	3476
3.40967	3476
3.41033	3477
3.41100	3477
3.41167	3477
3.41233	3478
3.41300	3478
3.41367	3479
3.41433	3479
3.41500	3479
3.41567	3480
3.41633	3480
3.41700	3481
3.41767	3481
3.41833	3482
3.41900	3482
3.41967	3483
3.42033	3483
3.42100	3484
3.42167	3484
3.42233	3485
3.42300	3485
3.42367	3486
3.42433	3486
3.42500	3487
3.42567	3488
3.42633	3488
3.42700	3489
3.42767	3489
3.42833	3490
3.42900	3490
3.42967	3491
3.43033	3492
3.43100	3492
3.43167	3493
3.43233	3494
3.43300	3494
3.43367	3495
3.43433	3496
3.43500	3497
3.43567	3498
3.43633	3498
3.43700	3499
3.43767	3500
3.43833	3501
3.43900	3502
3.43967	3503
3.44033	3504
3.44100	3505
3.44167	3506
3.44233	3508
3.44300	3509
3.44367	3510
3.44433	3511
3.44500	3512
3.44567	3514
3.44633	3515
3.44700	3516
3.44767	3517
3.44833	3519
3.44900	3520
3.44967	3522
3.45033	3523
3.45100	3525
3.45167	3526
3.45233	3528
3.45300	3530
3.45367	3531
3.45433	3533
3.45500	3535
3.45567	3537
3.45633	3539
3.45700	3541
3.45767	3543
3.45833	3545
3.45900	3547
3.45967	3549
3.46033	3551
3.46100	3554
3.46167	3556
3.46233	3558
3.46300	3560
3.46367	3562
3.46433	3565
3.46500	3567
3.46567	3569
3.46633	3571
3.46700	3574
3.46767	3576
3.46833	3578
3.46900	3581
3.46967	3583
3.47033	3586
3.47100	3588
3.47167	3591
3.47233	3594
3.47300	3596
3.47367	3599
3.47433	3602
3.47500	3604
3.47567	3607
3.47633	3610
3.47700	3613
3.47767	3616
3.47833	3619
3.47900	3621
3.47967	3624
3.48033	3627
3.48100	3630
3.48167	3633
3.48233	3636
3.48300	3640
3.48367	3643
3.48433	3646
3.48500	3649
3.48567	3652
3.48633	3655
3.48700	3658
3.48767	3662
3.48833	3665
3.48900	3668
3.48967	3672
3.49033	3675
3.49100	3679
3.49167	3683
3.49233	3686
3.49300	3690
3.49367	3694
3.49433	3697
3.49500	3701
3.49567	3705
3.49633	3709
3.49700	3714
3.49767	3718
3.49833	3722
3.49900	3727
3.49967	3731
3.50033	3736
3.50100	3741
3.50167	3746
3.50233	3751
3.50300	3756
3.50367	3762
3.50433	3768
3.50500	3773
3.50567	3780
3.50633	3786
3.50700	3792
3.50767	3799
3.50833	3806
3.50900	3813
3.50967	3821
3.51033	3829
3.51100	3837
3.51167	3845
3.51233	3854
3.51300	3863
3.51367	3873
3.51433	3883
3.51500	3893
3.51567	3903
3.51633	3914
3.51700	3926
3.51767	3937
3.51833	3949
3.51900	3962
3.51967	3975
3.52033	3988
3.52100	4002
3.52167	4016
3.52233	4031
3.52300	4046
3.52367	4062
3.52433	4078
3.52500	4094
3.52567	4111
3.52633	4129
3.52700	4146
3.52767	4165
3.52833	4183
3.52900	4203
3.52967	4222
3.53033	4242
3.53100	4263
3.53167	4284
3.53233	4306
3.53300	4327
3.53367	4350
3.53433	4373
3.53500	4396
3.53567	4420
3.53633	4444
3.53700	4468
3.53767	4493
3.53833	4519
3.53900	4544
3.53967	4570
3.54033	4597
3.54100	4623
3.54167	4650
3.54233	4678
3.54300	4705
3.54367	4733
3.54433	4761
3.54500	4790
3.54567	4818
3.54633	4847
3.54700	4876
3.54767	4905
3.54833	4935
3.54900	4964
3.54967	4993
3.55033	5023
3.55100	5053
3.55167	5082
3.55233	5112
3.55300	5141
3.55367	5171
3.55433	5200
3.55500	5229
3.55567	5258
3.55633	5287
3.55700	5316
3.55767	5344
3.55833	5372
3.55900	5400
3.55967	5428
3.56033	5456
3.56100	5483
3.56167	5510
3.56233	5536
3.56300	5563
3.56367	5588
3.56433	5614
3.56500	5639
3.56567	5663
3.56633	5687
3.56700	5710
3.56767	5733
3.56833	5755
3.56900	5777
3.56967	5798
3.57033	5819
3.57100	5839
3.57167	5858
3.57233	5877
3.57300	5895
3.57367	5913
3.57433	5930
3.57500	5947
3.57567	5962
3.57633	5978
3.57700	5992
3.57767	6006
3.57833	6019
3.57900	6032
3.57967	6044
3.58033	6056
3.58100	6066
3.58167	6077
3.58233	6086
3.58300	6096
3.58367	6104
3.58433	6112
3.58500	6120
3.58567	6127
3.58633	6133
3.58700	6139
3.58767	6144
3.58833	6149
3.58900	6154
3.58967	6158
3.59033	6161
3.59100	6164
3.59167	6167
3.59233	6169
3.59300	6170
3.59367	6171
3.59433	6172
3.59500	6172
3.59567	6172
3.59633	6171
3.59700	6170
3.59767	6169
3.59833	6167
3.59900	6165
3.59967	6162
3.60033	6159
3.60100	6156
3.60167	6152
3.60233	6148
3.60300	6144
3.60367	6139
3.60433	6134
3.60500	6128
3.60567	6123
3.60633	6117
3.60700	6110
3.60767	6104
3.60833	6097
3.60900	6089
3.60967	6082
3.61033	6074
3.61100	6066
3.61167	6057
3.61233	6048
3.61300	6039
3.61367	6030
3.61433	6020
3.61500	6010
3.61567	6000
3.61633	5990
3.61700	5979
3.61767	5968
3.61833	5957
3.61900	5945
3.61967	5933
3.62033	5921
3.62100	5909
3.62167	5896
3.62233	5883
3.62300	5870
3.62367	5856
3.62433	5843
3.62500	5829
3.62567	5814
3.62633	5800
3.62700	5785
3.62767	5770
3.62833	5755
3.62900	5739
3.62967	5724
3.63033	5708
3.63100	5692
3.63167	5676
3.63233	5659
3.63300	5642
3.63367	5625
3.63433	5608
3.63500	5591
3.63567	5573
3.63633	5556
3.63700	5538
3.63767	5520
3.63833	5501
3.63900	5483
3.63967	5464
3.64033	5445
3.64100	5426
3.64167	5407
3.64233	5388
3.64300	5368
3.64367	5349
3.64433	5329
3.64500	5309
3.64567	5289
3.64633	5269
3.64700	5249
3.64767	5229
3.64833	5209
3.64900	5189
3.64967	5169
3.65033	5148
3.65100	5128
3.65167	5108
3.65233	5087
3.65300	5067
3.65367	5047
3.65433	5027
3.65500	5006
3.65567	4986
3.65633	4966
3.65700	4946
3.65767	4926
3.65833	4906
3.65900	4886
3.65967	4866
3.66033	4846
3.66100	4827
3.66167	4807
3.66233	4788
3.66300	4768
3.66367	4749
3.66433	4730
3.66500	4712
3.66567	4693
3.66633	4674
3.66700	4656
3.66767	4638
3.66833	4619
3.66900	4602
3.66967	4584
3.67033	4566
3.67100	4549
3.67167	4531
3.67233	4514
3.67300	4497
3.67367	4480
3.67433	4464
3.67500	4447
3.67567	4431
3.67633	4415
3.67700	4399
3.67767	4384
3.67833	4368
3.67900	4353
3.67967	4338
3.68033	4323
3.68100	4309
3.68167	4294
3.68233	4280
3.68300	4266
3.68367	4252
3.68433	4238
3.68500	4224
3.68567	4211
3.68633	4198
3.68700	4185
3.68767	4172
3.68833	4159
3.68900	4147
3.68967	4135
3.69033	4123
3.69100	4111
3.69167	4099
3.69233	4087
3.69300	4076
3.69367	4064
3.69433	4053
3.69500	4042
3.69567	4032
3.69633	4021
3.69700	4011
3.69767	4000
3.69833	3990
3.69900	3980
3.69967	3970
3.70033	3961
3.70100	3951
3.70167	3942
3.70233	3933
3.70300	3923
3.70367	3915
3.70433	3906
3.70500	3897
3.70567	3889
3.70633	3880
3.70700	3872
3.70767	3864
3.70833	3856
3.70900	3848
3.70967	3840
3.71033	3833
3.71100	3825
3.71167	3818
3.71233	3811
3.71300	3803
3.71367	3796
3.71433	3789
3.71500	3782
3.71567	3776
3.71633	3769
3.71700	3762
3.71767	3756
3.71833	3749
3.71900	3743
3.71967	3736
3.72033	3730
3.72100	3724
3.72167	3718
3.72233	3712
3.72300	3706
3.72367	3700
3.72433	3694
3.72500	3689
3.72567	3683
3.72633	3678
3.72700	3672
3.72767	3667
3.72833	3662
3.72900	3657
3.72967	3652
3.73033	3647
3.73100	3642
3.73167	3637
3.73233	3632
3.73300	3627
3.73367	3622
3.73433	3618
3.73500	3613
3.73567	3608
3.73633	3604
3.73700	3599
3.73767	3595
3.73833	3590
3.73900	3586
3.73967	3582
3.74033	3578
3.74100	3574
3.74167	3570
3.74233	3566
3.74300	3562
3.74367	3558
3.74433	3554
3.74500	3551
3.74567	3547
3.74633	3544
3.74700	3540
3.74767	3537
3.74833	3534
3.74900	3530
3.74967	3527
3.75033	3524
3.75100	3521
3.75167	3518
3.75233	3515
3.75300	3512
3.75367	3509
3.75433	3506
3.75500	3503
3.75567	3500
3.75633	3497
3.75700	3494
3.75767	3491
3.75833	3489
3.75900	3486
3.75967	3483
3.76033	3480
3.76100	3478
3.76167	3475
3.76233	3473
3.76300	3470
3.76367	3467
3.76433	3465
3.76500	3462
3.76567	3460
3.76633	3457
3.76700	3455
3.76767	3452
3.76833	3450
3.76900	3447
3.76967	3445
3.77033	3443
3.77100	3440
3.77167	3438
3.77233	3435
3.77300	3433
3.77367	3431
3.77433	3428
3.77500	3426
3.77567	3423
3.77633	3421
3.77700	3419
3.77767	3416
3.77833	3414
3.77900	3412
3.77967	3410
3.78033	3407
3.78100	3405
3.78167	3403
3.78233	3401
3.78300	3399
3.78367	3397
3.78433	3395
3.78500	3394
3.78567	3392
3.78633	3390
3.78700	3388
3.78767	3387
3.78833	3385
3.78900	3383
3.78967	3381
3.79033	3380
3.79100	3378
3.79167	3376
3.79233	3375
3.79300	3373
3.79367	3371
3.79433	3370
3.79500	3368
3.79567	3367
3.79633	3365
3.79700	3364
3.79767	3362
3.79833	3360
3.79900	3359
3.79967	3357
3.80033	3356
3.80100	3354
3.80167	3352
3.80233	3351
3.80300	3349
3.80367	3348
3.80433	3346
3.80500	3344
3.80567	3343
3.80633	3341
3.80700	3339
3.80767	3338
3.80833	3336
3.80900	3335
3.80967	3333
3.81033	3331
3.81100	3330
3.81167	3328
3.81233	3327
3.81300	3325
3.81367	3324
3.81433	3322
3.81500	3321
3.81567	3320
3.81633	3318
3.81700	3317
3.81767	3315
3.81833	3314
3.81900	3312
3.81967	3311
3.82033	3310
3.82100	3308
3.82167	3307
3.82233	3305
3.82300	3304
3.82367	3302
3.82433	3301
3.82500	3300
3.82567	3298
3.82633	3297
3.82700	3296
3.82767	3294
3.82833	3293
3.82900	3292
3.82967	3290
3.83033	3289
3.83100	3288
3.83167	3287
3.83233	3285
3.83300	3284
3.83367	3283
3.83433	3282
3.83500	3280
3.83567	3279
3.83633	3278
3.83700	3277
3.83767	3275
3.83833	3274
3.83900	3273
3.83967	3272
3.84033	3271
3.84100	3269
3.84167	3268
3.84233	3267
3.84300	3266
3.84367	3265
3.84433	3264
3.84500	3263
3.84567	3262
3.84633	3261
3.84700	3260
3.84767	3259
3.84833	3258
3.84900	3257
3.84967	3256
3.85033	3255
3.85100	3254
3.85167	3253
3.85233	3252
3.85300	3251
3.85367	3250
3.85433	3249
3.85500	3248
3.85567	3247
3.85633	3246
3.85700	3245
3.85767	3244
3.85833	3243
3.85900	3242
3.85967	3241
3.86033	3240
3.86100	3239
3.86167	3238
3.86233	3237
3.86300	3236
3.86367	3236
3.86433	3235
3.86500	3234
3.86567	3233
3.86633	3232
3.86700	3231
3.86767	3230
3.86833	3229
3.86900	3228
3.86967	3227
3.87033	3226
3.87100	3225
3.87167	3224
3.87233	3223
3.87300	3223
3.87367	3222
3.87433	3221
3.87500	3220
3.87567	3220
3.87633	3219
3.87700	3218
3.87767	3218
3.87833	3217
3.87900	3217
3.87967	3216
3.88033	3215
3.88100	3215
3.88167	3214
3.88233	3214
3.88300	3214
3.88367	3213
3.88433	3213
3.88500	3212
3.88567	3212
3.88633	3211
3.88700	3211
3.88767	3210
3.88833	3210
3.88900	3209
3.88967	3209
3.89033	3208
3.89100	3207
3.89167	3207
3.89233	3206
3.89300	3206
3.89367	3205
3.89433	3205
3.89500	3204
3.89567	3204
3.89633	3203
3.89700	3202
3.89767	3202
3.89833	3201
3.89900	3201
3.89967	3200
3.90033	3200
3.90100	3199
3.90167	3198
3.90233	3198
3.90300	3198
3.90367	3197
3.90433	3197
3.90500	3196
3.90567	3196
3.90633	3195
3.90700	3195
3.90767	3194
3.90833	3194
3.90900	3193
3.90967	3193
3.91033	3192
3.91100	3192
3.91167	3191
3.91233	3191
3.91300	3190
3.91367	3190
3.91433	3190
3.91500	3189
3.91567	3189
3.91633	3189
3.91700	3188
3.91767	3188
3.91833	3188
3.91900	3187
3.91967	3187
3.92033	3187
3.92100	3186
3.92167	3186
3.92233	3186
3.92300	3185
3.92367	3185
3.92433	3185
3.92500	3184
3.92567	3184
3.92633	3183
3.92700	3183
3.92767	3183
3.92833	3182
3.92900	3182
3.92967	3181
3.93033	3181
3.93100	3181
3.93167	3180
3.93233	3180
3.93300	3179
3.93367	3179
3.93433	3178
3.93500	3177
3.93567	3177
3.93633	3176
3.93700	3176
3.93767	3175
3.93833	3175
3.93900	3174
3.93967	3173
3.94033	3173
3.94100	3172
3.94167	3172
3.94233	3171
3.94300	3171
3.94367	3170
3.94433	3170
3.94500	3169
3.94567	3169
3.94633	3168
3.94700	3168
3.94767	3167
3.94833	3167
3.94900	3166
3.94967	3166
3.95033	3166
3.95100	3165
3.95167	3165
3.95233	3164
3.95300	3164
3.95367	3164
3.95433	3163
3.95500	3163
3.95567	3162
3.95633	3162
3.95700	3162
3.95767	3161
3.95833	3161
3.95900	3161
3.95967	3160
3.96033	3160
3.96100	3160
3.96167	3159
3.96233	3159
3.96300	3159
3.96367	3159
3.96433	3158
3.96500	3158
3.96567	3158
3.96633	3158
3.96700	3157
3.96767	3157
3.96833	3157
3.96900	3157
3.96967	3157
3.97033	3157
3.97100	3157
3.97167	3156
3.97233	3156
3.97300	3156
3.97367	3156
3.97433	3156
3.97500	3157
3.97567	3157
3.97633	3157
3.97700	3157
3.97767	3157
3.97833	3157
3.97900	3157
3.97967	3157
3.98033	3157
3.98100	3158
3.98167	3158
3.98233	3158
3.98300	3158
3.98367	3158
3.98433	3159
3.98500	3159
3.98567	3159
3.98633	3159
3.98700	3160
3.98767	3160
3.98833	3160
3.98900	3161
3.98967	3161
3.99033	3161
3.99100	3162
3.99167	3162
3.99233	3163
3.99300	3163
3.99367	3164
3.99433	3165
3.99500	3165
3.99567	3166
3.99633	3167
3.99700	3168
3.99767	3169
3.99833	3170
3.99900	3171
3.99967	3172
4.00033	3173
4.00100	3174
4.00167	3175
4.00233	3177
4.00300	3178
4.00367	3179
4.00433	3181
4.00500	3182
4.00567	3184
4.00633	3185
4.00700	3187
4.00767	3189
4.00833	3190
4.00900	3192
4.00967	3194
4.01033	3196
4.01100	3198
4.01167	3200
4.01233	3202
4.01300	3204
4.01367	3206
4.01433	3209
4.01500	3211
4.01567	3214
4.01633	3216
4.01700	3219
4.01767	3222
4.01833	3225
4.01900	3227
4.01967	3231
4.02033	3234
4.02100	3237
4.02167	3240
4.02233	3243
4.02300	3247
4.02367	3250
4.02433	3254
4.02500	3258
4.02567	3261
4.02633	3265
4.02700	3269
4.02767	3273
4.02833	3277
4.02900	3281
4.02967	3286
4.03033	3290
4.03100	3294
4.03167	3299
4.03233	3303
4.03300	3308
4.03367	3312
4.03433	3317
4.03500	3322
4.03567	3327
4.03633	3332
4.03700	3337
4.03767	3342
4.03833	3347
4.03900	3353
4.03967	3358
4.04033	3363
4.04100	3369
4.04167	3374
4.04233	3380
4.04300	3386
4.04367	3392
4.04433	3397
4.04500	3403
4.04567	3409
4.04633	3415
4.04700	3421
4.04767	3427
4.04833	3434
4.04900	3440
4.04967	3446
4.05033	3452
4.05100	3459
4.05167	3465
4.05233	3471
4.05300	3478
4.05367	3484
4.05433	3491
4.05500	3497
4.05567	3504
4.05633	3510
4.05700	3517
4.05767	3523
4.05833	3530
4.05900	3536
4.05967	3543
4.06033	3550
4.06100	3556
4.06167	3562
4.06233	3569
4.06300	3575
4.06367	3582
4.06433	3588
4.06500	3594
4.06567	3600
4.06633	3607
4.06700	3613
4.06767	3619
4.06833	3625
4.06900	3631
4.06967	3636
4.07033	3642
4.07100	3648
4.07167	3654
4.07233	3659
4.07300	3665
4.07367	3670
4.07433	3676
4.07500	3681
4.07567	3686
4.07633	3692
4.07700	3697
4.07767	3702
4.07833	3707
4.07900	3712
4.07967	3717
4.08033	3722
4.08100	3726
4.08167	3731
4.08233	3735
4.08300	3740
4.08367	3744
4.08433	3748
4.08500	3752
4.08567	3756
4.08633	3760
4.08700	3763
4.08767	3767
4.08833	3770
4.08900	3774
4.08967	3777
4.09033	3780
4.09100	3784
4.09167	3787
4.09233	3790
4.09300	3793
4.09367	3795
4.09433	3798
4.09500	3801
4.09567	3804
4.09633	3806
4.09700	3809
4.09767	3811
4.09833	3813
4.09900	3815
4.09967	3818
4.10033	3820
4.10100	3822
4.10167	3823
4.10233	3825
4.10300	3827
4.10367	3829
4.10433	3830
4.10500	3832
4.10567	3833
4.10633	3834
4.10700	3836
4.10767	3837
4.10833	3838
4.10900	3839
4.10967	3840
4.11033	3841
4.11100	3842
4.11167	3843
4.11233	3844
4.11300	3844
4.11367	3845
4.11433	3846
4.11500	3846
4.11567	3847
4.11633	3847
4.11700	3847
4.11767	3848
4.11833	3848
4.11900	3848
4.11967	3849
4.12033	3849
4.12100	3849
4.12167	3849
4.12233	3849
4.12300	3849
4.12367	3849
4.12433	3849
4.12500	3849
4.12567	3849
4.12633	3849
4.12700	3849
4.12767	3849
4.12833	3849
4.12900	3849
4.12967	3849
4.13033	3848
4.13100	3848
4.13167	3849
4.13233	3849
4.13300	3849
4.13367	3849
4.13433	3849
4.13500	3849
4.13567	3849
4.13633	3849
4.13700	3849
4.13767	3849
4.13833	3849
4.13900	3849
4.13967	3849
4.14033	3849
4.14100	3849
4.14167	3849
4.14233	3850
4.14300	3850
4.14367	3850
4.14433	3850
4.14500	3850
4.14567	3851
4.14633	3851
4.14700	3851
4.14767	3851
4.14833	3851
4.14900	3852
4.14967	3852
4.15033	3852
4.15100	3852
4.15167	3853
4.15233	3853
4.15300	3853
4.15367	3853
4.15433	3853
4.15500	3854
4.15567	3854
4.15633	3854
4.15700	3855
4.15767	3855
4.15833	3855
4.15900	3856
4.15967	3856
4.16033	3856
4.16100	3856
4.16167	3857
4.16233	3857
4.16300	3858
4.16367	3858
4.16433	3858
4.16500	3859
4.16567	3859
4.16633	3859
4.16700	3860
4.16767	3860
4.16833	3861
4.16900	3861
4.16967	3861
4.17033	3862
4.17100	3862
4.17167	3863
4.17233	3863
4.17300	3864
4.17367	3864
4.17433	3865
4.17500	3865
4.17567	3866
4.17633	3867
4.17700	3867
4.17767	3868
4.17833	3869
4.17900	3870
4.17967	3870
4.18033	3871
4.18100	3872
4.18167	3873
4.18233	3874
4.18300	3875
4.18367	3876
4.18433	3877
4.18500	3878
4.18567	3880
4.18633	3881
4.18700	3882
4.18767	3883
4.18833	3885
4.18900	3886
4.18967	3888
4.19033	3890
4.19100	3891
4.19167	3893
4.19233	3895
4.19300	3897
4.19367	3899
4.19433	3901
4.19500	3903
4.19567	3906
4.19633	3908
4.19700	3910
4.19767	3913
4.19833	3916
4.19900	3918
4.19967	3921
4.20033	3924
4.20100	3927
4.20167	3931
4.20233	3934
4.20300	3937
4.20367	3941
4.20433	3945
4.20500	3949
4.20567	3953
4.20633	3957
4.20700	3961
4.20767	3966
4.20833	3970
4.20900	3975
4.20967	3980
4.21033	3986
4.21100	3991
4.21167	3997
4.21233	4003
4.21300	4009
4.21367	4015
4.21433	4022
4.21500	4029
4.21567	4036
4.21633	4043
4.21700	4051
4.21767	4059
4.21833	4067
4.21900	4075
4.21967	4084
4.22033	4093
4.22100	4102
4.22167	4111
4.22233	4121
4.22300	4131
4.22367	4141
4.22433	4152
4.22500	4163
4.22567	4174
4.22633	4185
4.22700	4197
4.22767	4209
4.22833	4222
4.22900	4235
4.22967	4248
4.23033	4261
4.23100	4275
4.23167	4289
4.23233	4304
4.23300	4319
4.23367	4335
4.23433	4351
4.23500	4367
4.23567	4384
4.23633	4401
4.23700	4418
4.23767	4436
4.23833	4455
4.23900	4473
4.23967	4492
4.24033	4512
4.24100	4532
4.24167	4552
4.24233	4572
4.24300	4594
4.24367	4615
4.24433	4637
4.24500	4659
4.24567	4682
4.24633	4705
4.24700	4729
4.24767	4753
4.24833	4777
4.24900	4802
4.24967	4828
4.25033	4853
4.25100	4879
4.25167	4906
4.25233	4933
4.25300	4960
4.25367	4987
4.25433	5015
4.25500	5044
4.25567	5072
4.25633	5101
4.25700	5131
4.25767	5161
4.25833	5191
4.25900	5222
4.25967	5253
4.26033	5284
4.26100	5316
4.26167	5348
4.26233	5380
4.26300	5413
4.26367	5446
4.26433	5479
4.26500	5513
4.26567	5547
4.26633	5581
4.26700	5616
4.26767	5651
4.26833	5686
4.26900	5721
4.26967	5757
4.27033	5793
4.27100	5829
4.27167	5866
4.27233	5902
4.27300	5939
4.27367	5976
4.27433	6014
4.27500	6051
4.27567	6089
4.27633	6127
4.27700	6165
4.27767	6203
4.27833	6242
4.27900	6280
4.27967	6319
4.28033	6357
4.28100	6396
4.28167	6435
4.28233	6474
4.28300	6513
4.28367	6552
4.28433	6591
4.28500	6630
4.28567	6670
4.28633	6709
4.28700	6749
4.28767	6788
4.28833	6828
4.28900	6868
4.28967	6908
4.29033	6948
4.29100	6988
4.29167	7028
4.29233	7068
4.29300	7108
4.29367	7148
4.29433	7188
4.29500	7228
4.29567	7268
4.29633	7307
4.29700	7347
4.29767	7386
4.29833	7426
4.29900	7465
4.29967	7503
4.30033	7542
4.30100	7580
4.30167	7619
4.30233	7657
4.30300	7694
4.30367	7732
4.30433	7769
4.30500	7806
4.30567	7842
4.30633	7879
4.30700	7915
4.30767	7951
4.30833	7986
4.30900	8021
4.30967	8056
4.31033	8090
4.31100	8124
4.31167	8157
4.31233	8190
4.31300	8223
4.31367	8255
4.31433	8287
4.31500	8318
4.31567	8349
4.31633	8379
4.31700	8409
4.31767	8439
4.31833	8467
4.31900	8495
4.31967	8523
4.32033	8550
4.32100	8576
4.32167	8602
4.32233	8627
4.32300	8652
4.32367	8675
4.32433	8698
4.32500	8721
4.32567	8742
4.32633	8763
4.32700	8783
4.32767	8803
4.32833	8822
4.32900	8840
4.32967	8858
4.33033	8875
4.33100	8891
4.33167	8907
4.33233	8922
4.33300	8936
4.33367	8950
4.33433	8962
4.33500	8975
4.33567	8986
4.33633	8997
4.33700	9006
4.33767	9016
4.33833	9024
4.33900	9032
4.33967	9039
4.34033	9045
4.34100	9051
4.34167	9056
4.34233	9061
4.34300	9065
4.34367	9068
4.34433	9071
4.34500	9073
4.34567	9074
4.34633	9075
4.34700	9076
4.34767	9076
4.34833	9075
4.34900	9074
4.34967	9072
4.35033	9071
4.35100	9068
4.35167	9066
4.35233	9063
4.35300	9059
4.35367	9056
4.35433	9052
4.35500	9048
4.35567	9044
4.35633	9040
4.35700	9036
4.35767	9031
4.35833	9027
4.35900	9022
4.35967	9017
4.36033	9013
4.36100	9008
4.36167	9004
4.36233	9000
4.36300	8995
4.36367	8992
4.36433	8988
4.36500	8985
4.36567	8982
4.36633	8979
4.36700	8977
4.36767	8975
4.36833	8974
4.36900	8974
4.36967	8974
4.37033	8975
4.37100	8976
4.37167	8978
4.37233	8981
4.37300	8984
4.37367	8989
4.37433	8994
4.37500	9000
4.37567	9007
4.37633	9015
4.37700	9024
4.37767	9034
4.37833	9045
4.37900	9058
4.37967	9071
4.38033	9086
4.38100	9103
4.38167	9120
4.38233	9139
4.38300	9159
4.38367	9181
4.38433	9204
4.38500	9228
4.38567	9254
4.38633	9282
4.38700	9311
4.38767	9342
4.38833	9374
4.38900	9408
4.38967	9443
4.39033	9481
4.39100	9519
4.39167	9560
4.39233	9602
4.39300	9646
4.39367	9692
4.39433	9739
4.39500	9788
4.39567	9839
4.39633	9892
4.39700	9946
4.39767	10003
4.39833	10061
4.39900	10121
4.39967	10182
4.40033	10246
4.40100	10311
4.40167	10377
4.40233	10446
4.40300	10516
4.40367	10587
4.40433	10660
4.40500	10735
4.40567	10811
4.40633	10888
4.40700	10967
4.40767	11047
4.40833	11129
4.40900	11211
4.40967	11295
4.41033	11380
4.41100	11466
4.41167	11554
4.41233	11642
4.41300	11732
4.41367	11822
4.41433	11914
4.41500	12007
4.41567	12101
4.41633	12196
4.41700	12291
4.41767	12388
4.41833	12486
4.41900	12584
4.41967	12683
4.42033	12782
4.42100	12883
4.42167	12984
4.42233	13085
4.42300	13187
4.42367	13289
4.42433	13391
4.42500	13494
4.42567	13596
4.42633	13699
4.42700	13801
4.42767	13904
4.42833	14006
4.42900	14108
4.42967	14209
4.43033	14310
4.43100	14411
4.43167	14511
4.43233	14610
4.43300	14709
4.43367	14806
4.43433	14903
4.43500	14999
4.43567	15093
4.43633	15187
4.43700	15279
4.43767	15370
4.43833	15460
4.43900	15548
4.43967	15635
4.44033	15720
4.44100	15804
4.44167	15886
4.44233	15966
4.44300	16045
4.44367	16122
4.44433	16197
4.44500	16270
4.44567	16342
4.44633	16411
4.44700	16478
4.44767	16543
4.44833	16606
4.44900	16666
4.44967	16724
4.45033	16780
4.45100	16833
4.45167	16884
4.45233	16932
4.45300	16978
4.45367	17021
4.45433	17061
4.45500	17098
4.45567	17133
4.45633	17165
4.45700	17195
4.45767	17221
4.45833	17245
4.45900	17266
4.45967	17284
4.46033	17300
4.46100	17312
4.46167	17322
4.46233	17329
4.46300	17332
4.46367	17333
4.46433	17331
4.46500	17327
4.46567	17319
4.46633	17308
4.46700	17294
4.46767	17277
4.46833	17258
4.46900	17235
4.46967	17210
4.47033	17182
4.47100	17151
4.47167	17118
4.47233	17082
4.47300	17043
4.47367	17002
4.47433	16958
4.47500	16912
4.47567	16863
4.47633	16812
4.47700	16758
4.47767	16703
4.47833	16645
4.47900	16585
4.47967	16522
4.48033	16458
4.48100	16392
4.48167	16323
4.48233	16253
4.48300	16181
4.48367	16107
4.48433	16031
4.48500	15953
4.48567	15874
4.48633	15794
4.48700	15712
4.48767	15628
4.48833	15543
4.48900	15457
4.48967	15370
4.49033	15282
4.49100	15193
4.49167	15103
4.49233	15012
4.49300	14921
4.49367	14828
4.49433	14736
4.49500	14642
4.49567	14549
4.49633	14455
4.49700	14360
4.49767	14266
4.49833	14171
4.49900	14076
4.49967	13981
4.50033	13886
4.50100	13792
4.50167	13697
4.50233	13603
4.50300	13509
4.50367	13416
4.50433	13323
4.50500	13231
4.50567	13139
4.50633	13048
4.50700	12958
4.50767	12869
4.50833	12781
4.50900	12694
4.50967	12609
4.51033	12524
4.51100	12441
4.51167	12359
4.51233	12279
4.51300	12200
4.51367	12122
4.51433	12047
4.51500	11973
4.51567	11901
4.51633	11830
4.51700	11762
4.51767	11695
4.51833	11631
4.51900	11568
4.51967	11508
4.52033	11450
4.52100	11394
4.52167	11341
4.52233	11290
4.52300	11241
4.52367	11195
4.52433	11152
4.52500	11111
4.52567	11072
4.52633	11037
4.52700	11004
4.52767	10973
4.52833	10946
4.52900	10921
4.52967	10900
4.53033	10881
4.53100	10865
4.53167	10852
4.53233	10842
4.53300	10835
4.53367	10832
4.53433	10831
4.53500	10833
4.53567	10839
4.53633	10848
4.53700	10859
4.53767	10874
4.53833	10892
4.53900	10914
4.53967	10939
4.54033	10966
4.54100	10998
4.54167	11032
4.54233	11070
4.54300	11111
4.54367	11155
4.54433	11203
4.54500	11254
4.54567	11309
4.54633	11367
4.54700	11428
4.54767	11492
4.54833	11560
4.54900	11632
4.54967	11706
4.55033	11784
4.55100	11866
4.55167	11951
4.55233	12039
4.55300	12130
4.55367	12225
4.55433	12322
4.55500	12424
4.55567	12528
4.55633	12636
4.55700	12746
4.55767	12860
4.55833	12977
4.55900	13097
4.55967	13220
4.56033	13347
4.56100	13476
4.56167	13608
4.56233	13742
4.56300	13879
4.56367	14019
4.56433	14161
4.56500	14305
4.56567	14452
4.56633	14600
4.56700	14751
4.56767	14903
4.56833	15058
4.56900	15214
4.56967	15372
4.57033	15532
4.57100	15693
4.57167	15855
4.57233	16018
4.57300	16183
4.57367	16349
4.57433	16516
4.57500	16683
4.57567	16852
4.57633	17021
4.57700	17190
4.57767	17360
4.57833	17530
4.57900	17700
4.57967	17871
4.58033	18041
4.58100	18212
4.58167	18382
4.58233	18552
4.58300	18721
4.58367	18890
4.58433	19059
4.58500	19226
4.58567	19393
4.58633	19559
4.58700	19725
4.58767	19889
4.58833	20052
4.58900	20213
4.58967	20374
4.59033	20533
4.59100	20690
4.59167	20846
4.59233	21000
4.59300	21152
4.59367	21302
4.59433	21450
4.59500	21596
4.59567	21740
4.59633	21881
4.59700	22019
4.59767	22155
4.59833	22288
4.59900	22419
4.59967	22546
4.60033	22671
4.60100	22792
4.60167	22910
4.60233	23025
4.60300	23137
4.60367	23246
4.60433	23351
4.60500	23452
4.60567	23550
4.60633	23645
4.60700	23736
4.60767	23823
4.60833	23907
4.60900	23987
4.60967	24063
4.61033	24136
4.61100	24205
4.61167	24271
4.61233	24334
4.61300	24392
4.61367	24448
4.61433	24500
4.61500	24548
4.61567	24593
4.61633	24634
4.61700	24672
4.61767	24706
4.61833	24737
4.61900	24764
4.61967	24788
4.62033	24808
4.62100	24826
4.62167	24839
4.62233	24850
4.62300	24857
4.62367	24861
4.62433	24862
4.62500	24860
4.62567	24855
4.62633	24846
4.62700	24835
4.62767	24820
4.62833	24802
4.62900	24782
4.62967	24759
4.63033	24732
4.63100	24703
4.63167	24672
4.63233	24638
4.63300	24601
4.63367	24562
4.63433	24520
4.63500	24477
4.63567	24431
4.63633	24383
4.63700	24333
4.63767	24281
4.63833	24228
4.63900	24172
4.63967	24115
4.64033	24056
4.64100	23996
4.64167	23934
4.64233	23871
4.64300	23806
4.64367	23739
4.64433	23672
4.64500	23603
4.64567	23533
4.64633	23462
4.64700	23389
4.64767	23316
4.64833	23241
4.64900	23166
4.64967	23090
4.65033	23012
4.65100	22935
4.65167	22856
4.65233	22777
4.65300	22697
4.65367	22616
4.65433	22535
4.65500	22454
4.65567	22372
4.65633	22290
4.65700	22208
4.65767	22126
4.65833	22043
4.65900	21960
4.65967	21878
4.66033	21795
4.66100	21712
4.66167	21629
4.66233	21546
4.66300	21464
4.66367	21381
4.66433	21298
4.66500	21216
4.66567	21133
4.66633	21051
4.66700	20969
4.66767	20887
4.66833	20805
4.66900	20724
4.66967	20643
4.67033	20563
4.67100	20482
4.67167	20403
4.67233	20324
4.67300	20245
4.67367	20166
4.67433	20089
4.67500	20011
4.67567	19935
4.67633	19858
4.67700	19782
4.67767	19707
4.67833	19632
4.67900	19558
4.67967	19484
4.68033	19411
4.68100	19338
4.68167	19265
4.68233	19194
4.68300	19123
4.68367	19052
4.68433	18982
4.68500	18913
4.68567	18844
4.68633	18776
4.68700	18708
4.68767	18641
4.68833	18575
4.68900	18509
4.68967	18444
4.69033	18379
4.69100	18316
4.69167	18252
4.69233	18190
4.69300	18128
4.69367	18067
4.69433	18006
4.69500	17946
4.69567	17887
4.69633	17828
4.69700	17770
4.69767	17712
4.69833	17655
4.69900	17599
4.69967	17543
4.70033	17488
4.70100	17433
4.70167	17379
4.70233	17325
4.70300	17272
4.70367	17219
4.70433	17167
4.70500	17116
4.70567	17065
4.70633	17014
4.70700	16964
4.70767	16914
4.70833	16865
4.70900	16816
4.70967	16767
4.71033	16719
4.71100	16672
4.71167	16624
4.71233	16578
4.71300	16531
4.71367	16485
4.71433	16440
4.71500	16394
4.71567	16349
4.71633	16305
4.71700	16261
4.71767	16217
4.71833	16174
4.71900	16131
4.71967	16089
4.72033	16047
4.72100	16005
4.72167	15964
4.72233	15923
4.72300	15882
4.72367	15843
4.72433	15803
4.72500	15764
4.72567	15726
4.72633	15688
4.72700	15650
4.72767	15613
4.72833	15577
4.72900	15541
4.72967	15506
4.73033	15471
4.73100	15436
4.73167	15402
4.73233	15368
4.73300	15335
4.73367	15302
4.73433	15270
4.73500	15238
4.73567	15206
4.73633	15175
4.73700	15144
4.73767	15114
4.73833	15083
4.73900	15053
4.73967	15023
4.74033	14994
4.74100	14964
4.74167	14935
4.74233	14907
4.74300	14878
4.74367	14850
4.74433	14821
4.74500	14794
4.74567	14766
4.74633	14738
4.74700	14711
4.74767	14684
4.74833	14657
4.74900	14630
4.74967	14604
4.75033	14578
4.75100	14552
4.75167	14526
4.75233	14501
4.75300	14475
4.75367	14450
4.75433	14425
4.75500	14401
4.75567	14376
4.75633	14352
4.75700	14328
4.75767	14304
4.75833	14280
4.75900	14257
4.75967	14234
4.76033	14211
4.76100	14188
4.76167	14166
4.76233	14143
4.76300	14121
4.76367	14099
4.76433	14077
4.76500	14055
4.76567	14033
4.76633	14012
4.76700	13991
4.76767	13969
4.76833	13948
4.76900	13927
4.76967	13906
4.77033	13886
4.77100	13865
4.77167	13845
4.77233	13824
4.77300	13804
4.77367	13784
4.77433	13765
4.77500	13745
4.77567	13726
4.77633	13706
4.77700	13687
4.77767	13668
4.77833	13649
4.77900	13631
4.77967	13612
4.78033	13593
4.78100	13575
4.78167	13557
4.78233	13539
4.78300	13521
4.78367	13503
4.78433	13486
4.78500	13468
4.78567	13450
4.78633	13433
4.78700	13415
4.78767	13397
4.78833	13380
4.78900	13362
4.78967	13345
4.79033	13327
4.79100	13309
4.79167	13292
4.79233	13274
4.79300	13257
4.79367	13239
4.79433	13222
4.79500	13205
4.79567	13187
4.79633	13170
4.79700	13153
4.79767	13135
4.79833	13118
4.79900	13101
4.79967	13084
4.80033	13068
4.80100	13051
4.80167	13034
4.80233	13017
4.80300	13001
4.80367	12984
4.80433	12968
4.80500	12951
4.80567	12935
4.80633	12918
4.80700	12902
4.80767	12885
4.80833	12869
4.80900	12853
4.80967	12837
4.81033	12821
4.81100	12805
4.81167	12789
4.81233	12773
4.81300	12757
4.81367	12741
4.81433	12725
4.81500	12710
4.81567	12694
4.81633	12679
4.81700	12663
4.81767	12648
4.81833	12633
4.81900	12618
4.81967	12603
4.82033	12588
4.82100	12573
4.82167	12559
4.82233	12544
4.82300	12530
4.82367	12515
4.82433	12501
4.82500	12486
4.82567	12472
4.82633	12458
4.82700	12444
4.82767	12430
4.82833	12416
4.82900	12403
4.82967	12389
4.83033	12375
4.83100	12362
4.83167	12348
4.83233	12335
4.83300	12321
4.83367	12308
4.83433	12294
4.83500	12281
4.83567	12268
4.83633	12254
4.83700	12241
4.83767	12228
4.83833	12215
4.83900	12201
4.83967	12188
4.84033	12175
4.84100	12162
4.84167	12149
4.84233	12135
4.84300	12122
4.84367	12109
4.84433	12095
4.84500	12082
4.84567	12069
4.84633	12055
4.84700	12042
4.84767	12029
4.84833	12016
4.84900	12002
4.84967	11989
4.85033	11976
4.85100	11964
4.85167	11951
4.85233	11938
4.85300	11925
4.85367	11913
4.85433	11900
4.85500	11888
4.85567	11876
4.85633	11863
4.85700	11851
4.85767	11839
4.85833	11827
4.85900	11815
4.85967	11803
4.86033	11791
4.86100	11779
4.86167	11767
4.86233	11755
4.86300	11744
4.86367	11732
4.86433	11720
4.86500	11708
4.86567	11697
4.86633	11685
4.86700	11673
4.86767	11662
4.86833	11650
4.86900	11639
4.86967	11627
4.87033	11616
4.87100	11604
4.87167	11592
4.87233	11581
4.87300	11569
4.87367	11557
4.87433	11545
4.87500	11534
4.87567	11522
4.87633	11510
4.87700	11498
4.87767	11486
4.87833	11475
4.87900	11463
4.87967	11451
4.88033	11439
4.88100	11427
4.88167	11415
4.88233	11403
4.88300	11392
4.88367	11380
4.88433	11368
4.88500	11357
4.88567	11345
4.88633	11334
4.88700	11322
4.88767	11311
4.88833	11300
4.88900	11288
4.88967	11277
4.89033	11266
4.89100	11254
4.89167	11243
4.89233	11232
4.89300	11221
4.89367	11210
4.89433	11199
4.89500	11187
4.89567	11176
4.89633	11165
4.89700	11154
4.89767	11143
4.89833	11132
4.89900	11122
4.89967	11111
4.90033	11100
4.90100	11090
4.90167	11079
4.90233	11068
4.90300	11058
4.90367	11048
4.90433	11038
4.90500	11027
4.90567	11017
4.90633	11007
4.90700	10997
4.90767	10987
4.90833	10977
4.90900	10967
4.90967	10958
4.91033	10948
4.91100	10938
4.91167	10929
4.91233	10920
4.91300	10910
4.91367	10901
4.91433	10892
4.91500	10882
4.91567	10873
4.91633	10864
4.91700	10855
4.91767	10845
4.91833	10836
4.91900	10827
4.91967	10818
4.92033	10808
4.92100	10799
4.92167	10790
4.92233	10781
4.92300	10772
4.92367	10762
4.92433	10753
4.92500	10744
4.92567	10735
4.92633	10725
4.92700	10716
4.92767	10707
4.92833	10697
4.92900	10688
4.92967	10679
4.93033	10670
4.93100	10660
4.93167	10651
4.93233	10642
4.93300	10632
4.93367	10623
4.93433	10614
4.93500	10605
4.93567	10595
4.93633	10586
4.93700	10577
4.93767	10567
4.93833	10558
4.93900	10549
4.93967	10540
4.94033	10531
4.94100	10521
4.94167	10512
4.94233	10503
4.94300	10494
4.94367	10484
4.94433	10475
4.94500	10466
4.94567	10456
4.94633	10447
4.94700	10438
4.94767	10429
4.94833	10420
4.94900	10410
4.94967	10401
4.95033	10392
4.95100	10383
4.95167	10374
4.95233	10364
4.95300	10355
4.95367	10346
4.95433	10337
4.95500	10328
4.95567	10319
4.95633	10310
4.95700	10301
4.95767	10292
4.95833	10283
4.95900	10274
4.95967	10265
4.96033	10256
4.96100	10247
4.96167	10238
4.96233	10230
4.96300	10221
4.96367	10212
4.96433	10203
4.96500	10194
4.96567	10185
4.96633	10177
4.96700	10168
4.96767	10159
4.96833	10150
4.96900	10141
4.96967	10133
4.97033	10124
4.97100	10116
4.97167	10107
4.97233	10099
4.97300	10090
4.97367	10082
4.97433	10073
4.97500	10065
4.97567	10056
4.97633	10048
4.97700	10040
4.97767	10031
4.97833	10023
4.97900	10015
4.97967	10006
4.98033	9998
4.98100	9989
4.98167	9981
4.98233	9973
4.98300	9964
4.98367	9956
4.98433	9947
4.98500	9939
4.98567	9931
4.98633	9923
4.98700	9914
4.98767	9906
4.98833	9898
4.98900	9890
4.98967	9882
4.99033	9874
4.99100	9866
4.99167	9858
4.99233	9850
4.99300	9843
4.99367	9835
4.99433	9827
4.99500	9819
4.99567	9812
4.99633	9804
4.99700	9797
4.99767	9789
4.99833	9782
4.99900	9774
4.99967	9767
5.00033	9760
5.00100	9752
5.00167	9745
5.00233	9738
5.00300	9731
5.00367	9724
5.00433	9716
5.00500	9709
5.00567	9702
5.00633	9695
5.00700	9688
5.00767	9681
5.00833	9675
5.00900	9668
5.00967	9661
5.01033	9654
5.01100	9648
5.01167	9641
5.01233	9634
5.01300	9628
5.01367	9621
5.01433	9614
5.01500	9608
5.01567	9601
5.01633	9594
5.01700	9588
5.01767	9581
5.01833	9574
5.01900	9567
5.01967	9560
5.02033	9553
5.02100	9546
5.02167	9539
5.02233	9532
5.02300	9525
5.02367	9518
5.02433	9511
5.02500	9504
5.02567	9497
5.02633	9490
5.02700	9483
5.02767	9476
5.02833	9469
5.02900	9462
5.02967	9455
5.03033	9448
5.03100	9442
5.03167	9435
5.03233	9428
5.03300	9421
5.03367	9414
5.03433	9407
5.03500	9400
5.03567	9392
5.03633	9385
5.03700	9378
5.03767	9371
5.03833	9364
5.03900	9357
5.03967	9350
5.04033	9343
5.04100	9336
5.04167	9329
5.04233	9322
5.04300	9315
5.04367	9308
5.04433	9301
5.04500	9294
5.04567	9287
5.04633	9280
5.04700	9273
5.04767	9267
5.04833	9260
5.04900	9253
5.04967	9246
5.05033	9240
5.05100	9233
5.05167	9226
5.05233	9219
5.05300	9213
5.05367	9206
5.05433	9199
5.05500	9193
5.05567	9186
5.05633	9179
5.05700	9173
5.05767	9166
5.05833	9160
5.05900	9154
5.05967	9147
5.06033	9141
5.06100	9135
5.06167	9128
5.06233	9122
5.06300	9116
5.06367	9110
5.06433	9104
5.06500	9098
5.06567	9092
5.06633	9086
5.06700	9080
5.06767	9074
5.06833	9068
5.06900	9063
5.06967	9057
5.07033	9051
5.07100	9046
5.07167	9040
5.07233	9035
5.07300	9029
5.07367	9024
5.07433	9019
5.07500	9013
5.07567	9008
5.07633	9003
5.07700	8998
5.07767	8993
5.07833	8988
5.07900	8983
5.07967	8978
5.08033	8973
5.08100	8968
5.08167	8963
5.08233	8959
5.08300	8954
5.08367	8949
5.08433	8945
5.08500	8940
5.08567	8936
5.08633	8931
5.08700	8927
5.08767	8923
5.08833	8919
5.08900	8914
5.08967	8910
5.09033	8906
5.09100	8902
5.09167	8898
5.09233	8894
5.09300	8889
5.09367	8885
5.09433	8881
5.09500	8877
5.09567	8873
5.09633	8869
5.09700	8865
5.09767	8860
5.09833	8856
5.09900	8852
5.09967	8848
5.10033	8844
5.10100	8840
5.10167	8836
5.10233	8832
5.10300	8828
5.10367	8824
5.10433	8820
5.10500	8816
5.10567	8812
5.10633	8808
5.10700	8804
5.10767	8801
5.10833	8797
5.10900	8793
5.10967	8790
5.11033	8786
5.11100	8783
5.11167	8779
5.11233	8776
5.11300	8773
5.11367	8769
5.11433	8766
5.11500	8763
5.11567	8760
5.11633	8757
5.11700	8754
5.11767	8751
5.11833	8749
5.11900	8746
5.11967	8743
5.12033	8741
5.12100	8738
5.12167	8736
5.12233	8734
5.12300	8732
5.12367	8730
5.12433	8729
5.12500	8727
5.12567	8726
5.12633	8725
5.12700	8724
5.12767	8724
5.12833	8723
5.12900	8723
5.12967	8723
5.13033	8723
5.13100	8723
5.13167	8724
5.13233	8724
5.13300	8725
5.13367	8726
5.13433	8728
5.13500	8729
5.13567	8731
5.13633	8733
5.13700	8735
5.13767	8737
5.13833	8740
5.13900	8743
5.13967	8746
5.14033	8749
5.14100	8753
5.14167	8757
5.14233	8761
5.14300	8765
5.14367	8770
5.14433	8775
5.14500	8780
5.14567	8786
5.14633	8792
5.14700	8798
5.14767	8805
5.14833	8811
5.14900	8819
5.14967	8826
5.15033	8834
5.15100	8842
5.15167	8851
5.15233	8860
5.15300	8869
5.15367	8878
5.15433	8888
5.15500	8898
5.15567	8908
5.15633	8919
5.15700	8930
5.15767	8941
5.15833	8953
5.15900	8965
5.15967	8977
5.16033	8990
5.16100	9003
5.16167	9016
5.16233	9030
5.16300	9043
5.16367	9058
5.16433	9072
5.16500	9087
5.16567	9102
5.16633	9117
5.16700	9133
5.16767	9149
5.16833	9165
5.16900	9182
5.16967	9199
5.17033	9216
5.17100	9233
5.17167	9251
5.17233	9270
5.17300	9288
5.17367	9307
5.17433	9326
5.17500	9346
5.17567	9365
5.17633	9385
5.17700	9406
5.17767	9426
5.17833	9447
5.17900	9468
5.17967	9489
5.18033	9511
5.18100	9533
5.18167	9555
5.18233	9577
5.18300	9599
5.18367	9621
5.18433	9644
5.18500	9667
5.18567	9690
5.18633	9713
5.18700	9737
5.18767	9761
5.18833	9784
5.18900	9808
5.18967	9832
5.19033	9856
5.19100	9881
5.19167	9905
5.19233	9929
5.19300	9954
5.19367	9978
5.19433	10002
5.19500	10027
5.19567	10051
5.19633	10075
5.19700	10099
5.19767	10123
5.19833	10147
5.19900	10171
5.19967	10195
5.20033	10218
5.20100	10241
5.20167	10264
5.20233	10287
5.20300	10310
5.20367	10333
5.20433	10355
5.20500	10377
5.20567	10399
5.20633	10420
5.20700	10442
5.20767	10463
5.20833	10483
5.20900	10503
5.20967	10523
5.21033	10543
5.21100	10562
5.21167	10581
5.21233	10600
5.21300	10618
5.21367	10636
5.21433	10654
5.21500	10671
5.21567	10688
5.21633	10704
5.21700	10720
5.21767	10735
5.21833	10750
5.21900	10765
5.21967	10779
5.22033	10792
5.22100	10806
5.22167	10818
5.22233	10830
5.22300	10842
5.22367	10853
5.22433	10864
5.22500	10874
5.22567	10884
5.22633	10893
5.22700	10902
5.22767	10910
5.22833	10918
5.22900	10925
5.22967	10932
5.23033	10938
5.23100	10944
5.23167	10949
5.23233	10954
5.23300	10958
5.23367	10961
5.23433	10964
5.23500	10967
5.23567	10969
5.23633	10971
5.23700	10972
5.23767	10972
5.23833	10973
5.23900	10972
5.23967	10971
5.24033	10970
5.24100	10967
5.24167	10965
5.24233	10962
5.24300	10958
5.24367	10954
5.24433	10949
5.24500	10943
5.24567	10937
5.24633	10931
5.24700	10924
5.24767	10916
5.24833	10909
5.24900	10900
5.24967	10891
5.25033	10882
5.25100	10872
5.25167	10861
5.25233	10850
5.25300	10839
5.25367	10827
5.25433	10814
5.25500	10801
5.25567	10788
5.25633	10774
5.25700	10760
5.25767	10746
5.25833	10731
5.25900	10716
5.25967	10700
5.26033	10684
5.26100	10668
5.26167	10651
5.26233	10634
5.26300	10617
5.26367	10599
5.26433	10581
5.26500	10563
5.26567	10545
5.26633	10526
5.26700	10507
5.26767	10487
5.26833	10468
5.26900	10448
5.26967	10428
5.27033	10408
5.27100	10387
5.27167	10367
5.27233	10346
5.27300	10325
5.27367	10304
5.27433	10283
5.27500	10261
5.27567	10240
5.27633	10219
5.27700	10197
5.27767	10176
5.27833	10154
5.27900	10132
5.27967	10110
5.28033	10089
5.28100	10067
5.28167	10045
5.28233	10023
5.28300	10001
5.28367	9979
5.28433	9957
5.28500	9935
5.28567	9914
5.28633	9892
5.28700	9870
5.28767	9848
5.28833	9826
5.28900	9804
5.28967	9782
5.29033	9760
5.29100	9738
5.29167	9716
5.29233	9695
5.29300	9673
5.29367	9651
5.29433	9630
5.29500	9608
5.29567	9587
5.29633	9566
5.29700	9545
5.29767	9524
5.29833	9504
5.29900	9483
5.29967	9463
5.30033	9442
5.30100	9422
5.30167	9402
5.30233	9382
5.30300	9362
5.30367	9343
5.30433	9323
5.30500	9303
5.30567	9284
5.30633	9265
5.30700	9246
5.30767	9227
5.30833	9208
5.30900	9189
5.30967	9170
5.31033	9152
5.31100	9134
5.31167	9115
5.31233	9097
5.31300	9080
5.31367	9062
5.31433	9044
5.31500	9027
5.31567	9010
5.31633	8993
5.31700	8976
5.31767	8960
5.31833	8943
5.31900	8927
5.31967	8911
5.32033	8895
5.32100	8880
5.32167	8864
5.32233	8849
5.32300	8833
5.32367	8818
5.32433	8803
5.32500	8788
5.32567	8774
5.32633	8759
5.32700	8744
5.32767	8730
5.32833	8716
5.32900	8701
5.32967	8687
5.33033	8673
5.33100	8659
5.33167	8645
5.33233	8632
5.33300	8618
5.33367	8605
5.33433	8591
5.33500	8578
5.33567	8564
5.33633	8551
5.33700	8538
5.33767	8525
5.33833	8512
5.33900	8499
5.33967	8486
5.34033	8473
5.34100	8460
5.34167	8448
5.34233	8435
5.34300	8423
5.34367	8410
5.34433	8398
5.34500	8386
5.34567	8374
5.34633	8362
5.34700	8350
5.34767	8338
5.34833	8327
5.34900	8315
5.34967	8304
5.35033	8292
5.35100	8281
5.35167	8270
5.35233	8259
5.35300	8248
5.35367	8237
5.35433	8226
5.35500	8216
5.35567	8205
5.35633	8195
5.35700	8184
5.35767	8174
5.35833	8163
5.35900	8153
5.35967	8143
5.36033	8133
5.36100	8123
5.36167	8113
5.36233	8103
5.36300	8093
5.36367	8083
5.36433	8074
5.36500	8064
5.36567	8054
5.36633	8045
5.36700	8035
5.36767	8026
5.36833	8016
5.36900	8007
5.36967	7998
5.37033	7989
5.37100	7980
5.37167	7971
5.37233	7962
5.37300	7953
5.37367	7945
5.37433	7936
5.37500	7928
5.37567	7919
5.37633	7911
5.37700	7902
5.37767	7894
5.37833	7886
5.37900	7877
5.37967	7869
5.38033	7861
5.38100	7853
5.38167	7845
5.38233	7837
5.38300	7829
5.38367	7821
5.38433	7813
5.38500	7805
5.38567	7797
5.38633	7789
5.38700	7781
5.38767	7773
5.38833	7765
5.38900	7758
5.38967	7750
5.39033	7742
5.39100	7735
5.39167	7727
5.39233	7720
5.39300	7712
5.39367	7705
5.39433	7698
5.39500	7690
5.39567	7683
5.39633	7676
5.39700	7668
5.39767	7661
5.39833	7654
5.39900	7647
5.39967	7640
5.40033	7633
5.40100	7627
5.40167	7620
5.40233	7613
5.40300	7606
5.40367	7599
5.40433	7593
5.40500	7586
5.40567	7579
5.40633	7573
5.40700	7566
5.40767	7559
5.40833	7553
5.40900	7546
5.40967	7540
5.41033	7533
5.41100	7527
5.41167	7521
5.41233	7515
5.41300	7508
5.41367	7502
5.41433	7496
5.41500	7490
5.41567	7484
5.41633	7478
5.41700	7472
5.41767	7466
5.41833	7460
5.41900	7455
5.41967	7449
5.42033	7443
5.42100	7438
5.42167	7432
5.42233	7427
5.42300	7421
5.42367	7416
5.42433	7410
5.42500	7405
5.42567	7400
5.42633	7394
5.42700	7389
5.42767	7384
5.42833	7379
5.42900	7373
5.42967	7368
5.43033	7363
5.43100	7358
5.43167	7353
5.43233	7348
5.43300	7342
5.43367	7337
5.43433	7332
5.43500	7327
5.43567	7322
5.43633	7316
5.43700	7311
5.43767	7306
5.43833	7301
5.43900	7296
5.43967	7290
5.44033	7285
5.44100	7280
5.44167	7275
5.44233	7270
5.44300	7265
5.44367	7259
5.44433	7254
5.44500	7249
5.44567	7244
5.44633	7239
5.44700	7234
5.44767	7229
5.44833	7224
5.44900	7219
5.44967	7214
5.45033	7209
5.45100	7205
5.45167	7200
5.45233	7195
5.45300	7190
5.45367	7185
5.45433	7180
5.45500	7176
5.45567	7171
5.45633	7166
5.45700	7162
5.45767	7157
5.45833	7152
5.45900	7148
5.45967	7143
5.46033	7139
5.46100	7135
5.46167	7130
5.46233	7126
5.46300	7121
5.46367	7116
5.46433	7112
5.46500	7107
5.46567	7102
5.46633	7098
5.46700	7093
5.46767	7088
5.46833	7083
5.46900	7079
5.46967	7074
5.47033	7069
5.47100	7064
5.47167	7060
5.47233	7055
5.47300	7050
5.47367	7046
5.47433	7041
5.47500	7036
5.47567	7032
5.47633	7027
5.47700	7023
5.47767	7018
5.47833	7014
5.47900	7009
5.47967	7005
5.48033	7000
5.48100	6995
5.48167	6991
5.48233	6986
5.48300	6982
5.48367	6977
5.48433	6973
5.48500	6968
5.48567	6964
5.48633	6960
5.48700	6955
5.48767	6951
5.48833	6947
5.48900	6942
5.48967	6938
5.49033	6934
5.49100	6930
5.49167	6926
5.49233	6922
5.49300	6918
5.49367	6914
5.49433	6910
5.49500	6906
5.49567	6902
5.49633	6898
5.49700	6894
5.49767	6890
5.49833	6887
5.49900	6883
5.49967	6879
5.50033	6875
5.50100	6872
5.50167	6868
5.50233	6864
5.50300	6860
5.50367	6857
5.50433	6853
5.50500	6849
5.50567	6846
5.50633	6842
5.50700	6838
5.50767	6834
5.50833	6830
5.50900	6827
5.50967	6823
5.51033	6819
5.51100	6815
5.51167	6811
5.51233	6808
5.51300	6804
5.51367	6800
5.51433	6797
5.51500	6793
5.51567	6789
5.51633	6786
5.51700	6782
5.51767	6778
5.51833	6775
5.51900	6771
5.51967	6768
5.52033	6764
5.52100	6761
5.52167	6757
5.52233	6754
5.52300	6750
5.52367	6747
5.52433	6744
5.52500	6741
5.52567	6738
5.52633	6734
5.52700	6731
5.52767	6728
5.52833	6725
5.52900	6722
5.52967	6719
5.53033	6716
5.53100	6713
5.53167	6710
5.53233	6706
5.53300	6703
5.53367	6700
5.53433	6697
5.53500	6694
5.53567	6690
5.53633	6687
5.53700	6684
5.53767	6681
5.53833	6678
5.53900	6675
5.53967	6672
5.54033	6668
5.54100	6665
5.54167	6662
5.54233	6659
5.54300	6656
5.54367	6653
5.54433	6650
5.54500	6647
5.54567	6644
5.54633	6641
5.54700	6638
5.54767	6635
5.54833	6632
5.54900	6630
5.54967	6627
5.55033	6624
5.55100	6622
5.55167	6619
5.55233	6616
5.55300	6614
5.55367	6611
5.55433	6608
5.55500	6606
5.55567	6603
5.55633	6600
5.55700	6598
5.55767	6595
5.55833	6593
5.55900	6590
5.55967	6587
5.56033	6585
5.56100	6582
5.56167	6579
5.56233	6576
5.56300	6574
5.56367	6571
5.56433	6568
5.56500	6565
5.56567	6563
5.56633	6560
5.56700	6557
5.56767	6554
5.56833	6552
5.56900	6549
5.56967	6546
5.57033	6543
5.57100	6541
5.57167	6538
5.57233	6535
5.57300	6532
5.57367	6530
5.57433	6527
5.57500	6524
5.57567	6521
5.57633	6519
5.57700	6516
5.57767	6513
5.57833	6511
5.57900	6508
5.57967	6505
5.58033	6502
5.58100	6500
5.58167	6497
5.58233	6494
5.58300	6492
5.58367	6489
5.58433	6486
5.58500	6484
5.58567	6481
5.58633	6478
5.58700	6476
5.58767	6473
5.58833	6470
5.58900	6468
5.58967	6465
5.59033	6462
5.59100	6460
5.59167	6457
5.59233	6455
5.59300	6452
5.59367	6450
5.59433	6447
5.59500	6444
5.59567	6442
5.59633	6439
5.59700	6437
5.59767	6434
5.59833	6432
5.59900	6429
5.59967	6427
5.60033	6424
5.60100	6421
5.60167	6419
5.60233	6416
5.60300	6414
5.60367	6411
5.60433	6409
5.60500	6406
5.60567	6404
5.60633	6401
5.60700	6399
5.60767	6396
5.60833	6394
5.60900	6392
5.60967	6389
5.61033	6387
5.61100	6385
5.61167	6383
5.61233	6380
5.61300	6378
5.61367	6376
5.61433	6374
5.61500	6371
5.61567	6369
5.61633	6367
5.61700	6364
5.61767	6362
5.61833	6360
5.61900	6358
5.61967	6355
5.62033	6353
5.62100	6351
5.62167	6348
5.62233	6346
5.62300	6344
5.62367	6341
5.62433	6339
5.62500	6336
5.62567	6334
5.62633	6331
5.62700	6329
5.62767	6326
5.62833	6324
5.62900	6321
5.62967	6319
5.63033	6316
5.63100	6314
5.63167	6311
5.63233	6309
5.63300	6306
5.63367	6304
5.63433	6302
5.63500	6299
5.63567	6297
5.63633	6295
5.63700	6292
5.63767	6290
5.63833	6287
5.63900	6285
5.63967	6283
5.64033	6280
5.64100	6278
5.64167	6276
5.64233	6273
5.64300	6271
5.64367	6269
5.64433	6267
5.64500	6264
5.64567	6262
5.64633	6260
5.64700	6258
5.64767	6255
5.64833	6253
5.64900	6251
5.64967	6249
5.65033	6247
5.65100	6244
5.65167	6242
5.65233	6240
5.65300	6238
5.65367	6235
5.65433	6233
5.65500	6231
5.65567	6228
5.65633	6226
5.65700	6224
5.65767	6222
5.65833	6219
5.65900	6217
5.65967	6215
5.66033	6213
5.66100	6210
5.66167	6208
5.66233	6206
5.66300	6204
5.66367	6202
5.66433	6199
5.66500	6197
5.66567	6195
5.66633	6193
5.66700	6190
5.66767	6188
5.66833	6186
5.66900	6184
5.66967	6181
5.67033	6179
5.67100	6177
5.67167	6175
5.67233	6173
5.67300	6171
5.67367	6169
5.67433	6167
5.67500	6165
5.67567	6163
5.67633	6161
5.67700	6159
5.67767	6157
5.67833	6155
5.67900	6153
5.67967	6151
5.68033	6149
5.68100	6147
5.68167	6145
5.68233	6143
5.68300	6141
5.68367	6139
5.68433	6137
5.68500	6135
5.68567	6133
5.68633	6131
5.68700	6129
5.68767	6127
5.68833	6125
5.68900	6123
5.68967	6120
5.69033	6118
5.69100	6116
5.69167	6114
5.69233	6112
5.69300	6110
5.69367	6108
5.69433	6106
5.69500	6104
5.69567	6101
5.69633	6099
5.69700	6097
5.69767	6095
5.69833	6093
5.69900	6090
5.69967	6088
5.70033	6086
5.70100	6084
5.70167	6081
5.70233	6079
5.70300	6077
5.70367	6075
5.70433	6073
5.70500	6070
5.70567	6068
5.70633	6066
5.70700	6064
5.70767	6062
5.70833	6059
5.70900	6057
5.70967	6055
5.71033	6053
5.71100	6051
5.71167	6049
5.71233	6047
5.71300	6045
5.71367	6043
5.71433	6040
5.71500	6038
5.71567	6036
5.71633	6034
5.71700	6032
5.71767	6030
5.71833	6028
5.71900	6026
5.71967	6024
5.72033	6023
5.72100	6021
5.72167	6019
5.72233	6017
5.72300	6015
5.72367	6013
5.72433	6011
5.72500	6009
5.72567	6007
5.72633	6005
5.72700	6003
5.72767	6001
5.72833	5999
5.72900	5998
5.72967	5996
5.73033	5994
5.73100	5992
5.73167	5990
5.73233	5988
5.73300	5986
5.73367	5985
5.73433	5983
5.73500	5981
5.73567	5980
5.73633	5978
5.73700	5977
5.73767	5975
5.73833	5974
5.73900	5972
5.73967	5971
5.74033	5969
5.74100	5968
5.74167	5966
5.74233	5965
5.74300	5963
5.74367	5962
5.74433	5961
5.74500	5959
5.74567	5958
5.74633	5956
5.74700	5955
5.74767	5954
5.74833	5952
5.74900	5951
5.74967	5949
5.75033	5948
5.75100	5947
5.75167	5945
5.75233	5944
5.75300	5943
5.75367	5941
5.75433	5940
5.75500	5939
5.75567	5937
5.75633	5936
5.75700	5934
5.75767	5933
5.75833	5932
5.75900	5930
5.75967	5929
5.76033	5928
5.76100	5926
5.76167	5925
5.76233	5924
5.76300	5922
5.76367	5921
5.76433	5920
5.76500	5919
5.76567	5917
5.76633	5916
5.76700	5915
5.76767	5914
5.76833	5913
5.76900	5912
5.76967	5910
5.77033	5909
5.77100	5908
5.77167	5907
5.77233	5906
5.77300	5905
5.77367	5904
5.77433	5903
5.77500	5902
5.77567	5901
5.77633	5900
5.77700	5899
5.77767	5898
5.77833	5897
5.77900	5896
5.77967	5895
5.78033	5894
5.78100	5893
5.78167	5892
5.78233	5891
5.78300	5890
5.78367	5889
5.78433	5888
5.78500	5887
5.78567	5886
5.78633	5886
5.78700	5885
5.78767	5884
5.78833	5883
5.78900	5882
5.78967	5881
5.79033	5881
5.79100	5880
5.79167	5879
5.79233	5878
5.79300	5878
5.79367	5877
5.79433	5876
5.79500	5876
5.79567	5875
5.79633	5874
5.79700	5874
5.79767	5873
5.79833	5872
5.79900	5872
5.79967	5871
5.80033	5870
5.80100	5870
5.80167	5869
5.80233	5869
5.80300	5868
5.80367	5868
5.80433	5867
5.80500	5867
5.80567	5866
5.80633	5866
5.80700	5865
5.80767	5865
5.80833	5864
5.80900	5864
5.80967	5864
5.81033	5863
5.81100	5863
5.81167	5862
5.81233	5862
5.81300	5861
5.81367	5861
5.81433	5860
5.81500	5860
5.81567	5859
5.81633	5858
5.81700	5858
5.81767	5857
5.81833	5856
5.81900	5856
5.81967	5855
5.82033	5854
5.82100	5854
5.82167	5853
5.82233	5852
5.82300	5852
5.82367	5851
5.82433	5850
5.82500	5850
5.82567	5849
5.82633	5848
5.82700	5847
5.82767	5847
5.82833	5846
5.82900	5845
5.82967	5844
5.83033	5844
5.83100	5843
5.83167	5842
5.83233	5842
5.83300	5841
5.83367	5840
5.83433	5840
5.83500	5839
5.83567	5838
5.83633	5837
5.83700	5836
5.83767	5835
5.83833	5835
5.83900	5834
5.83967	5833
5.84033	5832
5.84100	5831
5.84167	5831
5.84233	5830
5.84300	5829
5.84367	5828
5.84433	5827
5.84500	5826
5.84567	5825
5.84633	5825
5.84700	5824
5.84767	5823
5.84833	5822
5.84900	5821
5.84967	5821
5.85033	5820
5.85100	5819
5.85167	5818
5.85233	5817
5.85300	5817
5.85367	5816
5.85433	5815
5.85500	5814
5.85567	5813
5.85633	5813
5.85700	5812
5.85767	5811
5.85833	5810
5.85900	5809
5.85967	5808
5.86033	5807
5.86100	5807
5.86167	5806
5.86233	5805
5.86300	5804
5.86367	5803
5.86433	5802
5.86500	5801
5.86567	5800
5.86633	5799
5.86700	5798
5.86767	5797
5.86833	5796
5.86900	5796
5.86967	5795
5.87033	5794
5.87100	5793
5.87167	5792
5.87233	5791
5.87300	5790
5.87367	5789
5.87433	5788
5.87500	5787
5.87567	5786
5.87633	5785
5.87700	5784
5.87767	5783
5.87833	5781
5.87900	5780
5.87967	5779
5.88033	5778
5.88100	5777
5.88167	5775
5.88233	5774
5.88300	5773
5.88367	5771
5.88433	5770
5.88500	5768
5.88567	5767
5.88633	5765
5.88700	5764
5.88767	5762
5.88833	5761
5.88900	5759
5.88967	5758
5.89033	5756
5.89100	5754
5.89167	5753
5.89233	5751
5.89300	5750
5.89367	5748
5.89433	5747
5.89500	5745
5.89567	5744
5.89633	5742
5.89700	5741
5.89767	5739
5.89833	5738
5.89900	5736
5.89967	5735
5.90033	5733
5.90100	5732
5.90167	5730
5.90233	5729
5.90300	5727
5.90367	5725
5.90433	5724
5.90500	5722
5.90567	5721
5.90633	5719
5.90700	5718
5.90767	5716
5.90833	5714
5.90900	5713
5.90967	5711
5.91033	5710
5.91100	5708
5.91167	5706
5.91233	5705
5.91300	5703
5.91367	5702
5.91433	5700
5.91500	5698
5.91567	5697
5.91633	5695
5.91700	5694
5.91767	5692
5.91833	5690
5.91900	5689
5.91967	5687
5.92033	5686
5.92100	5684
5.92167	5682
5.92233	5681
5.92300	5679
5.92367	5678
5.92433	5676
5.92500	5675
5.92567	5673
5.92633	5672
5.92700	5670
5.92767	5669
5.92833	5667
5.92900	5665
5.92967	5664
5.93033	5662
5.93100	5661
5.93167	5659
5.93233	5658
5.93300	5656
5.93367	5655
5.93433	5653
5.93500	5652
5.93567	5650
5.93633	5649
5.93700	5647
5.93767	5646
5.93833	5644
5.93900	5643
5.93967	5642
5.94033	5640
5.94100	5639
5.94167	5637
5.94233	5636
5.94300	5634
5.94367	5633
5.94433	5631
5.94500	5630
5.94567	5628
5.94633	5627
5.94700	5626
5.94767	5625
5.94833	5623
5.94900	5622
5.94967	5621
5.95033	5620
5.95100	5618
5.95167	5617
5.95233	5616
5.95300	5615
5.95367	5614
5.95433	5613
5.95500	5612
5.95567	5611
5.95633	5610
5.95700	5609
5.95767	5608
5.95833	5607
5.95900	5606
5.95967	5605
5.96033	5604
5.96100	5603
5.96167	5602
5.96233	5601
5.96300	5600
5.96367	5599
5.96433	5598
5.96500	5597
5.96567	5596
5.96633	5595
5.96700	5595
5.96767	5594
5.96833	5593
5.96900	5592
5.96967	5591
5.97033	5590
5.97100	5589
5.97167	5588
5.97233	5587
5.97300	5587
5.97367	5586
5.97433	5585
5.97500	5584
5.97567	5584
5.97633	5583
5.97700	5582
5.97767	5581
5.97833	5580
5.97900	5580
5.97967	5579
5.98033	5578
5.98100	5577
5.98167	5576
5.98233	5575
5.98300	5574
5.98367	5574
5.98433	5573
5.98500	5572
5.98567	5571
5.98633	5570
5.98700	5569
5.98767	5568
5.98833	5568
5.98900	5567
5.98967	5566
5.99033	5565
5.99100	5564
5.99167	5563
5.99233	5563
5.99300	5562
5.99367	5561
5.99433	5560
5.99500	5560
5.99567	5559
5.99633	5558
5.99700	5557
5.99767	5557
5.99833	5556
5.99900	5555
5.99967	5555
6.00033	5554
6.00100	5553
6.00167	5552
6.00233	5552
6.00300	5551
6.00367	5550
6.00433	5550
6.00500	5549
6.00567	5548
6.00633	5548
6.00700	5547
6.00767	5546
6.00833	5546
6.00900	5545
6.00967	5544
6.01033	5544
6.01100	5543
6.01167	5542
6.01233	5542
6.01300	5541
6.01367	5540
6.01433	5540
6.01500	5539
6.01567	5538
6.01633	5537
6.01700	5537
6.01767	5536
6.01833	5535
6.01900	5534
6.01967	5534
6.02033	5533
6.02100	5532
6.02167	5532
6.02233	5531
6.02300	5530
6.02367	5530
6.02433	5529
6.02500	5529
6.02567	5528
6.02633	5527
6.02700	5527
6.02767	5526
6.02833	5525
6.02900	5525
6.02967	5524
6.03033	5523
6.03100	5522
6.03167	5521
6.03233	5521
6.03300	5520
6.03367	5519
6.03433	5518
6.03500	5517
6.03567	5516
6.03633	5515
6.03700	5514
6.03767	5514
6.03833	5513
6.03900	5512
6.03967	5511
6.04033	5510
6.04100	5509
6.04167	5509
6.04233	5508
6.04300	5507
6.04367	5506
6.04433	5505
6.04500	5505
6.04567	5504
6.04633	5503
6.04700	5502
6.04767	5502
6.04833	5501
6.04900	5500
6.04967	5500
6.05033	5499
6.05100	5498
6.05167	5497
6.05233	5497
6.05300	5496
6.05367	5495
6.05433	5495
6.05500	5494
6.05567	5493
6.05633	5492
6.05700	5492
6.05767	5491
6.05833	5490
6.05900	5489
6.05967	5489
6.06033	5488
6.06100	5487
6.06167	5486
6.06233	5486
6.06300	5485
6.06367	5484
6.06433	5484
6.06500	5483
6.06567	5482
6.06633	5481
6.06700	5481
6.06767	5480
6.06833	5479
6.06900	5478
6.06967	5477
6.07033	5476
6.07100	5476
6.07167	5475
6.07233	5474
6.07300	5473
6.07367	5472
6.07433	5471
6.07500	5470
6.07567	5469
6.07633	5468
6.07700	5467
6.07767	5466
6.07833	5465
6.07900	5464
6.07967	5463
6.08033	5462
6.08100	5461
6.08167	5460
6.08233	5459
6.08300	5459
6.08367	5458
6.08433	5457
6.08500	5456
6.08567	5455
6.08633	5454
6.08700	5453
6.08767	5453
6.08833	5452
6.08900	5451
6.08967	5450
6.09033	5449
6.09100	5448
6.09167	5447
6.09233	5447
6.09300	5446
6.09367	5445
6.09433	5444
6.09500	5443
6.09567	5442
6.09633	5441
6.09700	5441
6.09767	5440
6.09833	5439
6.09900	5438
6.09967	5437
6.10033	5436
6.10100	5435
6.10167	5434
6.10233	5433
6.10300	5433
6.10367	5432
6.10433	5431
6.10500	5430
6.10567	5429
6.10633	5429
6.10700	5428
6.10767	5427
6.10833	5427
6.10900	5426
6.10967	5425
6.11033	5424
6.11100	5424
6.11167	5423
6.11233	5422
6.11300	5421
6.11367	5421
6.11433	5420
6.11500	5419
6.11567	5418
6.11633	5418
6.11700	5417
6.11767	5416
6.11833	5415
6.11900	5415
6.11967	5414
6.12033	5413
6.12100	5412
6.12167	5412
6.12233	5411
6.12300	5410
6.12367	5409
6.12433	5409
6.12500	5408
6.12567	5407
6.12633	5406
6.12700	5405
6.12767	5405
6.12833	5404
6.12900	5403
6.12967	5402
6.13033	5401
6.13100	5401
6.13167	5400
6.13233	5399
6.13300	5398
6.13367	5397
6.13433	5397
6.13500	5396
6.13567	5395
6.13633	5394
6.13700	5393
6.13767	5392
6.13833	5392
6.13900	5391
6.13967	5390
6.14033	5389
6.14100	5388
6.14167	5387
6.14233	5387
6.14300	5386
6.14367	5385
6.14433	5384
6.14500	5383
6.14567	5382
6.14633	5381
6.14700	5381
6.14767	5380
6.14833	5379
6.14900	5378
6.14967	5378
6.15033	5377
6.15100	5376
6.15167	5375
6.15233	5375
6.15300	5374
6.15367	5373
6.15433	5373
6.15500	5372
6.15567	5371
6.15633	5370
6.15700	5370
6.15767	5369
6.15833	5368
6.15900	5367
6.15967	5367
6.16033	5366
6.16100	5365
6.16167	5364
6.16233	5364
6.16300	5363
6.16367	5362
6.16433	5362
6.16500	5361
6.16567	5360
6.16633	5360
6.16700	5359
6.16767	5358
6.16833	5358
6.16900	5357
6.16967	5357
6.17033	5356
6.17100	5355
6.17167	5355
6.17233	5354
6.17300	5354
6.17367	5353
6.17433	5353
6.17500	5352
6.17567	5352
6.17633	5351
6.17700	5351
6.17767	5351
6.17833	5350
6.17900	5350
6.17967	5349
6.18033	5349
6.18100	5348
6.18167	5348
6.18233	5347
6.18300	5347
6.18367	5347
6.18433	5346
6.18500	5346
6.18567	5345
6.18633	5345
6.18700	5344
6.18767	5344
6.18833	5344
6.18900	5343
6.18967	5343
6.19033	5343
6.19100	5343
6.19167	5342
6.19233	5342
6.19300	5342
6.19367	5342
6.19433	5342
6.19500	5341
6.19567	5341
6.19633	5341
6.19700	5341
6.19767	5341
6.19833	5341
6.19900	5341
6.19967	5341
6.20033	5341
6.20100	5341
6.20167	5341
6.20233	5341
6.20300	5341
6.20367	5341
6.20433	5341
6.20500	5341
6.20567	5341
6.20633	5341
6.20700	5341
6.20767	5341
6.20833	5341
6.20900	5341
6.20967	5341
6.21033	5341
6.21100	5341
6.21167	5341
6.21233	5341
6.21300	5341
6.21367	5341
6.21433	5342
6.21500	5342
6.21567	5342
6.21633	5342
6.21700	5342
6.21767	5342
6.21833	5343
6.21900	5343
6.21967	5343
6.22033	5343
6.22100	5344
6.22167	5344
6.22233	5344
6.22300	5345
6.22367	5345
6.22433	5345
6.22500	5346
6.22567	5346
6.22633	5346
6.22700	5347
6.22767	5347
6.22833	5347
6.22900	5348
6.22967	5348
6.23033	5349
6.23100	5349
6.23167	5349
6.23233	5350
6.23300	5350
6.23367	5351
6.23433	5351
6.23500	5352
6.23567	5352
6.23633	5352
6.23700	5353
6.23767	5353
6.23833	5353
6.23900	5354
6.23967	5354
6.24033	5354
6.24100	5355
6.24167	5355
6.24233	5355
6.24300	5355
6.24367	5355
6.24433	5356
6.24500	5356
6.24567	5356
6.24633	5356
6.24700	5356
6.24767	5356
6.24833	5357
6.24900	5357
6.24967	5357
6.25033	5357
6.25100	5358
6.25167	5358
6.25233	5358
6.25300	5359
6.25367	5359
6.25433	5359
6.25500	5359
6.25567	5360
6.25633	5360
6.25700	5360
6.25767	5360
6.25833	5360
6.25900	5360
6.25967	5360
6.26033	5361
6.26100	5361
6.26167	5361
6.26233	5361
6.26300	5361
6.26367	5361
6.26433	5361
6.26500	5361
6.26567	5361
6.26633	5361
6.26700	5361
6.26767	5361
6.26833	5361
6.26900	5361
6.26967	5361
6.27033	5361
6.27100	5361
6.27167	5361
6.27233	5361
6.27300	5361
6.27367	5361
6.27433	5361
6.27500	5361
6.27567	5361
6.27633	5361
6.27700	5361
6.27767	5361
6.27833	5360
6.27900	5360
6.27967	5360
6.28033	5360
6.28100	5360
6.28167	5359
6.28233	5359
6.28300	5359
6.28367	5359
6.28433	5359
6.28500	5358
6.28567	5358
6.28633	5358
6.28700	5358
6.28767	5358
6.28833	5357
6.28900	5357
6.28967	5357
6.29033	5357
6.29100	5357
6.29167	5356
6.29233	5356
6.29300	5356
6.29367	5356
6.29433	5356
6.29500	5355
6.29567	5355
6.29633	5355
6.29700	5355
6.29767	5354
6.29833	5354
6.29900	5354
6.29967	5353
6.30033	5353
6.30100	5353
6.30167	5352
6.30233	5352
6.30300	5352
6.30367	5351
6.30433	5351
6.30500	5350
6.30567	5350
6.30633	5349
6.30700	5349
6.30767	5348
6.30833	5348
6.30900	5348
6.30967	5347
6.31033	5346
6.31100	5346
6.31167	5345
6.31233	5345
6.31300	5344
6.31367	5344
6.31433	5343
6.31500	5343
6.31567	5342
6.31633	5341
6.31700	5341
6.31767	5340
6.31833	5339
6.31900	5339
6.31967	5338
6.32033	5337
6.32100	5336
6.32167	5336
6.32233	5335
6.32300	5334
6.32367	5333
6.32433	5333
6.32500	5332
6.32567	5332
6.32633	5331
6.32700	5331
6.32767	5330
6.32833	5329
6.32900	5329
6.32967	5328
6.33033	5328
6.33100	5327
6.33167	5326
6.33233	5326
6.33300	5325
6.33367	5324
6.33433	5324
6.33500	5323
6.33567	5322
6.33633	5322
6.33700	5321
6.33767	5320
6.33833	5320
6.33900	5319
6.33967	5318
6.34033	5318
6.34100	5317
6.34167	5316
6.34233	5316
6.34300	5315
6.34367	5314
6.34433	5314
6.34500	5313
6.34567	5312
6.34633	5312
6.34700	5311
6.34767	5311
6.34833	5310
6.34900	5309
6.34967	5309
6.35033	5308
6.35100	5308
6.35167	5307
6.35233	5307
6.35300	5306
6.35367	5306
6.35433	5305
6.35500	5305
6.35567	5304
6.35633	5304
6.35700	5303
6.35767	5303
6.35833	5302
6.35900	5302
6.35967	5301
6.36033	5301
6.36100	5300
6.36167	5300
6.36233	5299
6.36300	5299
6.36367	5298
6.36433	5298
6.36500	5297
6.36567	5296
6.36633	5296
6.36700	5295
6.36767	5295
6.36833	5294
6.36900	5293
6.36967	5293
6.37033	5292
6.37100	5292
6.37167	5291
6.37233	5291
6.37300	5290
6.37367	5290
6.37433	5289
6.37500	5289
6.37567	5288
6.37633	5288
6.37700	5287
6.37767	5287
6.37833	5286
6.37900	5286
6.37967	5285
6.38033	5285
6.38100	5285
6.38167	5284
6.38233	5284
6.38300	5283
6.38367	5283
6.38433	5283
6.38500	5282
6.38567	5282
6.38633	5281
6.38700	5281
6.38767	5281
6.38833	5280
6.38900	5280
6.38967	5280
6.39033	5279
6.39100	5279
6.39167	5279
6.39233	5278
6.39300	5278
6.39367	5278
6.39433	5277
6.39500	5277
6.39567	5277
6.39633	5276
6.39700	5276
6.39767	5275
6.39833	5274
6.39900	5274
6.39967	5274

