[Header]
Application Name	LabSolutions
Version	5.73
Data File Name	C:\LabSolutions\Data\Project1\stephen\2016-01-06\44.gcd
Output Date	1/11/2016
Output Time	1:19:48 PM

[Configuration]
Instrument Name	WEISSTA-PC-Instrument1
Instrument #	1
Line #	1
# of Detectors	1
Detector ID	DET#2
Detector Name	DFID1
# of Channels	1

[Chromatogram (Ch1)]
Interval(msec)	40
# of Points	9599
Start Time(min)	0.001
End Time(min)	6.399
R.Time (min)	Intensity
0.00067	12
0.00133	12
0.00200	12
0.00267	12
0.00333	12
0.00400	12
0.00467	12
0.00533	12
0.00600	12
0.00667	12
0.00733	12
0.00800	11
0.00867	11
0.00933	10
0.01000	9
0.01067	8
0.01133	6
0.01200	4
0.01267	1
0.01333	-1
0.01400	-5
0.01467	-8
0.01533	-12
0.01600	-17
0.01667	-22
0.01733	-27
0.01800	-33
0.01867	-39
0.01933	-45
0.02000	-51
0.02067	-58
0.02133	-65
0.02200	-72
0.02267	-78
0.02333	-85
0.02400	-92
0.02467	-98
0.02533	-105
0.02600	-111
0.02667	-117
0.02733	-123
0.02800	-129
0.02867	-134
0.02933	-139
0.03000	-144
0.03067	-149
0.03133	-153
0.03200	-157
0.03267	-161
0.03333	-164
0.03400	-167
0.03467	-170
0.03533	-173
0.03600	-176
0.03667	-178
0.03733	-180
0.03800	-182
0.03867	-183
0.03933	-185
0.04000	-186
0.04067	-187
0.04133	-188
0.04200	-189
0.04267	-190
0.04333	-190
0.04400	-190
0.04467	-191
0.04533	-191
0.04600	-191
0.04667	-191
0.04733	-191
0.04800	-191
0.04867	-191
0.04933	-190
0.05000	-190
0.05067	-190
0.05133	-189
0.05200	-189
0.05267	-188
0.05333	-188
0.05400	-187
0.05467	-187
0.05533	-186
0.05600	-186
0.05667	-185
0.05733	-184
0.05800	-184
0.05867	-183
0.05933	-183
0.06000	-182
0.06067	-182
0.06133	-181
0.06200	-180
0.06267	-180
0.06333	-179
0.06400	-179
0.06467	-178
0.06533	-177
0.06600	-177
0.06667	-176
0.06733	-176
0.06800	-175
0.06867	-174
0.06933	-174
0.07000	-173
0.07067	-173
0.07133	-172
0.07200	-172
0.07267	-171
0.07333	-170
0.07400	-170
0.07467	-169
0.07533	-169
0.07600	-168
0.07667	-167
0.07733	-167
0.07800	-166
0.07867	-165
0.07933	-165
0.08000	-164
0.08067	-163
0.08133	-163
0.08200	-162
0.08267	-161
0.08333	-161
0.08400	-160
0.08467	-159
0.08533	-159
0.08600	-158
0.08667	-157
0.08733	-157
0.08800	-156
0.08867	-156
0.08933	-155
0.09000	-154
0.09067	-153
0.09133	-150
0.09200	-147
0.09267	-144
0.09333	-140
0.09400	-136
0.09467	-132
0.09533	-126
0.09600	-120
0.09667	-113
0.09733	-106
0.09800	-96
0.09867	-81
0.09933	-65
0.10000	-43
0.10067	-18
0.10133	9
0.10200	38
0.10267	69
0.10333	103
0.10400	140
0.10467	178
0.10533	218
0.10600	260
0.10667	312
0.10733	375
0.10800	438
0.10867	505
0.10933	574
0.11000	647
0.11067	722
0.11133	800
0.11200	878
0.11267	955
0.11333	1033
0.11400	1108
0.11467	1178
0.11533	1253
0.11600	1331
0.11667	1405
0.11733	1474
0.11800	1541
0.11867	1602
0.11933	1664
0.12000	1725
0.12067	1781
0.12133	1837
0.12200	1903
0.12267	1968
0.12333	2028
0.12400	2088
0.12467	2178
0.12533	2279
0.12600	2374
0.12667	2472
0.12733	2571
0.12800	2668
0.12867	2757
0.12933	2838
0.13000	2927
0.13067	3018
0.13133	3100
0.13200	3173
0.13267	3237
0.13333	3293
0.13400	3348
0.13467	3428
0.13533	3650
0.13600	4379
0.13667	6460
0.13733	11647
0.13800	22924
0.13867	45103
0.13933	85019
0.14000	152517
0.14067	260588
0.14133	426048
0.14200	668462
0.14267	1009400
0.14333	1470526
0.14400	2073010
0.14467	2836212
0.14533	3778334
0.14600	4914965
0.14667	6258796
0.14733	7818894
0.14800	9600975
0.14867	11608421
0.14933	13842627
0.15000	16304252
0.15067	18989441
0.15133	21882786
0.15200	24965336
0.15267	28240183
0.15333	31724693
0.15400	35428198
0.15467	39345437
0.15533	43461580
0.15600	47756015
0.15667	52205284
0.15733	56785207
0.15800	61472138
0.15867	66243086
0.15933	71075782
0.16000	75948652
0.16067	80840898
0.16133	85732192
0.16200	90602995
0.16267	95434494
0.16333	100208561
0.16400	104907661
0.16467	109515437
0.16533	114016031
0.16600	118394810
0.16667	122638292
0.16733	126735347
0.16800	130676092
0.16867	134452519
0.16933	138057814
0.17000	141487081
0.17067	144736465
0.17133	147803402
0.17200	150686011
0.17267	153383388
0.17333	155895253
0.17400	158222413
0.17467	160365714
0.17533	162326427
0.17600	164106264
0.17667	165708024
0.17733	167136010
0.17800	168394747
0.17867	169487879
0.17933	170418090
0.18000	171188023
0.18067	171800393
0.18133	172258502
0.18200	172565983
0.18267	172727022
0.18333	172745924
0.18400	172627355
0.18467	172376000
0.18533	171996840
0.18600	171494797
0.18667	170874896
0.18733	170142066
0.18800	169301319
0.18867	168357583
0.18933	167315779
0.19000	166180783
0.19067	164957504
0.19133	163650626
0.19200	162264815
0.19267	160804734
0.19333	159275015
0.19400	157680263
0.19467	156025017
0.19533	154313805
0.19600	152551022
0.19667	150740969
0.19733	148887764
0.19800	146995390
0.19867	145067657
0.19933	143108282
0.20000	141120791
0.20067	139108605
0.20133	137074985
0.20200	135023092
0.20267	132955918
0.20333	130876347
0.20400	128787125
0.20467	126690916
0.20533	124590279
0.20600	122487724
0.20667	120385783
0.20733	118287053
0.20800	116193998
0.20867	114108667
0.20933	112032629
0.21000	109967093
0.21067	107913112
0.21133	105871674
0.21200	103843780
0.21267	101830417
0.21333	99832590
0.21400	97851274
0.21467	95887431
0.21533	93941971
0.21600	92015781
0.21667	90109687
0.21733	88224471
0.21800	86360856
0.21867	84519517
0.21933	82701065
0.22000	80906062
0.22067	79135014
0.22133	77388377
0.22200	75666557
0.22267	73969911
0.22333	72298753
0.22400	70653350
0.22467	69033927
0.22533	67440662
0.22600	65873698
0.22667	64333139
0.22733	62819061
0.22800	61331501
0.22867	59870469
0.22933	58435943
0.23000	57027873
0.23067	55646180
0.23133	54290764
0.23200	52961499
0.23267	51658240
0.23333	50380821
0.23400	49129055
0.23467	47902736
0.23533	46701643
0.23600	45525538
0.23667	44374170
0.23733	43247273
0.23800	42144566
0.23867	41065762
0.23933	40010561
0.24000	38978655
0.24067	37969730
0.24133	36983461
0.24200	36019516
0.24267	35077560
0.24333	34157251
0.24400	33258246
0.24467	32380200
0.24533	31522763
0.24600	30685584
0.24667	29868313
0.24733	29070600
0.24800	28292095
0.24867	27532448
0.24933	26791312
0.25000	26068340
0.25067	25363187
0.25133	24675508
0.25200	24004962
0.25267	23351209
0.25333	22713909
0.25400	22092728
0.25467	21487334
0.25533	20897399
0.25600	20322595
0.25667	19762601
0.25733	19217096
0.25800	18685764
0.25867	18168292
0.25933	17664373
0.26000	17173700
0.26067	16695973
0.26133	16230895
0.26200	15778173
0.26267	15337522
0.26333	14908659
0.26400	14491308
0.26467	14085195
0.26533	13690055
0.26600	13305624
0.26667	12931644
0.26733	12567861
0.26800	12214025
0.26867	11869892
0.26933	11535224
0.27000	11209785
0.27067	10893347
0.27133	10585683
0.27200	10286574
0.27267	9995803
0.27333	9713159
0.27400	9438433
0.27467	9171425
0.27533	8911935
0.27600	8659771
0.27667	8414742
0.27733	8176662
0.27800	7945350
0.27867	7720627
0.27933	7502321
0.28000	7290259
0.28067	7084276
0.28133	6884209
0.28200	6689899
0.28267	6501192
0.28333	6317935
0.28400	6139981
0.28467	5967186
0.28533	5799410
0.28600	5636513
0.28667	5478363
0.28733	5324827
0.28800	5175779
0.28867	5031093
0.28933	4890648
0.29000	4754325
0.29067	4622009
0.29133	4493587
0.29200	4368950
0.29267	4247991
0.29333	4130605
0.29400	4016693
0.29467	3906156
0.29533	3798898
0.29600	3694826
0.29667	3593849
0.29733	3495879
0.29800	3400829
0.29867	3308615
0.29933	3219156
0.30000	3132370
0.30067	3048182
0.30133	2966513
0.30200	2887292
0.30267	2810445
0.30333	2735904
0.30400	2663599
0.30467	2593465
0.30533	2525437
0.30600	2459454
0.30667	2395454
0.30733	2333378
0.30800	2273170
0.30867	2214775
0.30933	2158137
0.31000	2103204
0.31067	2049926
0.31133	1998254
0.31200	1948140
0.31267	1899539
0.31333	1852404
0.31400	1806693
0.31467	1762362
0.31533	1719369
0.31600	1677676
0.31667	1637244
0.31733	1598033
0.31800	1560008
0.31867	1523135
0.31933	1487378
0.32000	1452705
0.32067	1419083
0.32133	1386482
0.32200	1354871
0.32267	1324221
0.32333	1294505
0.32400	1265695
0.32467	1237767
0.32533	1210694
0.32600	1184455
0.32667	1159024
0.32733	1134381
0.32800	1110503
0.32867	1087369
0.32933	1064962
0.33000	1043261
0.33067	1022249
0.33133	1001909
0.33200	982225
0.33267	963182
0.33333	944766
0.33400	926963
0.33467	909762
0.33533	893149
0.33600	877115
0.33667	861647
0.33733	846736
0.33800	832370
0.33867	818541
0.33933	805237
0.34000	792448
0.34067	780166
0.34133	768379
0.34200	757081
0.34267	746262
0.34333	735915
0.34400	726034
0.34467	716611
0.34533	707643
0.34600	699125
0.34667	691054
0.34733	683427
0.34800	676238
0.34867	669484
0.34933	663162
0.35000	657268
0.35067	651801
0.35133	646759
0.35200	642147
0.35267	637970
0.35333	634240
0.35400	630971
0.35467	628177
0.35533	625873
0.35600	624071
0.35667	622780
0.35733	622004
0.35800	621739
0.35867	621981
0.35933	622717
0.36000	623936
0.36067	625619
0.36133	627746
0.36200	630296
0.36267	633245
0.36333	636569
0.36400	640241
0.36467	644237
0.36533	648530
0.36600	653094
0.36667	657904
0.36733	662936
0.36800	668165
0.36867	673569
0.36933	679126
0.37000	684812
0.37067	690608
0.37133	696494
0.37200	702451
0.37267	708463
0.37333	714517
0.37400	720601
0.37467	726703
0.37533	732814
0.37600	738928
0.37667	745040
0.37733	751151
0.37800	757258
0.37867	763363
0.37933	769465
0.38000	775565
0.38067	781657
0.38133	787738
0.38200	793800
0.38267	799833
0.38333	805828
0.38400	811773
0.38467	817657
0.38533	823470
0.38600	829204
0.38667	834850
0.38733	840403
0.38800	845858
0.38867	851209
0.38933	856453
0.39000	861588
0.39067	866610
0.39133	871517
0.39200	876306
0.39267	880975
0.39333	885520
0.39400	889936
0.39467	894221
0.39533	898365
0.39600	902359
0.39667	906191
0.39733	909847
0.39800	913314
0.39867	916578
0.39933	919625
0.40000	922439
0.40067	925006
0.40133	927311
0.40200	929338
0.40267	931068
0.40333	932482
0.40400	933560
0.40467	934280
0.40533	934620
0.40600	934557
0.40667	934069
0.40733	933134
0.40800	931732
0.40867	929846
0.40933	927459
0.41000	924558
0.41067	921133
0.41133	917178
0.41200	912691
0.41267	907673
0.41333	902131
0.41400	896078
0.41467	889528
0.41533	882500
0.41600	875015
0.41667	867098
0.41733	858774
0.41800	850071
0.41867	841016
0.41933	831638
0.42000	821963
0.42067	812021
0.42133	801837
0.42200	791439
0.42267	780850
0.42333	770096
0.42400	759200
0.42467	748184
0.42533	737068
0.42600	725873
0.42667	714619
0.42733	703323
0.42800	692001
0.42867	680671
0.42933	669346
0.43000	658041
0.43067	646768
0.43133	635541
0.43200	624369
0.43267	613264
0.43333	602234
0.43400	591289
0.43467	580437
0.43533	569684
0.43600	559039
0.43667	548506
0.43733	538091
0.43800	527799
0.43867	517635
0.43933	507604
0.44000	497708
0.44067	487952
0.44133	478338
0.44200	468869
0.44267	459547
0.44333	450374
0.44400	441351
0.44467	432479
0.44533	423758
0.44600	415188
0.44667	406770
0.44733	398504
0.44800	390389
0.44867	382425
0.44933	374613
0.45000	366952
0.45067	359443
0.45133	352084
0.45200	344876
0.45267	337816
0.45333	330906
0.45400	324143
0.45467	317527
0.45533	311056
0.45600	304728
0.45667	298543
0.45733	292498
0.45800	286593
0.45867	280824
0.45933	275191
0.46000	269693
0.46067	264326
0.46133	259091
0.46200	253985
0.46267	249006
0.46333	244154
0.46400	239427
0.46467	234824
0.46533	230344
0.46600	225985
0.46667	221748
0.46733	217630
0.46800	213632
0.46867	209753
0.46933	205991
0.47000	202343
0.47067	198808
0.47133	195381
0.47200	192060
0.47267	188840
0.47333	185721
0.47400	182698
0.47467	179769
0.47533	176930
0.47600	174180
0.47667	171514
0.47733	168931
0.47800	166427
0.47867	163999
0.47933	161646
0.48000	159364
0.48067	157150
0.48133	155004
0.48200	152921
0.48267	150900
0.48333	148938
0.48400	147035
0.48467	145186
0.48533	143391
0.48600	141648
0.48667	139955
0.48733	138309
0.48800	136710
0.48867	135156
0.48933	133645
0.49000	132175
0.49067	130745
0.49133	129353
0.49200	127999
0.49267	126679
0.49333	125395
0.49400	124142
0.49467	122921
0.49533	121731
0.49600	120569
0.49667	119435
0.49733	118328
0.49800	117246
0.49867	116189
0.49933	115155
0.50000	114144
0.50067	113154
0.50133	112185
0.50200	111237
0.50267	110307
0.50333	109397
0.50400	108504
0.50467	107628
0.50533	106769
0.50600	105926
0.50667	105099
0.50733	104286
0.50800	103487
0.50867	102702
0.50933	101930
0.51000	101171
0.51067	100424
0.51133	99688
0.51200	98964
0.51267	98251
0.51333	97549
0.51400	96856
0.51467	96173
0.51533	95500
0.51600	94836
0.51667	94180
0.51733	93533
0.51800	92894
0.51867	92263
0.51933	91640
0.52000	91024
0.52067	90415
0.52133	89814
0.52200	89219
0.52267	88631
0.52333	88049
0.52400	87473
0.52467	86903
0.52533	86339
0.52600	85781
0.52667	85228
0.52733	84680
0.52800	84138
0.52867	83601
0.52933	83069
0.53000	82542
0.53067	82019
0.53133	81501
0.53200	80988
0.53267	80480
0.53333	79975
0.53400	79475
0.53467	78980
0.53533	78488
0.53600	78000
0.53667	77517
0.53733	77037
0.53800	76561
0.53867	76089
0.53933	75621
0.54000	75157
0.54067	74697
0.54133	74240
0.54200	73787
0.54267	73337
0.54333	72891
0.54400	72449
0.54467	72011
0.54533	71576
0.54600	71145
0.54667	70718
0.54733	70295
0.54800	69875
0.54867	69460
0.54933	69049
0.55000	68642
0.55067	68240
0.55133	67842
0.55200	67449
0.55267	67061
0.55333	66678
0.55400	66300
0.55467	65928
0.55533	65561
0.55600	65199
0.55667	64843
0.55733	64492
0.55800	64146
0.55867	63805
0.55933	63469
0.56000	63137
0.56067	62810
0.56133	62487
0.56200	62168
0.56267	61853
0.56333	61540
0.56400	61231
0.56467	60925
0.56533	60620
0.56600	60318
0.56667	60018
0.56733	59719
0.56800	59422
0.56867	59126
0.56933	58831
0.57000	58537
0.57067	58244
0.57133	57952
0.57200	57661
0.57267	57370
0.57333	57080
0.57400	56791
0.57467	56502
0.57533	56214
0.57600	55926
0.57667	55640
0.57733	55353
0.57800	55068
0.57867	54783
0.57933	54499
0.58000	54216
0.58067	53933
0.58133	53651
0.58200	53370
0.58267	53090
0.58333	52811
0.58400	52532
0.58467	52254
0.58533	51977
0.58600	51701
0.58667	51427
0.58733	51153
0.58800	50880
0.58867	50608
0.58933	50337
0.59000	50068
0.59067	49800
0.59133	49533
0.59200	49267
0.59267	49003
0.59333	48740
0.59400	48478
0.59467	48218
0.59533	47959
0.59600	47702
0.59667	47446
0.59733	47192
0.59800	46939
0.59867	46688
0.59933	46439
0.60000	46191
0.60067	45945
0.60133	45701
0.60200	45458
0.60267	45217
0.60333	44978
0.60400	44740
0.60467	44504
0.60533	44270
0.60600	44038
0.60667	43808
0.60733	43579
0.60800	43352
0.60867	43127
0.60933	42904
0.61000	42682
0.61067	42463
0.61133	42245
0.61200	42030
0.61267	41816
0.61333	41604
0.61400	41394
0.61467	41186
0.61533	40980
0.61600	40775
0.61667	40573
0.61733	40373
0.61800	40174
0.61867	39978
0.61933	39783
0.62000	39590
0.62067	39399
0.62133	39210
0.62200	39023
0.62267	38837
0.62333	38653
0.62400	38471
0.62467	38290
0.62533	38111
0.62600	37934
0.62667	37758
0.62733	37583
0.62800	37410
0.62867	37239
0.62933	37069
0.63000	36900
0.63067	36733
0.63133	36567
0.63200	36402
0.63267	36239
0.63333	36077
0.63400	35917
0.63467	35758
0.63533	35600
0.63600	35443
0.63667	35288
0.63733	35134
0.63800	34982
0.63867	34831
0.63933	34681
0.64000	34532
0.64067	34385
0.64133	34240
0.64200	34096
0.64267	33953
0.64333	33812
0.64400	33672
0.64467	33533
0.64533	33396
0.64600	33261
0.64667	33126
0.64733	32993
0.64800	32862
0.64867	32731
0.64933	32602
0.65000	32474
0.65067	32347
0.65133	32221
0.65200	32097
0.65267	31973
0.65333	31850
0.65400	31728
0.65467	31606
0.65533	31486
0.65600	31366
0.65667	31247
0.65733	31129
0.65800	31011
0.65867	30893
0.65933	30777
0.66000	30660
0.66067	30544
0.66133	30429
0.66200	30314
0.66267	30200
0.66333	30086
0.66400	29972
0.66467	29859
0.66533	29747
0.66600	29634
0.66667	29522
0.66733	29411
0.66800	29300
0.66867	29190
0.66933	29080
0.67000	28971
0.67067	28862
0.67133	28753
0.67200	28646
0.67267	28538
0.67333	28432
0.67400	28325
0.67467	28220
0.67533	28115
0.67600	28011
0.67667	27907
0.67733	27804
0.67800	27702
0.67867	27601
0.67933	27500
0.68000	27401
0.68067	27302
0.68133	27205
0.68200	27109
0.68267	27015
0.68333	26922
0.68400	26830
0.68467	26741
0.68533	26653
0.68600	26568
0.68667	26485
0.68733	26404
0.68800	26326
0.68867	26251
0.68933	26179
0.69000	26110
0.69067	26045
0.69133	25984
0.69200	25926
0.69267	25873
0.69333	25823
0.69400	25778
0.69467	25736
0.69533	25699
0.69600	25666
0.69667	25638
0.69733	25614
0.69800	25593
0.69867	25577
0.69933	25565
0.70000	25556
0.70067	25550
0.70133	25547
0.70200	25546
0.70267	25547
0.70333	25550
0.70400	25554
0.70467	25559
0.70533	25564
0.70600	25568
0.70667	25572
0.70733	25574
0.70800	25575
0.70867	25574
0.70933	25571
0.71000	25565
0.71067	25556
0.71133	25544
0.71200	25529
0.71267	25510
0.71333	25488
0.71400	25463
0.71467	25433
0.71533	25401
0.71600	25364
0.71667	25324
0.71733	25280
0.71800	25234
0.71867	25183
0.71933	25130
0.72000	25074
0.72067	25014
0.72133	24952
0.72200	24887
0.72267	24820
0.72333	24751
0.72400	24679
0.72467	24606
0.72533	24530
0.72600	24453
0.72667	24375
0.72733	24295
0.72800	24214
0.72867	24132
0.72933	24048
0.73000	23964
0.73067	23879
0.73133	23793
0.73200	23706
0.73267	23619
0.73333	23532
0.73400	23444
0.73467	23356
0.73533	23267
0.73600	23179
0.73667	23090
0.73733	23001
0.73800	22912
0.73867	22823
0.73933	22734
0.74000	22646
0.74067	22557
0.74133	22469
0.74200	22381
0.74267	22293
0.74333	22206
0.74400	22119
0.74467	22032
0.74533	21946
0.74600	21860
0.74667	21775
0.74733	21690
0.74800	21605
0.74867	21522
0.74933	21438
0.75000	21355
0.75067	21273
0.75133	21191
0.75200	21110
0.75267	21030
0.75333	20950
0.75400	20870
0.75467	20791
0.75533	20713
0.75600	20636
0.75667	20559
0.75733	20483
0.75800	20407
0.75867	20332
0.75933	20258
0.76000	20184
0.76067	20111
0.76133	20039
0.76200	19967
0.76267	19896
0.76333	19826
0.76400	19756
0.76467	19687
0.76533	19618
0.76600	19551
0.76667	19484
0.76733	19417
0.76800	19351
0.76867	19286
0.76933	19222
0.77000	19158
0.77067	19095
0.77133	19032
0.77200	18970
0.77267	18909
0.77333	18849
0.77400	18789
0.77467	18729
0.77533	18670
0.77600	18612
0.77667	18555
0.77733	18498
0.77800	18441
0.77867	18385
0.77933	18330
0.78000	18275
0.78067	18221
0.78133	18167
0.78200	18114
0.78267	18062
0.78333	18009
0.78400	17958
0.78467	17907
0.78533	17856
0.78600	17806
0.78667	17756
0.78733	17707
0.78800	17658
0.78867	17610
0.78933	17562
0.79000	17514
0.79067	17467
0.79133	17421
0.79200	17375
0.79267	17329
0.79333	17283
0.79400	17239
0.79467	17194
0.79533	17150
0.79600	17106
0.79667	17063
0.79733	17020
0.79800	16977
0.79867	16935
0.79933	16893
0.80000	16851
0.80067	16810
0.80133	16769
0.80200	16729
0.80267	16688
0.80333	16649
0.80400	16609
0.80467	16570
0.80533	16531
0.80600	16493
0.80667	16455
0.80733	16417
0.80800	16379
0.80867	16342
0.80933	16305
0.81000	16269
0.81067	16232
0.81133	16196
0.81200	16161
0.81267	16125
0.81333	16090
0.81400	16056
0.81467	16021
0.81533	15987
0.81600	15953
0.81667	15920
0.81733	15887
0.81800	15855
0.81867	15822
0.81933	15790
0.82000	15759
0.82067	15728
0.82133	15697
0.82200	15666
0.82267	15636
0.82333	15606
0.82400	15576
0.82467	15546
0.82533	15517
0.82600	15488
0.82667	15459
0.82733	15431
0.82800	15402
0.82867	15374
0.82933	15346
0.83000	15318
0.83067	15291
0.83133	15263
0.83200	15236
0.83267	15209
0.83333	15182
0.83400	15155
0.83467	15128
0.83533	15102
0.83600	15075
0.83667	15049
0.83733	15023
0.83800	14996
0.83867	14970
0.83933	14945
0.84000	14919
0.84067	14893
0.84133	14867
0.84200	14842
0.84267	14816
0.84333	14791
0.84400	14766
0.84467	14740
0.84533	14715
0.84600	14690
0.84667	14665
0.84733	14640
0.84800	14615
0.84867	14590
0.84933	14565
0.85000	14540
0.85067	14516
0.85133	14491
0.85200	14466
0.85267	14442
0.85333	14417
0.85400	14393
0.85467	14369
0.85533	14344
0.85600	14320
0.85667	14295
0.85733	14271
0.85800	14247
0.85867	14223
0.85933	14199
0.86000	14175
0.86067	14151
0.86133	14127
0.86200	14103
0.86267	14079
0.86333	14055
0.86400	14031
0.86467	14007
0.86533	13984
0.86600	13960
0.86667	13936
0.86733	13913
0.86800	13889
0.86867	13866
0.86933	13843
0.87000	13819
0.87067	13796
0.87133	13773
0.87200	13750
0.87267	13728
0.87333	13705
0.87400	13682
0.87467	13660
0.87533	13638
0.87600	13615
0.87667	13593
0.87733	13571
0.87800	13549
0.87867	13527
0.87933	13505
0.88000	13483
0.88067	13462
0.88133	13440
0.88200	13419
0.88267	13398
0.88333	13376
0.88400	13355
0.88467	13334
0.88533	13314
0.88600	13293
0.88667	13272
0.88733	13252
0.88800	13231
0.88867	13211
0.88933	13191
0.89000	13171
0.89067	13151
0.89133	13131
0.89200	13111
0.89267	13091
0.89333	13071
0.89400	13052
0.89467	13032
0.89533	13013
0.89600	12994
0.89667	12975
0.89733	12956
0.89800	12937
0.89867	12918
0.89933	12899
0.90000	12881
0.90067	12862
0.90133	12844
0.90200	12826
0.90267	12807
0.90333	12789
0.90400	12771
0.90467	12753
0.90533	12735
0.90600	12717
0.90667	12700
0.90733	12682
0.90800	12664
0.90867	12647
0.90933	12629
0.91000	12612
0.91067	12595
0.91133	12577
0.91200	12560
0.91267	12543
0.91333	12526
0.91400	12509
0.91467	12492
0.91533	12475
0.91600	12458
0.91667	12442
0.91733	12425
0.91800	12409
0.91867	12392
0.91933	12376
0.92000	12360
0.92067	12344
0.92133	12328
0.92200	12312
0.92267	12296
0.92333	12280
0.92400	12264
0.92467	12249
0.92533	12233
0.92600	12217
0.92667	12202
0.92733	12186
0.92800	12171
0.92867	12156
0.92933	12140
0.93000	12125
0.93067	12110
0.93133	12095
0.93200	12080
0.93267	12066
0.93333	12051
0.93400	12036
0.93467	12021
0.93533	12007
0.93600	11992
0.93667	11978
0.93733	11963
0.93800	11949
0.93867	11934
0.93933	11920
0.94000	11906
0.94067	11892
0.94133	11877
0.94200	11863
0.94267	11849
0.94333	11835
0.94400	11821
0.94467	11807
0.94533	11792
0.94600	11778
0.94667	11764
0.94733	11750
0.94800	11736
0.94867	11722
0.94933	11708
0.95000	11694
0.95067	11680
0.95133	11666
0.95200	11652
0.95267	11638
0.95333	11624
0.95400	11611
0.95467	11597
0.95533	11584
0.95600	11570
0.95667	11557
0.95733	11544
0.95800	11531
0.95867	11518
0.95933	11506
0.96000	11493
0.96067	11481
0.96133	11469
0.96200	11456
0.96267	11445
0.96333	11433
0.96400	11421
0.96467	11410
0.96533	11398
0.96600	11387
0.96667	11376
0.96733	11365
0.96800	11353
0.96867	11342
0.96933	11331
0.97000	11320
0.97067	11309
0.97133	11298
0.97200	11287
0.97267	11276
0.97333	11265
0.97400	11254
0.97467	11243
0.97533	11232
0.97600	11221
0.97667	11210
0.97733	11199
0.97800	11188
0.97867	11176
0.97933	11165
0.98000	11153
0.98067	11142
0.98133	11130
0.98200	11118
0.98267	11107
0.98333	11095
0.98400	11083
0.98467	11071
0.98533	11059
0.98600	11047
0.98667	11035
0.98733	11022
0.98800	11010
0.98867	10998
0.98933	10985
0.99000	10973
0.99067	10961
0.99133	10948
0.99200	10936
0.99267	10923
0.99333	10910
0.99400	10898
0.99467	10885
0.99533	10872
0.99600	10859
0.99667	10847
0.99733	10834
0.99800	10821
0.99867	10809
0.99933	10796
1.00000	10783
1.00067	10771
1.00133	10758
1.00200	10746
1.00267	10733
1.00333	10721
1.00400	10708
1.00467	10696
1.00533	10684
1.00600	10671
1.00667	10659
1.00733	10647
1.00800	10635
1.00867	10623
1.00933	10611
1.01000	10599
1.01067	10588
1.01133	10576
1.01200	10565
1.01267	10553
1.01333	10542
1.01400	10531
1.01467	10520
1.01533	10510
1.01600	10499
1.01667	10489
1.01733	10478
1.01800	10469
1.01867	10459
1.01933	10449
1.02000	10440
1.02067	10431
1.02133	10422
1.02200	10413
1.02267	10404
1.02333	10396
1.02400	10388
1.02467	10379
1.02533	10372
1.02600	10364
1.02667	10356
1.02733	10349
1.02800	10342
1.02867	10334
1.02933	10327
1.03000	10321
1.03067	10314
1.03133	10307
1.03200	10300
1.03267	10293
1.03333	10286
1.03400	10280
1.03467	10273
1.03533	10266
1.03600	10259
1.03667	10252
1.03733	10245
1.03800	10237
1.03867	10230
1.03933	10223
1.04000	10215
1.04067	10207
1.04133	10200
1.04200	10192
1.04267	10184
1.04333	10175
1.04400	10167
1.04467	10159
1.04533	10150
1.04600	10142
1.04667	10133
1.04733	10124
1.04800	10115
1.04867	10106
1.04933	10097
1.05000	10088
1.05067	10078
1.05133	10069
1.05200	10059
1.05267	10050
1.05333	10040
1.05400	10031
1.05467	10021
1.05533	10011
1.05600	10002
1.05667	9992
1.05733	9982
1.05800	9972
1.05867	9963
1.05933	9953
1.06000	9943
1.06067	9933
1.06133	9923
1.06200	9913
1.06267	9903
1.06333	9893
1.06400	9883
1.06467	9873
1.06533	9863
1.06600	9853
1.06667	9843
1.06733	9833
1.06800	9823
1.06867	9813
1.06933	9803
1.07000	9794
1.07067	9784
1.07133	9774
1.07200	9764
1.07267	9754
1.07333	9744
1.07400	9734
1.07467	9724
1.07533	9714
1.07600	9705
1.07667	9695
1.07733	9685
1.07800	9675
1.07867	9666
1.07933	9656
1.08000	9647
1.08067	9637
1.08133	9628
1.08200	9618
1.08267	9609
1.08333	9600
1.08400	9590
1.08467	9581
1.08533	9572
1.08600	9562
1.08667	9553
1.08733	9544
1.08800	9535
1.08867	9526
1.08933	9517
1.09000	9507
1.09067	9498
1.09133	9489
1.09200	9480
1.09267	9471
1.09333	9462
1.09400	9453
1.09467	9444
1.09533	9435
1.09600	9426
1.09667	9417
1.09733	9408
1.09800	9399
1.09867	9390
1.09933	9381
1.10000	9372
1.10067	9363
1.10133	9354
1.10200	9345
1.10267	9336
1.10333	9327
1.10400	9319
1.10467	9310
1.10533	9302
1.10600	9293
1.10667	9285
1.10733	9276
1.10800	9268
1.10867	9260
1.10933	9251
1.11000	9243
1.11067	9235
1.11133	9227
1.11200	9219
1.11267	9211
1.11333	9203
1.11400	9195
1.11467	9187
1.11533	9179
1.11600	9171
1.11667	9163
1.11733	9156
1.11800	9148
1.11867	9140
1.11933	9133
1.12000	9126
1.12067	9118
1.12133	9111
1.12200	9104
1.12267	9097
1.12333	9090
1.12400	9083
1.12467	9076
1.12533	9069
1.12600	9062
1.12667	9056
1.12733	9049
1.12800	9043
1.12867	9037
1.12933	9031
1.13000	9025
1.13067	9019
1.13133	9013
1.13200	9007
1.13267	9002
1.13333	8996
1.13400	8991
1.13467	8986
1.13533	8981
1.13600	8976
1.13667	8972
1.13733	8967
1.13800	8963
1.13867	8959
1.13933	8955
1.14000	8951
1.14067	8947
1.14133	8943
1.14200	8939
1.14267	8936
1.14333	8932
1.14400	8929
1.14467	8925
1.14533	8922
1.14600	8918
1.14667	8915
1.14733	8911
1.14800	8908
1.14867	8904
1.14933	8901
1.15000	8898
1.15067	8894
1.15133	8890
1.15200	8887
1.15267	8883
1.15333	8879
1.15400	8876
1.15467	8872
1.15533	8868
1.15600	8864
1.15667	8860
1.15733	8855
1.15800	8851
1.15867	8847
1.15933	8842
1.16000	8838
1.16067	8833
1.16133	8828
1.16200	8824
1.16267	8819
1.16333	8814
1.16400	8809
1.16467	8803
1.16533	8798
1.16600	8793
1.16667	8787
1.16733	8782
1.16800	8776
1.16867	8771
1.16933	8765
1.17000	8759
1.17067	8753
1.17133	8747
1.17200	8741
1.17267	8736
1.17333	8730
1.17400	8724
1.17467	8717
1.17533	8711
1.17600	8705
1.17667	8699
1.17733	8693
1.17800	8687
1.17867	8681
1.17933	8675
1.18000	8669
1.18067	8663
1.18133	8657
1.18200	8651
1.18267	8645
1.18333	8639
1.18400	8633
1.18467	8626
1.18533	8620
1.18600	8614
1.18667	8608
1.18733	8602
1.18800	8596
1.18867	8590
1.18933	8585
1.19000	8579
1.19067	8573
1.19133	8567
1.19200	8561
1.19267	8556
1.19333	8550
1.19400	8545
1.19467	8539
1.19533	8534
1.19600	8528
1.19667	8523
1.19733	8518
1.19800	8513
1.19867	8508
1.19933	8503
1.20000	8498
1.20067	8493
1.20133	8488
1.20200	8484
1.20267	8479
1.20333	8475
1.20400	8470
1.20467	8466
1.20533	8462
1.20600	8458
1.20667	8454
1.20733	8450
1.20800	8446
1.20867	8442
1.20933	8439
1.21000	8435
1.21067	8431
1.21133	8428
1.21200	8424
1.21267	8421
1.21333	8418
1.21400	8414
1.21467	8411
1.21533	8408
1.21600	8405
1.21667	8402
1.21733	8399
1.21800	8396
1.21867	8394
1.21933	8391
1.22000	8388
1.22067	8385
1.22133	8383
1.22200	8380
1.22267	8378
1.22333	8375
1.22400	8373
1.22467	8370
1.22533	8368
1.22600	8365
1.22667	8363
1.22733	8360
1.22800	8358
1.22867	8356
1.22933	8353
1.23000	8351
1.23067	8349
1.23133	8346
1.23200	8344
1.23267	8342
1.23333	8340
1.23400	8337
1.23467	8335
1.23533	8333
1.23600	8331
1.23667	8329
1.23733	8327
1.23800	8325
1.23867	8323
1.23933	8321
1.24000	8319
1.24067	8317
1.24133	8315
1.24200	8313
1.24267	8311
1.24333	8309
1.24400	8307
1.24467	8305
1.24533	8303
1.24600	8302
1.24667	8300
1.24733	8298
1.24800	8296
1.24867	8294
1.24933	8293
1.25000	8291
1.25067	8289
1.25133	8288
1.25200	8286
1.25267	8285
1.25333	8284
1.25400	8282
1.25467	8281
1.25533	8280
1.25600	8279
1.25667	8278
1.25733	8277
1.25800	8276
1.25867	8276
1.25933	8275
1.26000	8275
1.26067	8275
1.26133	8275
1.26200	8275
1.26267	8275
1.26333	8275
1.26400	8276
1.26467	8277
1.26533	8278
1.26600	8280
1.26667	8281
1.26733	8283
1.26800	8286
1.26867	8288
1.26933	8291
1.27000	8294
1.27067	8298
1.27133	8302
1.27200	8306
1.27267	8310
1.27333	8315
1.27400	8320
1.27467	8326
1.27533	8331
1.27600	8337
1.27667	8343
1.27733	8350
1.27800	8357
1.27867	8364
1.27933	8371
1.28000	8379
1.28067	8386
1.28133	8394
1.28200	8402
1.28267	8410
1.28333	8418
1.28400	8427
1.28467	8435
1.28533	8443
1.28600	8451
1.28667	8459
1.28733	8467
1.28800	8475
1.28867	8482
1.28933	8489
1.29000	8496
1.29067	8503
1.29133	8510
1.29200	8516
1.29267	8522
1.29333	8527
1.29400	8532
1.29467	8537
1.29533	8542
1.29600	8546
1.29667	8549
1.29733	8552
1.29800	8555
1.29867	8558
1.29933	8560
1.30000	8561
1.30067	8562
1.30133	8563
1.30200	8564
1.30267	8564
1.30333	8563
1.30400	8563
1.30467	8562
1.30533	8560
1.30600	8558
1.30667	8556
1.30733	8554
1.30800	8551
1.30867	8548
1.30933	8545
1.31000	8541
1.31067	8537
1.31133	8533
1.31200	8529
1.31267	8524
1.31333	8520
1.31400	8515
1.31467	8509
1.31533	8504
1.31600	8499
1.31667	8493
1.31733	8487
1.31800	8481
1.31867	8474
1.31933	8468
1.32000	8461
1.32067	8455
1.32133	8448
1.32200	8441
1.32267	8433
1.32333	8426
1.32400	8418
1.32467	8411
1.32533	8403
1.32600	8395
1.32667	8388
1.32733	8380
1.32800	8372
1.32867	8364
1.32933	8355
1.33000	8347
1.33067	8339
1.33133	8331
1.33200	8322
1.33267	8314
1.33333	8306
1.33400	8297
1.33467	8289
1.33533	8280
1.33600	8272
1.33667	8263
1.33733	8254
1.33800	8246
1.33867	8237
1.33933	8229
1.34000	8220
1.34067	8212
1.34133	8204
1.34200	8195
1.34267	8187
1.34333	8178
1.34400	8170
1.34467	8161
1.34533	8153
1.34600	8145
1.34667	8136
1.34733	8128
1.34800	8120
1.34867	8111
1.34933	8103
1.35000	8095
1.35067	8087
1.35133	8078
1.35200	8070
1.35267	8062
1.35333	8054
1.35400	8046
1.35467	8037
1.35533	8029
1.35600	8021
1.35667	8013
1.35733	8006
1.35800	7998
1.35867	7990
1.35933	7982
1.36000	7975
1.36067	7967
1.36133	7960
1.36200	7952
1.36267	7945
1.36333	7938
1.36400	7930
1.36467	7923
1.36533	7916
1.36600	7909
1.36667	7902
1.36733	7895
1.36800	7888
1.36867	7882
1.36933	7875
1.37000	7869
1.37067	7862
1.37133	7856
1.37200	7849
1.37267	7843
1.37333	7837
1.37400	7831
1.37467	7825
1.37533	7819
1.37600	7813
1.37667	7808
1.37733	7802
1.37800	7796
1.37867	7791
1.37933	7785
1.38000	7780
1.38067	7774
1.38133	7769
1.38200	7764
1.38267	7759
1.38333	7754
1.38400	7749
1.38467	7744
1.38533	7739
1.38600	7734
1.38667	7730
1.38733	7725
1.38800	7720
1.38867	7716
1.38933	7711
1.39000	7707
1.39067	7702
1.39133	7698
1.39200	7693
1.39267	7689
1.39333	7684
1.39400	7680
1.39467	7676
1.39533	7671
1.39600	7667
1.39667	7662
1.39733	7658
1.39800	7654
1.39867	7649
1.39933	7645
1.40000	7641
1.40067	7637
1.40133	7633
1.40200	7628
1.40267	7624
1.40333	7620
1.40400	7616
1.40467	7612
1.40533	7607
1.40600	7603
1.40667	7599
1.40733	7595
1.40800	7590
1.40867	7586
1.40933	7582
1.41000	7577
1.41067	7573
1.41133	7569
1.41200	7564
1.41267	7560
1.41333	7556
1.41400	7552
1.41467	7547
1.41533	7543
1.41600	7539
1.41667	7535
1.41733	7531
1.41800	7527
1.41867	7523
1.41933	7519
1.42000	7515
1.42067	7512
1.42133	7508
1.42200	7504
1.42267	7500
1.42333	7496
1.42400	7493
1.42467	7489
1.42533	7486
1.42600	7482
1.42667	7478
1.42733	7475
1.42800	7471
1.42867	7468
1.42933	7465
1.43000	7461
1.43067	7458
1.43133	7455
1.43200	7451
1.43267	7448
1.43333	7445
1.43400	7442
1.43467	7439
1.43533	7436
1.43600	7433
1.43667	7430
1.43733	7427
1.43800	7424
1.43867	7421
1.43933	7418
1.44000	7416
1.44067	7413
1.44133	7410
1.44200	7407
1.44267	7404
1.44333	7402
1.44400	7399
1.44467	7396
1.44533	7394
1.44600	7391
1.44667	7388
1.44733	7386
1.44800	7384
1.44867	7381
1.44933	7379
1.45000	7376
1.45067	7374
1.45133	7372
1.45200	7369
1.45267	7367
1.45333	7364
1.45400	7362
1.45467	7359
1.45533	7357
1.45600	7355
1.45667	7352
1.45733	7350
1.45800	7348
1.45867	7345
1.45933	7343
1.46000	7341
1.46067	7338
1.46133	7336
1.46200	7334
1.46267	7331
1.46333	7329
1.46400	7327
1.46467	7324
1.46533	7322
1.46600	7319
1.46667	7317
1.46733	7315
1.46800	7312
1.46867	7310
1.46933	7307
1.47000	7305
1.47067	7302
1.47133	7300
1.47200	7297
1.47267	7295
1.47333	7293
1.47400	7290
1.47467	7288
1.47533	7285
1.47600	7283
1.47667	7280
1.47733	7278
1.47800	7275
1.47867	7273
1.47933	7270
1.48000	7268
1.48067	7265
1.48133	7263
1.48200	7260
1.48267	7258
1.48333	7255
1.48400	7253
1.48467	7250
1.48533	7248
1.48600	7245
1.48667	7243
1.48733	7240
1.48800	7238
1.48867	7235
1.48933	7232
1.49000	7230
1.49067	7227
1.49133	7224
1.49200	7221
1.49267	7219
1.49333	7216
1.49400	7213
1.49467	7210
1.49533	7207
1.49600	7205
1.49667	7202
1.49733	7199
1.49800	7196
1.49867	7193
1.49933	7190
1.50000	7187
1.50067	7184
1.50133	7181
1.50200	7178
1.50267	7176
1.50333	7173
1.50400	7170
1.50467	7167
1.50533	7164
1.50600	7161
1.50667	7158
1.50733	7155
1.50800	7152
1.50867	7149
1.50933	7146
1.51000	7142
1.51067	7139
1.51133	7136
1.51200	7133
1.51267	7130
1.51333	7127
1.51400	7124
1.51467	7121
1.51533	7118
1.51600	7115
1.51667	7112
1.51733	7109
1.51800	7106
1.51867	7103
1.51933	7101
1.52000	7098
1.52067	7095
1.52133	7092
1.52200	7090
1.52267	7087
1.52333	7085
1.52400	7082
1.52467	7080
1.52533	7077
1.52600	7075
1.52667	7073
1.52733	7070
1.52800	7068
1.52867	7066
1.52933	7064
1.53000	7062
1.53067	7060
1.53133	7057
1.53200	7055
1.53267	7053
1.53333	7052
1.53400	7050
1.53467	7048
1.53533	7046
1.53600	7044
1.53667	7042
1.53733	7041
1.53800	7039
1.53867	7037
1.53933	7035
1.54000	7033
1.54067	7031
1.54133	7029
1.54200	7028
1.54267	7026
1.54333	7024
1.54400	7022
1.54467	7020
1.54533	7018
1.54600	7015
1.54667	7013
1.54733	7011
1.54800	7009
1.54867	7007
1.54933	7005
1.55000	7002
1.55067	7000
1.55133	6998
1.55200	6995
1.55267	6993
1.55333	6991
1.55400	6989
1.55467	6986
1.55533	6984
1.55600	6982
1.55667	6979
1.55733	6977
1.55800	6975
1.55867	6972
1.55933	6970
1.56000	6968
1.56067	6966
1.56133	6963
1.56200	6961
1.56267	6959
1.56333	6957
1.56400	6955
1.56467	6953
1.56533	6951
1.56600	6949
1.56667	6947
1.56733	6945
1.56800	6943
1.56867	6941
1.56933	6939
1.57000	6937
1.57067	6935
1.57133	6933
1.57200	6931
1.57267	6930
1.57333	6928
1.57400	6926
1.57467	6924
1.57533	6923
1.57600	6921
1.57667	6919
1.57733	6918
1.57800	6916
1.57867	6915
1.57933	6913
1.58000	6912
1.58067	6910
1.58133	6909
1.58200	6907
1.58267	6906
1.58333	6904
1.58400	6903
1.58467	6901
1.58533	6900
1.58600	6899
1.58667	6897
1.58733	6896
1.58800	6895
1.58867	6893
1.58933	6892
1.59000	6890
1.59067	6889
1.59133	6887
1.59200	6886
1.59267	6884
1.59333	6882
1.59400	6881
1.59467	6879
1.59533	6877
1.59600	6876
1.59667	6874
1.59733	6872
1.59800	6870
1.59867	6868
1.59933	6867
1.60000	6865
1.60067	6863
1.60133	6861
1.60200	6859
1.60267	6857
1.60333	6855
1.60400	6853
1.60467	6852
1.60533	6850
1.60600	6848
1.60667	6847
1.60733	6845
1.60800	6843
1.60867	6842
1.60933	6840
1.61000	6839
1.61067	6837
1.61133	6836
1.61200	6834
1.61267	6833
1.61333	6832
1.61400	6830
1.61467	6829
1.61533	6828
1.61600	6826
1.61667	6825
1.61733	6823
1.61800	6822
1.61867	6820
1.61933	6819
1.62000	6818
1.62067	6816
1.62133	6815
1.62200	6814
1.62267	6812
1.62333	6811
1.62400	6809
1.62467	6808
1.62533	6807
1.62600	6805
1.62667	6804
1.62733	6802
1.62800	6801
1.62867	6800
1.62933	6798
1.63000	6797
1.63067	6796
1.63133	6794
1.63200	6793
1.63267	6792
1.63333	6790
1.63400	6789
1.63467	6788
1.63533	6787
1.63600	6785
1.63667	6784
1.63733	6782
1.63800	6781
1.63867	6780
1.63933	6778
1.64000	6777
1.64067	6776
1.64133	6774
1.64200	6773
1.64267	6772
1.64333	6770
1.64400	6769
1.64467	6768
1.64533	6767
1.64600	6765
1.64667	6764
1.64733	6763
1.64800	6762
1.64867	6761
1.64933	6760
1.65000	6759
1.65067	6758
1.65133	6757
1.65200	6756
1.65267	6756
1.65333	6755
1.65400	6754
1.65467	6753
1.65533	6752
1.65600	6752
1.65667	6751
1.65733	6750
1.65800	6749
1.65867	6749
1.65933	6748
1.66000	6747
1.66067	6746
1.66133	6746
1.66200	6745
1.66267	6744
1.66333	6744
1.66400	6743
1.66467	6742
1.66533	6741
1.66600	6740
1.66667	6740
1.66733	6739
1.66800	6738
1.66867	6737
1.66933	6736
1.67000	6734
1.67067	6733
1.67133	6732
1.67200	6731
1.67267	6730
1.67333	6728
1.67400	6727
1.67467	6726
1.67533	6724
1.67600	6723
1.67667	6721
1.67733	6720
1.67800	6718
1.67867	6717
1.67933	6715
1.68000	6714
1.68067	6712
1.68133	6711
1.68200	6709
1.68267	6707
1.68333	6706
1.68400	6704
1.68467	6702
1.68533	6700
1.68600	6699
1.68667	6697
1.68733	6695
1.68800	6693
1.68867	6691
1.68933	6689
1.69000	6688
1.69067	6686
1.69133	6684
1.69200	6682
1.69267	6680
1.69333	6678
1.69400	6677
1.69467	6675
1.69533	6673
1.69600	6671
1.69667	6670
1.69733	6668
1.69800	6666
1.69867	6665
1.69933	6663
1.70000	6662
1.70067	6660
1.70133	6658
1.70200	6657
1.70267	6655
1.70333	6653
1.70400	6652
1.70467	6650
1.70533	6648
1.70600	6647
1.70667	6645
1.70733	6643
1.70800	6642
1.70867	6640
1.70933	6639
1.71000	6637
1.71067	6636
1.71133	6634
1.71200	6633
1.71267	6632
1.71333	6631
1.71400	6630
1.71467	6629
1.71533	6629
1.71600	6628
1.71667	6628
1.71733	6628
1.71800	6629
1.71867	6630
1.71933	6632
1.72000	6635
1.72067	6639
1.72133	6644
1.72200	6651
1.72267	6660
1.72333	6671
1.72400	6685
1.72467	6703
1.72533	6725
1.72600	6753
1.72667	6786
1.72733	6826
1.72800	6875
1.72867	6933
1.72933	7003
1.73000	7087
1.73067	7187
1.73133	7305
1.73200	7445
1.73267	7609
1.73333	7801
1.73400	8025
1.73467	8285
1.73533	8586
1.73600	8933
1.73667	9332
1.73733	9787
1.73800	10307
1.73867	10896
1.73933	11563
1.74000	12314
1.74067	13157
1.74133	14099
1.74200	15147
1.74267	16309
1.74333	17593
1.74400	19007
1.74467	20558
1.74533	22255
1.74600	24104
1.74667	26113
1.74733	28289
1.74800	30638
1.74867	33165
1.74933	35874
1.75000	38770
1.75067	41857
1.75133	45138
1.75200	48616
1.75267	52293
1.75333	56167
1.75400	60237
1.75467	64500
1.75533	68949
1.75600	73579
1.75667	78381
1.75733	83345
1.75800	88458
1.75867	93704
1.75933	99068
1.76000	104529
1.76067	110069
1.76133	115668
1.76200	121305
1.76267	126959
1.76333	132610
1.76400	138236
1.76467	143815
1.76533	149325
1.76600	154741
1.76667	160042
1.76733	165204
1.76800	170207
1.76867	175031
1.76933	179657
1.77000	184066
1.77067	188245
1.77133	192178
1.77200	195855
1.77267	199266
1.77333	202402
1.77400	205259
1.77467	207833
1.77533	210122
1.77600	212128
1.77667	213850
1.77733	215294
1.77800	216463
1.77867	217362
1.77933	218001
1.78000	218385
1.78067	218525
1.78133	218429
1.78200	218107
1.78267	217569
1.78333	216826
1.78400	215888
1.78467	214767
1.78533	213472
1.78600	212015
1.78667	210406
1.78733	208657
1.78800	206776
1.78867	204776
1.78933	202664
1.79000	200451
1.79067	198146
1.79133	195757
1.79200	193293
1.79267	190762
1.79333	188171
1.79400	185527
1.79467	182838
1.79533	180110
1.79600	177348
1.79667	174560
1.79733	171749
1.79800	168921
1.79867	166081
1.79933	163234
1.80000	160383
1.80067	157533
1.80133	154686
1.80200	151847
1.80267	149018
1.80333	146203
1.80400	143404
1.80467	140623
1.80533	137863
1.80600	135126
1.80667	132414
1.80733	129728
1.80800	127071
1.80867	124443
1.80933	121847
1.81000	119283
1.81067	116752
1.81133	114255
1.81200	111794
1.81267	109368
1.81333	106979
1.81400	104627
1.81467	102312
1.81533	100035
1.81600	97797
1.81667	95596
1.81733	93434
1.81800	91311
1.81867	89226
1.81933	87180
1.82000	85173
1.82067	83204
1.82133	81274
1.82200	79382
1.82267	77528
1.82333	75712
1.82400	73933
1.82467	72191
1.82533	70487
1.82600	68818
1.82667	67186
1.82733	65590
1.82800	64029
1.82867	62503
1.82933	61011
1.83000	59553
1.83067	58129
1.83133	56738
1.83200	55379
1.83267	54052
1.83333	52756
1.83400	51491
1.83467	50257
1.83533	49052
1.83600	47877
1.83667	46731
1.83733	45613
1.83800	44523
1.83867	43460
1.83933	42424
1.84000	41414
1.84067	40429
1.84133	39470
1.84200	38535
1.84267	37625
1.84333	36738
1.84400	35874
1.84467	35033
1.84533	34214
1.84600	33417
1.84667	32640
1.84733	31885
1.84800	31149
1.84867	30434
1.84933	29737
1.85000	29059
1.85067	28400
1.85133	27759
1.85200	27135
1.85267	26529
1.85333	25939
1.85400	25365
1.85467	24807
1.85533	24265
1.85600	23738
1.85667	23225
1.85733	22727
1.85800	22243
1.85867	21772
1.85933	21315
1.86000	20871
1.86067	20439
1.86133	20019
1.86200	19611
1.86267	19215
1.86333	18830
1.86400	18456
1.86467	18093
1.86533	17740
1.86600	17397
1.86667	17063
1.86733	16740
1.86800	16425
1.86867	16120
1.86933	15823
1.87000	15535
1.87067	15256
1.87133	14984
1.87200	14720
1.87267	14464
1.87333	14215
1.87400	13974
1.87467	13739
1.87533	13511
1.87600	13290
1.87667	13075
1.87733	12867
1.87800	12664
1.87867	12468
1.87933	12277
1.88000	12092
1.88067	11912
1.88133	11737
1.88200	11568
1.88267	11404
1.88333	11244
1.88400	11089
1.88467	10939
1.88533	10793
1.88600	10651
1.88667	10514
1.88733	10381
1.88800	10251
1.88867	10125
1.88933	10003
1.89000	9885
1.89067	9770
1.89133	9658
1.89200	9550
1.89267	9445
1.89333	9343
1.89400	9244
1.89467	9148
1.89533	9054
1.89600	8964
1.89667	8876
1.89733	8790
1.89800	8707
1.89867	8627
1.89933	8549
1.90000	8473
1.90067	8399
1.90133	8328
1.90200	8259
1.90267	8191
1.90333	8126
1.90400	8062
1.90467	8001
1.90533	7941
1.90600	7882
1.90667	7826
1.90733	7771
1.90800	7718
1.90867	7666
1.90933	7615
1.91000	7567
1.91067	7519
1.91133	7473
1.91200	7428
1.91267	7384
1.91333	7341
1.91400	7300
1.91467	7260
1.91533	7220
1.91600	7182
1.91667	7145
1.91733	7109
1.91800	7074
1.91867	7039
1.91933	7006
1.92000	6973
1.92067	6941
1.92133	6910
1.92200	6879
1.92267	6850
1.92333	6821
1.92400	6792
1.92467	6765
1.92533	6738
1.92600	6712
1.92667	6686
1.92733	6661
1.92800	6637
1.92867	6613
1.92933	6590
1.93000	6567
1.93067	6545
1.93133	6524
1.93200	6503
1.93267	6482
1.93333	6462
1.93400	6442
1.93467	6423
1.93533	6404
1.93600	6386
1.93667	6368
1.93733	6350
1.93800	6333
1.93867	6317
1.93933	6300
1.94000	6284
1.94067	6269
1.94133	6254
1.94200	6239
1.94267	6224
1.94333	6210
1.94400	6197
1.94467	6183
1.94533	6170
1.94600	6157
1.94667	6145
1.94733	6133
1.94800	6121
1.94867	6109
1.94933	6098
1.95000	6087
1.95067	6076
1.95133	6066
1.95200	6055
1.95267	6045
1.95333	6035
1.95400	6025
1.95467	6016
1.95533	6007
1.95600	5998
1.95667	5989
1.95733	5980
1.95800	5972
1.95867	5963
1.95933	5955
1.96000	5947
1.96067	5939
1.96133	5931
1.96200	5924
1.96267	5916
1.96333	5909
1.96400	5902
1.96467	5895
1.96533	5888
1.96600	5882
1.96667	5875
1.96733	5869
1.96800	5862
1.96867	5856
1.96933	5850
1.97000	5844
1.97067	5838
1.97133	5832
1.97200	5827
1.97267	5821
1.97333	5816
1.97400	5810
1.97467	5805
1.97533	5800
1.97600	5795
1.97667	5790
1.97733	5784
1.97800	5779
1.97867	5774
1.97933	5770
1.98000	5765
1.98067	5760
1.98133	5756
1.98200	5751
1.98267	5747
1.98333	5742
1.98400	5738
1.98467	5734
1.98533	5730
1.98600	5725
1.98667	5721
1.98733	5717
1.98800	5713
1.98867	5710
1.98933	5706
1.99000	5702
1.99067	5698
1.99133	5695
1.99200	5691
1.99267	5687
1.99333	5684
1.99400	5680
1.99467	5677
1.99533	5674
1.99600	5670
1.99667	5667
1.99733	5664
1.99800	5661
1.99867	5658
1.99933	5655
2.00000	5652
2.00067	5649
2.00133	5646
2.00200	5643
2.00267	5640
2.00333	5637
2.00400	5634
2.00467	5631
2.00533	5628
2.00600	5625
2.00667	5623
2.00733	5620
2.00800	5617
2.00867	5614
2.00933	5611
2.01000	5608
2.01067	5605
2.01133	5602
2.01200	5599
2.01267	5596
2.01333	5593
2.01400	5590
2.01467	5587
2.01533	5584
2.01600	5581
2.01667	5578
2.01733	5575
2.01800	5572
2.01867	5570
2.01933	5567
2.02000	5564
2.02067	5561
2.02133	5558
2.02200	5555
2.02267	5552
2.02333	5548
2.02400	5545
2.02467	5543
2.02533	5540
2.02600	5537
2.02667	5534
2.02733	5531
2.02800	5528
2.02867	5525
2.02933	5522
2.03000	5519
2.03067	5517
2.03133	5514
2.03200	5511
2.03267	5509
2.03333	5506
2.03400	5503
2.03467	5501
2.03533	5498
2.03600	5496
2.03667	5493
2.03733	5491
2.03800	5488
2.03867	5486
2.03933	5484
2.04000	5481
2.04067	5479
2.04133	5476
2.04200	5474
2.04267	5472
2.04333	5469
2.04400	5467
2.04467	5465
2.04533	5462
2.04600	5460
2.04667	5458
2.04733	5455
2.04800	5453
2.04867	5451
2.04933	5448
2.05000	5446
2.05067	5444
2.05133	5442
2.05200	5440
2.05267	5438
2.05333	5435
2.05400	5433
2.05467	5431
2.05533	5429
2.05600	5427
2.05667	5425
2.05733	5423
2.05800	5421
2.05867	5419
2.05933	5417
2.06000	5415
2.06067	5413
2.06133	5411
2.06200	5409
2.06267	5407
2.06333	5405
2.06400	5403
2.06467	5401
2.06533	5399
2.06600	5397
2.06667	5396
2.06733	5394
2.06800	5392
2.06867	5390
2.06933	5388
2.07000	5386
2.07067	5384
2.07133	5382
2.07200	5380
2.07267	5378
2.07333	5376
2.07400	5374
2.07467	5372
2.07533	5370
2.07600	5368
2.07667	5366
2.07733	5364
2.07800	5362
2.07867	5360
2.07933	5358
2.08000	5356
2.08067	5354
2.08133	5352
2.08200	5350
2.08267	5348
2.08333	5345
2.08400	5343
2.08467	5341
2.08533	5339
2.08600	5337
2.08667	5335
2.08733	5333
2.08800	5330
2.08867	5328
2.08933	5326
2.09000	5324
2.09067	5322
2.09133	5320
2.09200	5318
2.09267	5316
2.09333	5314
2.09400	5312
2.09467	5310
2.09533	5308
2.09600	5306
2.09667	5304
2.09733	5302
2.09800	5300
2.09867	5298
2.09933	5297
2.10000	5295
2.10067	5293
2.10133	5291
2.10200	5289
2.10267	5287
2.10333	5285
2.10400	5284
2.10467	5282
2.10533	5280
2.10600	5278
2.10667	5276
2.10733	5274
2.10800	5272
2.10867	5271
2.10933	5269
2.11000	5267
2.11067	5265
2.11133	5263
2.11200	5261
2.11267	5259
2.11333	5257
2.11400	5255
2.11467	5253
2.11533	5251
2.11600	5249
2.11667	5247
2.11733	5246
2.11800	5244
2.11867	5242
2.11933	5240
2.12000	5238
2.12067	5236
2.12133	5234
2.12200	5232
2.12267	5230
2.12333	5228
2.12400	5227
2.12467	5225
2.12533	5223
2.12600	5221
2.12667	5219
2.12733	5217
2.12800	5215
2.12867	5214
2.12933	5212
2.13000	5210
2.13067	5208
2.13133	5206
2.13200	5204
2.13267	5202
2.13333	5200
2.13400	5198
2.13467	5197
2.13533	5195
2.13600	5193
2.13667	5191
2.13733	5189
2.13800	5187
2.13867	5186
2.13933	5184
2.14000	5182
2.14067	5180
2.14133	5179
2.14200	5177
2.14267	5175
2.14333	5173
2.14400	5172
2.14467	5170
2.14533	5168
2.14600	5166
2.14667	5164
2.14733	5163
2.14800	5161
2.14867	5159
2.14933	5157
2.15000	5155
2.15067	5154
2.15133	5152
2.15200	5150
2.15267	5148
2.15333	5146
2.15400	5144
2.15467	5142
2.15533	5141
2.15600	5139
2.15667	5137
2.15733	5135
2.15800	5133
2.15867	5131
2.15933	5129
2.16000	5127
2.16067	5125
2.16133	5124
2.16200	5122
2.16267	5120
2.16333	5118
2.16400	5116
2.16467	5114
2.16533	5113
2.16600	5111
2.16667	5109
2.16733	5108
2.16800	5106
2.16867	5104
2.16933	5102
2.17000	5101
2.17067	5099
2.17133	5097
2.17200	5095
2.17267	5094
2.17333	5092
2.17400	5090
2.17467	5089
2.17533	5087
2.17600	5085
2.17667	5084
2.17733	5082
2.17800	5080
2.17867	5079
2.17933	5077
2.18000	5076
2.18067	5074
2.18133	5072
2.18200	5071
2.18267	5069
2.18333	5067
2.18400	5066
2.18467	5064
2.18533	5063
2.18600	5061
2.18667	5060
2.18733	5058
2.18800	5057
2.18867	5055
2.18933	5054
2.19000	5052
2.19067	5051
2.19133	5049
2.19200	5047
2.19267	5046
2.19333	5044
2.19400	5043
2.19467	5041
2.19533	5040
2.19600	5038
2.19667	5037
2.19733	5035
2.19800	5034
2.19867	5032
2.19933	5031
2.20000	5029
2.20067	5028
2.20133	5026
2.20200	5025
2.20267	5024
2.20333	5023
2.20400	5022
2.20467	5021
2.20533	5020
2.20600	5019
2.20667	5018
2.20733	5017
2.20800	5016
2.20867	5016
2.20933	5015
2.21000	5015
2.21067	5014
2.21133	5014
2.21200	5013
2.21267	5013
2.21333	5013
2.21400	5013
2.21467	5012
2.21533	5012
2.21600	5012
2.21667	5012
2.21733	5012
2.21800	5012
2.21867	5013
2.21933	5013
2.22000	5013
2.22067	5013
2.22133	5013
2.22200	5013
2.22267	5014
2.22333	5014
2.22400	5014
2.22467	5014
2.22533	5014
2.22600	5015
2.22667	5015
2.22733	5015
2.22800	5015
2.22867	5015
2.22933	5015
2.23000	5015
2.23067	5015
2.23133	5015
2.23200	5015
2.23267	5014
2.23333	5014
2.23400	5014
2.23467	5013
2.23533	5013
2.23600	5013
2.23667	5012
2.23733	5012
2.23800	5011
2.23867	5010
2.23933	5010
2.24000	5009
2.24067	5008
2.24133	5008
2.24200	5007
2.24267	5006
2.24333	5005
2.24400	5004
2.24467	5003
2.24533	5002
2.24600	5001
2.24667	5000
2.24733	4999
2.24800	4998
2.24867	4997
2.24933	4995
2.25000	4994
2.25067	4993
2.25133	4992
2.25200	4991
2.25267	4989
2.25333	4988
2.25400	4987
2.25467	4986
2.25533	4985
2.25600	4983
2.25667	4982
2.25733	4981
2.25800	4980
2.25867	4979
2.25933	4978
2.26000	4977
2.26067	4976
2.26133	4974
2.26200	4973
2.26267	4972
2.26333	4971
2.26400	4970
2.26467	4969
2.26533	4967
2.26600	4966
2.26667	4965
2.26733	4964
2.26800	4963
2.26867	4961
2.26933	4960
2.27000	4959
2.27067	4958
2.27133	4956
2.27200	4955
2.27267	4954
2.27333	4952
2.27400	4951
2.27467	4950
2.27533	4948
2.27600	4947
2.27667	4946
2.27733	4944
2.27800	4943
2.27867	4941
2.27933	4940
2.28000	4938
2.28067	4937
2.28133	4935
2.28200	4934
2.28267	4932
2.28333	4931
2.28400	4929
2.28467	4928
2.28533	4926
2.28600	4924
2.28667	4923
2.28733	4921
2.28800	4920
2.28867	4918
2.28933	4917
2.29000	4915
2.29067	4913
2.29133	4912
2.29200	4911
2.29267	4909
2.29333	4908
2.29400	4906
2.29467	4905
2.29533	4903
2.29600	4902
2.29667	4901
2.29733	4899
2.29800	4898
2.29867	4897
2.29933	4895
2.30000	4894
2.30067	4893
2.30133	4892
2.30200	4891
2.30267	4890
2.30333	4889
2.30400	4888
2.30467	4887
2.30533	4886
2.30600	4885
2.30667	4884
2.30733	4883
2.30800	4882
2.30867	4881
2.30933	4880
2.31000	4880
2.31067	4879
2.31133	4879
2.31200	4878
2.31267	4877
2.31333	4877
2.31400	4876
2.31467	4876
2.31533	4876
2.31600	4875
2.31667	4875
2.31733	4875
2.31800	4874
2.31867	4874
2.31933	4874
2.32000	4873
2.32067	4873
2.32133	4873
2.32200	4873
2.32267	4873
2.32333	4872
2.32400	4872
2.32467	4872
2.32533	4872
2.32600	4872
2.32667	4872
2.32733	4872
2.32800	4872
2.32867	4872
2.32933	4872
2.33000	4872
2.33067	4872
2.33133	4873
2.33200	4873
2.33267	4873
2.33333	4873
2.33400	4873
2.33467	4874
2.33533	4874
2.33600	4874
2.33667	4875
2.33733	4875
2.33800	4875
2.33867	4876
2.33933	4876
2.34000	4877
2.34067	4877
2.34133	4878
2.34200	4878
2.34267	4878
2.34333	4879
2.34400	4879
2.34467	4880
2.34533	4880
2.34600	4881
2.34667	4881
2.34733	4881
2.34800	4882
2.34867	4882
2.34933	4883
2.35000	4883
2.35067	4883
2.35133	4884
2.35200	4884
2.35267	4884
2.35333	4885
2.35400	4885
2.35467	4885
2.35533	4885
2.35600	4886
2.35667	4886
2.35733	4886
2.35800	4886
2.35867	4887
2.35933	4887
2.36000	4887
2.36067	4887
2.36133	4887
2.36200	4887
2.36267	4888
2.36333	4888
2.36400	4888
2.36467	4888
2.36533	4888
2.36600	4888
2.36667	4888
2.36733	4888
2.36800	4888
2.36867	4888
2.36933	4888
2.37000	4888
2.37067	4888
2.37133	4888
2.37200	4888
2.37267	4887
2.37333	4887
2.37400	4887
2.37467	4887
2.37533	4886
2.37600	4886
2.37667	4886
2.37733	4885
2.37800	4885
2.37867	4884
2.37933	4884
2.38000	4883
2.38067	4883
2.38133	4882
2.38200	4882
2.38267	4881
2.38333	4881
2.38400	4880
2.38467	4880
2.38533	4879
2.38600	4878
2.38667	4878
2.38733	4877
2.38800	4877
2.38867	4876
2.38933	4875
2.39000	4875
2.39067	4874
2.39133	4873
2.39200	4873
2.39267	4872
2.39333	4871
2.39400	4871
2.39467	4870
2.39533	4870
2.39600	4869
2.39667	4868
2.39733	4868
2.39800	4867
2.39867	4866
2.39933	4866
2.40000	4865
2.40067	4865
2.40133	4864
2.40200	4863
2.40267	4862
2.40333	4862
2.40400	4861
2.40467	4860
2.40533	4860
2.40600	4859
2.40667	4858
2.40733	4858
2.40800	4857
2.40867	4856
2.40933	4855
2.41000	4854
2.41067	4854
2.41133	4853
2.41200	4852
2.41267	4851
2.41333	4850
2.41400	4849
2.41467	4848
2.41533	4847
2.41600	4846
2.41667	4845
2.41733	4844
2.41800	4843
2.41867	4842
2.41933	4841
2.42000	4840
2.42067	4839
2.42133	4838
2.42200	4837
2.42267	4836
2.42333	4835
2.42400	4834
2.42467	4833
2.42533	4832
2.42600	4831
2.42667	4831
2.42733	4830
2.42800	4829
2.42867	4827
2.42933	4826
2.43000	4825
2.43067	4824
2.43133	4823
2.43200	4822
2.43267	4821
2.43333	4819
2.43400	4818
2.43467	4817
2.43533	4816
2.43600	4814
2.43667	4813
2.43733	4811
2.43800	4810
2.43867	4809
2.43933	4807
2.44000	4806
2.44067	4804
2.44133	4803
2.44200	4801
2.44267	4800
2.44333	4798
2.44400	4796
2.44467	4795
2.44533	4793
2.44600	4792
2.44667	4790
2.44733	4788
2.44800	4786
2.44867	4785
2.44933	4783
2.45000	4781
2.45067	4780
2.45133	4778
2.45200	4776
2.45267	4774
2.45333	4772
2.45400	4771
2.45467	4769
2.45533	4767
2.45600	4765
2.45667	4764
2.45733	4762
2.45800	4760
2.45867	4758
2.45933	4756
2.46000	4755
2.46067	4753
2.46133	4751
2.46200	4749
2.46267	4748
2.46333	4746
2.46400	4744
2.46467	4742
2.46533	4741
2.46600	4739
2.46667	4737
2.46733	4736
2.46800	4734
2.46867	4732
2.46933	4731
2.47000	4729
2.47067	4727
2.47133	4726
2.47200	4724
2.47267	4722
2.47333	4721
2.47400	4719
2.47467	4718
2.47533	4716
2.47600	4714
2.47667	4713
2.47733	4711
2.47800	4710
2.47867	4708
2.47933	4707
2.48000	4705
2.48067	4704
2.48133	4702
2.48200	4700
2.48267	4699
2.48333	4697
2.48400	4695
2.48467	4694
2.48533	4692
2.48600	4691
2.48667	4689
2.48733	4687
2.48800	4686
2.48867	4684
2.48933	4682
2.49000	4681
2.49067	4679
2.49133	4677
2.49200	4676
2.49267	4674
2.49333	4672
2.49400	4671
2.49467	4669
2.49533	4668
2.49600	4666
2.49667	4664
2.49733	4663
2.49800	4661
2.49867	4659
2.49933	4658
2.50000	4656
2.50067	4654
2.50133	4653
2.50200	4651
2.50267	4649
2.50333	4648
2.50400	4646
2.50467	4644
2.50533	4642
2.50600	4641
2.50667	4639
2.50733	4637
2.50800	4636
2.50867	4634
2.50933	4632
2.51000	4630
2.51067	4629
2.51133	4627
2.51200	4625
2.51267	4624
2.51333	4622
2.51400	4620
2.51467	4618
2.51533	4617
2.51600	4615
2.51667	4613
2.51733	4612
2.51800	4610
2.51867	4608
2.51933	4606
2.52000	4605
2.52067	4603
2.52133	4601
2.52200	4600
2.52267	4598
2.52333	4596
2.52400	4595
2.52467	4593
2.52533	4591
2.52600	4589
2.52667	4587
2.52733	4586
2.52800	4584
2.52867	4582
2.52933	4580
2.53000	4579
2.53067	4577
2.53133	4575
2.53200	4573
2.53267	4572
2.53333	4570
2.53400	4568
2.53467	4566
2.53533	4565
2.53600	4563
2.53667	4561
2.53733	4560
2.53800	4558
2.53867	4556
2.53933	4554
2.54000	4553
2.54067	4551
2.54133	4549
2.54200	4548
2.54267	4546
2.54333	4544
2.54400	4543
2.54467	4541
2.54533	4539
2.54600	4538
2.54667	4536
2.54733	4535
2.54800	4533
2.54867	4532
2.54933	4530
2.55000	4529
2.55067	4527
2.55133	4526
2.55200	4524
2.55267	4523
2.55333	4521
2.55400	4520
2.55467	4518
2.55533	4517
2.55600	4515
2.55667	4514
2.55733	4512
2.55800	4511
2.55867	4509
2.55933	4508
2.56000	4506
2.56067	4505
2.56133	4503
2.56200	4502
2.56267	4501
2.56333	4499
2.56400	4498
2.56467	4496
2.56533	4495
2.56600	4493
2.56667	4492
2.56733	4490
2.56800	4489
2.56867	4487
2.56933	4486
2.57000	4485
2.57067	4483
2.57133	4482
2.57200	4481
2.57267	4479
2.57333	4478
2.57400	4477
2.57467	4475
2.57533	4474
2.57600	4473
2.57667	4471
2.57733	4470
2.57800	4469
2.57867	4468
2.57933	4466
2.58000	4465
2.58067	4464
2.58133	4462
2.58200	4461
2.58267	4460
2.58333	4459
2.58400	4457
2.58467	4456
2.58533	4455
2.58600	4454
2.58667	4453
2.58733	4451
2.58800	4450
2.58867	4449
2.58933	4448
2.59000	4447
2.59067	4446
2.59133	4444
2.59200	4443
2.59267	4442
2.59333	4441
2.59400	4440
2.59467	4439
2.59533	4438
2.59600	4437
2.59667	4436
2.59733	4435
2.59800	4434
2.59867	4433
2.59933	4432
2.60000	4432
2.60067	4431
2.60133	4430
2.60200	4429
2.60267	4428
2.60333	4427
2.60400	4427
2.60467	4426
2.60533	4425
2.60600	4424
2.60667	4423
2.60733	4422
2.60800	4422
2.60867	4421
2.60933	4420
2.61000	4419
2.61067	4418
2.61133	4417
2.61200	4416
2.61267	4416
2.61333	4415
2.61400	4414
2.61467	4413
2.61533	4412
2.61600	4411
2.61667	4410
2.61733	4410
2.61800	4409
2.61867	4408
2.61933	4407
2.62000	4406
2.62067	4405
2.62133	4405
2.62200	4404
2.62267	4403
2.62333	4402
2.62400	4401
2.62467	4400
2.62533	4399
2.62600	4398
2.62667	4397
2.62733	4396
2.62800	4395
2.62867	4394
2.62933	4393
2.63000	4393
2.63067	4392
2.63133	4391
2.63200	4390
2.63267	4389
2.63333	4388
2.63400	4387
2.63467	4386
2.63533	4385
2.63600	4384
2.63667	4383
2.63733	4382
2.63800	4381
2.63867	4380
2.63933	4379
2.64000	4378
2.64067	4377
2.64133	4376
2.64200	4375
2.64267	4374
2.64333	4373
2.64400	4372
2.64467	4371
2.64533	4370
2.64600	4369
2.64667	4368
2.64733	4367
2.64800	4366
2.64867	4365
2.64933	4364
2.65000	4362
2.65067	4361
2.65133	4360
2.65200	4359
2.65267	4358
2.65333	4356
2.65400	4355
2.65467	4354
2.65533	4353
2.65600	4351
2.65667	4350
2.65733	4349
2.65800	4348
2.65867	4346
2.65933	4345
2.66000	4344
2.66067	4343
2.66133	4341
2.66200	4340
2.66267	4339
2.66333	4338
2.66400	4336
2.66467	4335
2.66533	4334
2.66600	4332
2.66667	4331
2.66733	4330
2.66800	4329
2.66867	4327
2.66933	4326
2.67000	4325
2.67067	4324
2.67133	4322
2.67200	4321
2.67267	4320
2.67333	4319
2.67400	4318
2.67467	4316
2.67533	4315
2.67600	4314
2.67667	4313
2.67733	4312
2.67800	4310
2.67867	4309
2.67933	4308
2.68000	4307
2.68067	4306
2.68133	4304
2.68200	4303
2.68267	4302
2.68333	4301
2.68400	4299
2.68467	4298
2.68533	4297
2.68600	4296
2.68667	4294
2.68733	4293
2.68800	4292
2.68867	4291
2.68933	4290
2.69000	4288
2.69067	4287
2.69133	4286
2.69200	4285
2.69267	4283
2.69333	4282
2.69400	4281
2.69467	4280
2.69533	4279
2.69600	4277
2.69667	4276
2.69733	4275
2.69800	4274
2.69867	4273
2.69933	4272
2.70000	4270
2.70067	4269
2.70133	4268
2.70200	4267
2.70267	4266
2.70333	4265
2.70400	4264
2.70467	4263
2.70533	4262
2.70600	4260
2.70667	4259
2.70733	4258
2.70800	4257
2.70867	4256
2.70933	4255
2.71000	4254
2.71067	4253
2.71133	4252
2.71200	4251
2.71267	4250
2.71333	4249
2.71400	4248
2.71467	4247
2.71533	4246
2.71600	4245
2.71667	4244
2.71733	4244
2.71800	4243
2.71867	4242
2.71933	4241
2.72000	4240
2.72067	4239
2.72133	4238
2.72200	4237
2.72267	4236
2.72333	4235
2.72400	4234
2.72467	4233
2.72533	4232
2.72600	4231
2.72667	4230
2.72733	4230
2.72800	4229
2.72867	4228
2.72933	4227
2.73000	4226
2.73067	4225
2.73133	4225
2.73200	4224
2.73267	4223
2.73333	4222
2.73400	4222
2.73467	4221
2.73533	4220
2.73600	4219
2.73667	4219
2.73733	4218
2.73800	4217
2.73867	4217
2.73933	4216
2.74000	4215
2.74067	4215
2.74133	4214
2.74200	4213
2.74267	4213
2.74333	4212
2.74400	4212
2.74467	4211
2.74533	4211
2.74600	4210
2.74667	4209
2.74733	4209
2.74800	4208
2.74867	4208
2.74933	4207
2.75000	4207
2.75067	4207
2.75133	4206
2.75200	4206
2.75267	4206
2.75333	4205
2.75400	4205
2.75467	4205
2.75533	4205
2.75600	4205
2.75667	4205
2.75733	4205
2.75800	4205
2.75867	4205
2.75933	4206
2.76000	4206
2.76067	4206
2.76133	4207
2.76200	4207
2.76267	4207
2.76333	4208
2.76400	4208
2.76467	4209
2.76533	4210
2.76600	4210
2.76667	4211
2.76733	4212
2.76800	4212
2.76867	4213
2.76933	4214
2.77000	4215
2.77067	4216
2.77133	4216
2.77200	4217
2.77267	4218
2.77333	4219
2.77400	4220
2.77467	4221
2.77533	4223
2.77600	4224
2.77667	4225
2.77733	4226
2.77800	4228
2.77867	4229
2.77933	4231
2.78000	4232
2.78067	4234
2.78133	4236
2.78200	4238
2.78267	4239
2.78333	4241
2.78400	4243
2.78467	4245
2.78533	4248
2.78600	4250
2.78667	4252
2.78733	4254
2.78800	4257
2.78867	4259
2.78933	4262
2.79000	4265
2.79067	4267
2.79133	4270
2.79200	4273
2.79267	4276
2.79333	4279
2.79400	4282
2.79467	4285
2.79533	4288
2.79600	4292
2.79667	4295
2.79733	4298
2.79800	4302
2.79867	4305
2.79933	4309
2.80000	4313
2.80067	4317
2.80133	4320
2.80200	4324
2.80267	4328
2.80333	4332
2.80400	4336
2.80467	4340
2.80533	4344
2.80600	4349
2.80667	4353
2.80733	4357
2.80800	4361
2.80867	4365
2.80933	4370
2.81000	4374
2.81067	4378
2.81133	4382
2.81200	4386
2.81267	4390
2.81333	4394
2.81400	4399
2.81467	4403
2.81533	4407
2.81600	4410
2.81667	4414
2.81733	4418
2.81800	4421
2.81867	4425
2.81933	4428
2.82000	4431
2.82067	4434
2.82133	4437
2.82200	4440
2.82267	4443
2.82333	4446
2.82400	4448
2.82467	4451
2.82533	4453
2.82600	4455
2.82667	4457
2.82733	4459
2.82800	4461
2.82867	4462
2.82933	4464
2.83000	4465
2.83067	4466
2.83133	4467
2.83200	4468
2.83267	4469
2.83333	4469
2.83400	4470
2.83467	4470
2.83533	4470
2.83600	4470
2.83667	4469
2.83733	4469
2.83800	4469
2.83867	4468
2.83933	4467
2.84000	4466
2.84067	4465
2.84133	4464
2.84200	4462
2.84267	4461
2.84333	4460
2.84400	4458
2.84467	4456
2.84533	4454
2.84600	4452
2.84667	4450
2.84733	4448
2.84800	4446
2.84867	4444
2.84933	4442
2.85000	4439
2.85067	4437
2.85133	4434
2.85200	4432
2.85267	4430
2.85333	4427
2.85400	4424
2.85467	4422
2.85533	4419
2.85600	4417
2.85667	4414
2.85733	4411
2.85800	4409
2.85867	4406
2.85933	4403
2.86000	4400
2.86067	4397
2.86133	4395
2.86200	4392
2.86267	4389
2.86333	4386
2.86400	4384
2.86467	4381
2.86533	4378
2.86600	4376
2.86667	4373
2.86733	4371
2.86800	4369
2.86867	4366
2.86933	4364
2.87000	4362
2.87067	4359
2.87133	4357
2.87200	4355
2.87267	4353
2.87333	4351
2.87400	4349
2.87467	4347
2.87533	4345
2.87600	4344
2.87667	4342
2.87733	4340
2.87800	4339
2.87867	4337
2.87933	4336
2.88000	4334
2.88067	4333
2.88133	4332
2.88200	4330
2.88267	4329
2.88333	4328
2.88400	4327
2.88467	4326
2.88533	4325
2.88600	4324
2.88667	4324
2.88733	4323
2.88800	4322
2.88867	4322
2.88933	4322
2.89000	4321
2.89067	4321
2.89133	4321
2.89200	4321
2.89267	4321
2.89333	4321
2.89400	4321
2.89467	4321
2.89533	4321
2.89600	4321
2.89667	4321
2.89733	4321
2.89800	4322
2.89867	4322
2.89933	4322
2.90000	4322
2.90067	4323
2.90133	4323
2.90200	4323
2.90267	4323
2.90333	4323
2.90400	4323
2.90467	4323
2.90533	4323
2.90600	4323
2.90667	4323
2.90733	4323
2.90800	4323
2.90867	4322
2.90933	4322
2.91000	4321
2.91067	4321
2.91133	4320
2.91200	4319
2.91267	4318
2.91333	4317
2.91400	4316
2.91467	4315
2.91533	4313
2.91600	4312
2.91667	4310
2.91733	4309
2.91800	4307
2.91867	4305
2.91933	4303
2.92000	4301
2.92067	4299
2.92133	4297
2.92200	4294
2.92267	4292
2.92333	4289
2.92400	4287
2.92467	4284
2.92533	4281
2.92600	4277
2.92667	4274
2.92733	4271
2.92800	4267
2.92867	4264
2.92933	4260
2.93000	4257
2.93067	4253
2.93133	4249
2.93200	4245
2.93267	4241
2.93333	4237
2.93400	4232
2.93467	4228
2.93533	4224
2.93600	4219
2.93667	4215
2.93733	4211
2.93800	4206
2.93867	4202
2.93933	4197
2.94000	4193
2.94067	4188
2.94133	4184
2.94200	4179
2.94267	4174
2.94333	4170
2.94400	4165
2.94467	4161
2.94533	4156
2.94600	4152
2.94667	4147
2.94733	4142
2.94800	4138
2.94867	4133
2.94933	4129
2.95000	4124
2.95067	4120
2.95133	4116
2.95200	4111
2.95267	4107
2.95333	4102
2.95400	4098
2.95467	4094
2.95533	4090
2.95600	4086
2.95667	4082
2.95733	4078
2.95800	4074
2.95867	4070
2.95933	4066
2.96000	4062
2.96067	4058
2.96133	4054
2.96200	4051
2.96267	4047
2.96333	4043
2.96400	4040
2.96467	4036
2.96533	4033
2.96600	4029
2.96667	4026
2.96733	4023
2.96800	4020
2.96867	4017
2.96933	4013
2.97000	4010
2.97067	4007
2.97133	4004
2.97200	4001
2.97267	3998
2.97333	3996
2.97400	3993
2.97467	3990
2.97533	3987
2.97600	3984
2.97667	3982
2.97733	3979
2.97800	3976
2.97867	3974
2.97933	3971
2.98000	3969
2.98067	3966
2.98133	3964
2.98200	3962
2.98267	3959
2.98333	3957
2.98400	3955
2.98467	3952
2.98533	3950
2.98600	3948
2.98667	3946
2.98733	3943
2.98800	3941
2.98867	3939
2.98933	3937
2.99000	3935
2.99067	3932
2.99133	3930
2.99200	3928
2.99267	3926
2.99333	3924
2.99400	3922
2.99467	3920
2.99533	3918
2.99600	3916
2.99667	3914
2.99733	3912
2.99800	3910
2.99867	3908
2.99933	3907
3.00000	3905
3.00067	3903
3.00133	3901
3.00200	3899
3.00267	3897
3.00333	3895
3.00400	3893
3.00467	3891
3.00533	3889
3.00600	3887
3.00667	3885
3.00733	3883
3.00800	3881
3.00867	3879
3.00933	3877
3.01000	3875
3.01067	3873
3.01133	3871
3.01200	3869
3.01267	3867
3.01333	3865
3.01400	3863
3.01467	3861
3.01533	3859
3.01600	3857
3.01667	3856
3.01733	3854
3.01800	3852
3.01867	3850
3.01933	3848
3.02000	3847
3.02067	3845
3.02133	3843
3.02200	3842
3.02267	3840
3.02333	3838
3.02400	3837
3.02467	3835
3.02533	3833
3.02600	3831
3.02667	3830
3.02733	3828
3.02800	3826
3.02867	3825
3.02933	3823
3.03000	3821
3.03067	3820
3.03133	3818
3.03200	3816
3.03267	3815
3.03333	3813
3.03400	3812
3.03467	3810
3.03533	3809
3.03600	3807
3.03667	3806
3.03733	3804
3.03800	3803
3.03867	3801
3.03933	3800
3.04000	3799
3.04067	3797
3.04133	3796
3.04200	3795
3.04267	3794
3.04333	3792
3.04400	3791
3.04467	3790
3.04533	3789
3.04600	3788
3.04667	3787
3.04733	3786
3.04800	3785
3.04867	3784
3.04933	3783
3.05000	3781
3.05067	3780
3.05133	3779
3.05200	3778
3.05267	3777
3.05333	3777
3.05400	3776
3.05467	3775
3.05533	3774
3.05600	3773
3.05667	3772
3.05733	3771
3.05800	3771
3.05867	3770
3.05933	3769
3.06000	3768
3.06067	3767
3.06133	3767
3.06200	3766
3.06267	3765
3.06333	3764
3.06400	3764
3.06467	3763
3.06533	3763
3.06600	3762
3.06667	3762
3.06733	3761
3.06800	3761
3.06867	3760
3.06933	3760
3.07000	3759
3.07067	3759
3.07133	3758
3.07200	3758
3.07267	3758
3.07333	3757
3.07400	3757
3.07467	3757
3.07533	3756
3.07600	3756
3.07667	3756
3.07733	3755
3.07800	3755
3.07867	3755
3.07933	3754
3.08000	3754
3.08067	3754
3.08133	3754
3.08200	3753
3.08267	3753
3.08333	3753
3.08400	3753
3.08467	3752
3.08533	3752
3.08600	3752
3.08667	3751
3.08733	3751
3.08800	3751
3.08867	3750
3.08933	3750
3.09000	3749
3.09067	3749
3.09133	3749
3.09200	3748
3.09267	3748
3.09333	3747
3.09400	3747
3.09467	3746
3.09533	3746
3.09600	3745
3.09667	3744
3.09733	3744
3.09800	3743
3.09867	3743
3.09933	3742
3.10000	3741
3.10067	3741
3.10133	3740
3.10200	3740
3.10267	3739
3.10333	3738
3.10400	3737
3.10467	3737
3.10533	3736
3.10600	3735
3.10667	3735
3.10733	3734
3.10800	3733
3.10867	3732
3.10933	3732
3.11000	3731
3.11067	3730
3.11133	3729
3.11200	3729
3.11267	3728
3.11333	3727
3.11400	3726
3.11467	3725
3.11533	3724
3.11600	3723
3.11667	3722
3.11733	3721
3.11800	3720
3.11867	3720
3.11933	3719
3.12000	3717
3.12067	3716
3.12133	3715
3.12200	3714
3.12267	3713
3.12333	3712
3.12400	3711
3.12467	3710
3.12533	3709
3.12600	3708
3.12667	3707
3.12733	3706
3.12800	3705
3.12867	3704
3.12933	3703
3.13000	3702
3.13067	3701
3.13133	3700
3.13200	3699
3.13267	3698
3.13333	3697
3.13400	3696
3.13467	3695
3.13533	3694
3.13600	3693
3.13667	3692
3.13733	3690
3.13800	3689
3.13867	3688
3.13933	3687
3.14000	3686
3.14067	3685
3.14133	3684
3.14200	3683
3.14267	3682
3.14333	3681
3.14400	3680
3.14467	3679
3.14533	3678
3.14600	3677
3.14667	3676
3.14733	3675
3.14800	3674
3.14867	3673
3.14933	3671
3.15000	3670
3.15067	3670
3.15133	3669
3.15200	3668
3.15267	3667
3.15333	3666
3.15400	3665
3.15467	3664
3.15533	3663
3.15600	3662
3.15667	3661
3.15733	3660
3.15800	3659
3.15867	3658
3.15933	3658
3.16000	3657
3.16067	3656
3.16133	3655
3.16200	3654
3.16267	3653
3.16333	3652
3.16400	3651
3.16467	3650
3.16533	3649
3.16600	3649
3.16667	3648
3.16733	3647
3.16800	3646
3.16867	3645
3.16933	3644
3.17000	3643
3.17067	3642
3.17133	3642
3.17200	3641
3.17267	3640
3.17333	3639
3.17400	3638
3.17467	3638
3.17533	3637
3.17600	3636
3.17667	3635
3.17733	3634
3.17800	3633
3.17867	3633
3.17933	3632
3.18000	3631
3.18067	3630
3.18133	3629
3.18200	3628
3.18267	3628
3.18333	3627
3.18400	3626
3.18467	3625
3.18533	3624
3.18600	3623
3.18667	3622
3.18733	3621
3.18800	3620
3.18867	3620
3.18933	3619
3.19000	3618
3.19067	3617
3.19133	3616
3.19200	3615
3.19267	3614
3.19333	3613
3.19400	3612
3.19467	3611
3.19533	3610
3.19600	3610
3.19667	3609
3.19733	3608
3.19800	3607
3.19867	3606
3.19933	3606
3.20000	3605
3.20067	3604
3.20133	3603
3.20200	3603
3.20267	3602
3.20333	3601
3.20400	3601
3.20467	3600
3.20533	3599
3.20600	3599
3.20667	3598
3.20733	3597
3.20800	3597
3.20867	3596
3.20933	3596
3.21000	3595
3.21067	3595
3.21133	3594
3.21200	3594
3.21267	3593
3.21333	3593
3.21400	3592
3.21467	3592
3.21533	3591
3.21600	3591
3.21667	3590
3.21733	3590
3.21800	3589
3.21867	3589
3.21933	3589
3.22000	3588
3.22067	3588
3.22133	3587
3.22200	3587
3.22267	3587
3.22333	3586
3.22400	3586
3.22467	3586
3.22533	3586
3.22600	3585
3.22667	3585
3.22733	3585
3.22800	3584
3.22867	3584
3.22933	3584
3.23000	3583
3.23067	3583
3.23133	3583
3.23200	3582
3.23267	3582
3.23333	3582
3.23400	3581
3.23467	3581
3.23533	3580
3.23600	3580
3.23667	3580
3.23733	3579
3.23800	3579
3.23867	3578
3.23933	3578
3.24000	3578
3.24067	3577
3.24133	3577
3.24200	3577
3.24267	3576
3.24333	3576
3.24400	3575
3.24467	3575
3.24533	3575
3.24600	3574
3.24667	3574
3.24733	3574
3.24800	3573
3.24867	3573
3.24933	3573
3.25000	3572
3.25067	3572
3.25133	3572
3.25200	3571
3.25267	3571
3.25333	3570
3.25400	3570
3.25467	3570
3.25533	3569
3.25600	3569
3.25667	3568
3.25733	3568
3.25800	3567
3.25867	3567
3.25933	3566
3.26000	3566
3.26067	3565
3.26133	3565
3.26200	3564
3.26267	3564
3.26333	3563
3.26400	3562
3.26467	3562
3.26533	3561
3.26600	3561
3.26667	3560
3.26733	3560
3.26800	3559
3.26867	3559
3.26933	3558
3.27000	3558
3.27067	3557
3.27133	3557
3.27200	3556
3.27267	3555
3.27333	3555
3.27400	3554
3.27467	3554
3.27533	3553
3.27600	3552
3.27667	3552
3.27733	3551
3.27800	3551
3.27867	3550
3.27933	3550
3.28000	3549
3.28067	3549
3.28133	3548
3.28200	3548
3.28267	3547
3.28333	3547
3.28400	3546
3.28467	3545
3.28533	3545
3.28600	3544
3.28667	3543
3.28733	3542
3.28800	3542
3.28867	3541
3.28933	3540
3.29000	3540
3.29067	3539
3.29133	3539
3.29200	3538
3.29267	3537
3.29333	3537
3.29400	3536
3.29467	3535
3.29533	3535
3.29600	3534
3.29667	3533
3.29733	3533
3.29800	3532
3.29867	3531
3.29933	3530
3.30000	3530
3.30067	3529
3.30133	3529
3.30200	3528
3.30267	3527
3.30333	3527
3.30400	3526
3.30467	3525
3.30533	3525
3.30600	3524
3.30667	3523
3.30733	3523
3.30800	3522
3.30867	3521
3.30933	3521
3.31000	3520
3.31067	3520
3.31133	3519
3.31200	3518
3.31267	3518
3.31333	3517
3.31400	3517
3.31467	3516
3.31533	3516
3.31600	3515
3.31667	3515
3.31733	3514
3.31800	3514
3.31867	3513
3.31933	3513
3.32000	3512
3.32067	3512
3.32133	3511
3.32200	3511
3.32267	3511
3.32333	3510
3.32400	3510
3.32467	3510
3.32533	3509
3.32600	3509
3.32667	3509
3.32733	3509
3.32800	3509
3.32867	3509
3.32933	3508
3.33000	3508
3.33067	3508
3.33133	3508
3.33200	3508
3.33267	3508
3.33333	3508
3.33400	3508
3.33467	3508
3.33533	3508
3.33600	3508
3.33667	3508
3.33733	3508
3.33800	3508
3.33867	3508
3.33933	3508
3.34000	3508
3.34067	3508
3.34133	3508
3.34200	3508
3.34267	3508
3.34333	3508
3.34400	3508
3.34467	3508
3.34533	3509
3.34600	3509
3.34667	3509
3.34733	3509
3.34800	3509
3.34867	3509
3.34933	3509
3.35000	3509
3.35067	3509
3.35133	3509
3.35200	3509
3.35267	3509
3.35333	3509
3.35400	3509
3.35467	3509
3.35533	3509
3.35600	3509
3.35667	3509
3.35733	3509
3.35800	3509
3.35867	3509
3.35933	3509
3.36000	3509
3.36067	3509
3.36133	3509
3.36200	3509
3.36267	3509
3.36333	3509
3.36400	3509
3.36467	3509
3.36533	3510
3.36600	3510
3.36667	3510
3.36733	3510
3.36800	3510
3.36867	3510
3.36933	3510
3.37000	3510
3.37067	3510
3.37133	3510
3.37200	3511
3.37267	3511
3.37333	3511
3.37400	3511
3.37467	3512
3.37533	3512
3.37600	3512
3.37667	3512
3.37733	3513
3.37800	3513
3.37867	3513
3.37933	3513
3.38000	3513
3.38067	3513
3.38133	3514
3.38200	3514
3.38267	3514
3.38333	3514
3.38400	3515
3.38467	3515
3.38533	3515
3.38600	3515
3.38667	3516
3.38733	3516
3.38800	3516
3.38867	3517
3.38933	3517
3.39000	3517
3.39067	3518
3.39133	3518
3.39200	3519
3.39267	3519
3.39333	3519
3.39400	3520
3.39467	3520
3.39533	3521
3.39600	3521
3.39667	3522
3.39733	3522
3.39800	3523
3.39867	3523
3.39933	3524
3.40000	3524
3.40067	3525
3.40133	3525
3.40200	3526
3.40267	3526
3.40333	3527
3.40400	3527
3.40467	3528
3.40533	3529
3.40600	3529
3.40667	3530
3.40733	3531
3.40800	3531
3.40867	3532
3.40933	3533
3.41000	3534
3.41067	3534
3.41133	3535
3.41200	3536
3.41267	3537
3.41333	3537
3.41400	3538
3.41467	3539
3.41533	3540
3.41600	3541
3.41667	3542
3.41733	3543
3.41800	3544
3.41867	3545
3.41933	3546
3.42000	3547
3.42067	3548
3.42133	3549
3.42200	3550
3.42267	3551
3.42333	3552
3.42400	3553
3.42467	3554
3.42533	3556
3.42600	3557
3.42667	3558
3.42733	3560
3.42800	3561
3.42867	3563
3.42933	3564
3.43000	3566
3.43067	3568
3.43133	3569
3.43200	3571
3.43267	3573
3.43333	3574
3.43400	3576
3.43467	3578
3.43533	3580
3.43600	3582
3.43667	3584
3.43733	3586
3.43800	3588
3.43867	3590
3.43933	3593
3.44000	3595
3.44067	3597
3.44133	3600
3.44200	3602
3.44267	3605
3.44333	3607
3.44400	3610
3.44467	3613
3.44533	3615
3.44600	3618
3.44667	3621
3.44733	3624
3.44800	3627
3.44867	3629
3.44933	3632
3.45000	3636
3.45067	3639
3.45133	3642
3.45200	3645
3.45267	3648
3.45333	3652
3.45400	3655
3.45467	3659
3.45533	3663
3.45600	3666
3.45667	3670
3.45733	3674
3.45800	3678
3.45867	3682
3.45933	3686
3.46000	3690
3.46067	3694
3.46133	3698
3.46200	3703
3.46267	3707
3.46333	3711
3.46400	3716
3.46467	3720
3.46533	3725
3.46600	3729
3.46667	3734
3.46733	3739
3.46800	3744
3.46867	3749
3.46933	3753
3.47000	3758
3.47067	3763
3.47133	3768
3.47200	3773
3.47267	3778
3.47333	3784
3.47400	3789
3.47467	3794
3.47533	3799
3.47600	3804
3.47667	3809
3.47733	3815
3.47800	3820
3.47867	3825
3.47933	3830
3.48000	3835
3.48067	3841
3.48133	3846
3.48200	3851
3.48267	3856
3.48333	3862
3.48400	3867
3.48467	3872
3.48533	3878
3.48600	3883
3.48667	3889
3.48733	3894
3.48800	3900
3.48867	3905
3.48933	3911
3.49000	3917
3.49067	3923
3.49133	3928
3.49200	3934
3.49267	3940
3.49333	3947
3.49400	3953
3.49467	3959
3.49533	3966
3.49600	3973
3.49667	3980
3.49733	3987
3.49800	3994
3.49867	4002
3.49933	4010
3.50000	4018
3.50067	4026
3.50133	4035
3.50200	4043
3.50267	4053
3.50333	4062
3.50400	4072
3.50467	4081
3.50533	4092
3.50600	4102
3.50667	4113
3.50733	4124
3.50800	4136
3.50867	4148
3.50933	4160
3.51000	4173
3.51067	4186
3.51133	4200
3.51200	4214
3.51267	4229
3.51333	4244
3.51400	4260
3.51467	4276
3.51533	4293
3.51600	4310
3.51667	4328
3.51733	4346
3.51800	4365
3.51867	4385
3.51933	4405
3.52000	4425
3.52067	4447
3.52133	4469
3.52200	4491
3.52267	4515
3.52333	4539
3.52400	4563
3.52467	4588
3.52533	4614
3.52600	4641
3.52667	4668
3.52733	4696
3.52800	4725
3.52867	4754
3.52933	4784
3.53000	4814
3.53067	4845
3.53133	4877
3.53200	4909
3.53267	4941
3.53333	4974
3.53400	5007
3.53467	5041
3.53533	5075
3.53600	5110
3.53667	5145
3.53733	5180
3.53800	5216
3.53867	5252
3.53933	5288
3.54000	5324
3.54067	5360
3.54133	5397
3.54200	5434
3.54267	5470
3.54333	5507
3.54400	5544
3.54467	5581
3.54533	5617
3.54600	5654
3.54667	5691
3.54733	5727
3.54800	5763
3.54867	5799
3.54933	5835
3.55000	5870
3.55067	5906
3.55133	5940
3.55200	5975
3.55267	6009
3.55333	6042
3.55400	6075
3.55467	6108
3.55533	6139
3.55600	6171
3.55667	6201
3.55733	6231
3.55800	6260
3.55867	6289
3.55933	6316
3.56000	6343
3.56067	6369
3.56133	6395
3.56200	6419
3.56267	6442
3.56333	6465
3.56400	6486
3.56467	6507
3.56533	6527
3.56600	6546
3.56667	6564
3.56733	6581
3.56800	6597
3.56867	6612
3.56933	6626
3.57000	6639
3.57067	6652
3.57133	6663
3.57200	6674
3.57267	6683
3.57333	6692
3.57400	6699
3.57467	6706
3.57533	6712
3.57600	6717
3.57667	6720
3.57733	6723
3.57800	6725
3.57867	6726
3.57933	6727
3.58000	6726
3.58067	6724
3.58133	6722
3.58200	6719
3.58267	6715
3.58333	6711
3.58400	6705
3.58467	6699
3.58533	6693
3.58600	6685
3.58667	6677
3.58733	6669
3.58800	6660
3.58867	6650
3.58933	6640
3.59000	6629
3.59067	6618
3.59133	6606
3.59200	6594
3.59267	6581
3.59333	6568
3.59400	6555
3.59467	6541
3.59533	6526
3.59600	6512
3.59667	6497
3.59733	6481
3.59800	6466
3.59867	6450
3.59933	6434
3.60000	6417
3.60067	6401
3.60133	6384
3.60200	6367
3.60267	6350
3.60333	6332
3.60400	6315
3.60467	6297
3.60533	6279
3.60600	6262
3.60667	6244
3.60733	6225
3.60800	6207
3.60867	6189
3.60933	6170
3.61000	6152
3.61067	6133
3.61133	6115
3.61200	6096
3.61267	6077
3.61333	6059
3.61400	6040
3.61467	6021
3.61533	6002
3.61600	5983
3.61667	5963
3.61733	5944
3.61800	5925
3.61867	5906
3.61933	5886
3.62000	5867
3.62067	5847
3.62133	5827
3.62200	5808
3.62267	5788
3.62333	5768
3.62400	5748
3.62467	5728
3.62533	5708
3.62600	5688
3.62667	5668
3.62733	5648
3.62800	5628
3.62867	5608
3.62933	5588
3.63000	5568
3.63067	5548
3.63133	5527
3.63200	5507
3.63267	5487
3.63333	5467
3.63400	5447
3.63467	5426
3.63533	5406
3.63600	5386
3.63667	5366
3.63733	5345
3.63800	5325
3.63867	5305
3.63933	5285
3.64000	5264
3.64067	5244
3.64133	5224
3.64200	5204
3.64267	5184
3.64333	5164
3.64400	5144
3.64467	5124
3.64533	5104
3.64600	5084
3.64667	5064
3.64733	5044
3.64800	5025
3.64867	5005
3.64933	4985
3.65000	4966
3.65067	4946
3.65133	4927
3.65200	4908
3.65267	4889
3.65333	4869
3.65400	4850
3.65467	4832
3.65533	4813
3.65600	4794
3.65667	4776
3.65733	4757
3.65800	4739
3.65867	4721
3.65933	4703
3.66000	4685
3.66067	4667
3.66133	4650
3.66200	4633
3.66267	4615
3.66333	4598
3.66400	4581
3.66467	4564
3.66533	4548
3.66600	4531
3.66667	4515
3.66733	4499
3.66800	4483
3.66867	4467
3.66933	4451
3.67000	4436
3.67067	4421
3.67133	4405
3.67200	4390
3.67267	4376
3.67333	4361
3.67400	4347
3.67467	4333
3.67533	4319
3.67600	4305
3.67667	4291
3.67733	4278
3.67800	4264
3.67867	4251
3.67933	4238
3.68000	4225
3.68067	4212
3.68133	4200
3.68200	4187
3.68267	4175
3.68333	4163
3.68400	4151
3.68467	4139
3.68533	4127
3.68600	4116
3.68667	4105
3.68733	4094
3.68800	4083
3.68867	4072
3.68933	4061
3.69000	4051
3.69067	4040
3.69133	4030
3.69200	4020
3.69267	4010
3.69333	4001
3.69400	3991
3.69467	3982
3.69533	3973
3.69600	3963
3.69667	3955
3.69733	3946
3.69800	3937
3.69867	3929
3.69933	3920
3.70000	3912
3.70067	3904
3.70133	3896
3.70200	3888
3.70267	3880
3.70333	3872
3.70400	3865
3.70467	3858
3.70533	3850
3.70600	3843
3.70667	3837
3.70733	3830
3.70800	3823
3.70867	3817
3.70933	3810
3.71000	3804
3.71067	3798
3.71133	3791
3.71200	3785
3.71267	3780
3.71333	3774
3.71400	3768
3.71467	3762
3.71533	3757
3.71600	3751
3.71667	3746
3.71733	3741
3.71800	3736
3.71867	3731
3.71933	3725
3.72000	3721
3.72067	3716
3.72133	3711
3.72200	3706
3.72267	3702
3.72333	3697
3.72400	3692
3.72467	3688
3.72533	3683
3.72600	3679
3.72667	3675
3.72733	3671
3.72800	3666
3.72867	3662
3.72933	3658
3.73000	3654
3.73067	3650
3.73133	3646
3.73200	3643
3.73267	3639
3.73333	3635
3.73400	3631
3.73467	3628
3.73533	3624
3.73600	3621
3.73667	3617
3.73733	3614
3.73800	3610
3.73867	3607
3.73933	3604
3.74000	3600
3.74067	3597
3.74133	3594
3.74200	3591
3.74267	3588
3.74333	3584
3.74400	3581
3.74467	3578
3.74533	3575
3.74600	3572
3.74667	3569
3.74733	3566
3.74800	3563
3.74867	3561
3.74933	3558
3.75000	3555
3.75067	3552
3.75133	3549
3.75200	3547
3.75267	3544
3.75333	3541
3.75400	3539
3.75467	3536
3.75533	3533
3.75600	3531
3.75667	3528
3.75733	3526
3.75800	3523
3.75867	3521
3.75933	3518
3.76000	3516
3.76067	3514
3.76133	3511
3.76200	3509
3.76267	3507
3.76333	3504
3.76400	3502
3.76467	3500
3.76533	3497
3.76600	3495
3.76667	3493
3.76733	3491
3.76800	3488
3.76867	3486
3.76933	3484
3.77000	3482
3.77067	3480
3.77133	3477
3.77200	3475
3.77267	3473
3.77333	3471
3.77400	3469
3.77467	3467
3.77533	3465
3.77600	3464
3.77667	3462
3.77733	3460
3.77800	3458
3.77867	3456
3.77933	3455
3.78000	3453
3.78067	3452
3.78133	3450
3.78200	3448
3.78267	3447
3.78333	3445
3.78400	3444
3.78467	3442
3.78533	3441
3.78600	3439
3.78667	3438
3.78733	3437
3.78800	3435
3.78867	3434
3.78933	3432
3.79000	3431
3.79067	3430
3.79133	3428
3.79200	3427
3.79267	3426
3.79333	3425
3.79400	3423
3.79467	3422
3.79533	3421
3.79600	3419
3.79667	3418
3.79733	3417
3.79800	3415
3.79867	3414
3.79933	3413
3.80000	3411
3.80067	3410
3.80133	3409
3.80200	3407
3.80267	3406
3.80333	3405
3.80400	3404
3.80467	3403
3.80533	3401
3.80600	3400
3.80667	3399
3.80733	3398
3.80800	3396
3.80867	3395
3.80933	3394
3.81000	3393
3.81067	3392
3.81133	3390
3.81200	3389
3.81267	3388
3.81333	3387
3.81400	3385
3.81467	3384
3.81533	3383
3.81600	3381
3.81667	3380
3.81733	3379
3.81800	3378
3.81867	3376
3.81933	3375
3.82000	3374
3.82067	3372
3.82133	3371
3.82200	3370
3.82267	3368
3.82333	3367
3.82400	3366
3.82467	3364
3.82533	3363
3.82600	3362
3.82667	3360
3.82733	3359
3.82800	3358
3.82867	3357
3.82933	3355
3.83000	3354
3.83067	3353
3.83133	3352
3.83200	3351
3.83267	3350
3.83333	3349
3.83400	3347
3.83467	3346
3.83533	3345
3.83600	3344
3.83667	3343
3.83733	3342
3.83800	3341
3.83867	3339
3.83933	3338
3.84000	3337
3.84067	3336
3.84133	3335
3.84200	3334
3.84267	3333
3.84333	3332
3.84400	3330
3.84467	3329
3.84533	3328
3.84600	3327
3.84667	3326
3.84733	3325
3.84800	3324
3.84867	3323
3.84933	3322
3.85000	3321
3.85067	3320
3.85133	3319
3.85200	3318
3.85267	3317
3.85333	3316
3.85400	3315
3.85467	3314
3.85533	3313
3.85600	3312
3.85667	3311
3.85733	3310
3.85800	3309
3.85867	3308
3.85933	3307
3.86000	3306
3.86067	3306
3.86133	3305
3.86200	3304
3.86267	3303
3.86333	3302
3.86400	3301
3.86467	3301
3.86533	3300
3.86600	3299
3.86667	3299
3.86733	3298
3.86800	3297
3.86867	3297
3.86933	3296
3.87000	3295
3.87067	3295
3.87133	3294
3.87200	3294
3.87267	3293
3.87333	3292
3.87400	3292
3.87467	3291
3.87533	3291
3.87600	3291
3.87667	3290
3.87733	3290
3.87800	3289
3.87867	3289
3.87933	3288
3.88000	3288
3.88067	3288
3.88133	3287
3.88200	3287
3.88267	3286
3.88333	3286
3.88400	3286
3.88467	3285
3.88533	3285
3.88600	3284
3.88667	3284
3.88733	3284
3.88800	3283
3.88867	3283
3.88933	3282
3.89000	3282
3.89067	3282
3.89133	3281
3.89200	3281
3.89267	3280
3.89333	3280
3.89400	3279
3.89467	3279
3.89533	3279
3.89600	3278
3.89667	3278
3.89733	3277
3.89800	3277
3.89867	3276
3.89933	3276
3.90000	3275
3.90067	3275
3.90133	3274
3.90200	3274
3.90267	3273
3.90333	3273
3.90400	3272
3.90467	3272
3.90533	3272
3.90600	3271
3.90667	3271
3.90733	3270
3.90800	3270
3.90867	3269
3.90933	3269
3.91000	3268
3.91067	3268
3.91133	3267
3.91200	3267
3.91267	3266
3.91333	3266
3.91400	3265
3.91467	3265
3.91533	3264
3.91600	3264
3.91667	3264
3.91733	3263
3.91800	3263
3.91867	3262
3.91933	3262
3.92000	3261
3.92067	3260
3.92133	3260
3.92200	3259
3.92267	3259
3.92333	3258
3.92400	3258
3.92467	3257
3.92533	3256
3.92600	3256
3.92667	3255
3.92733	3254
3.92800	3254
3.92867	3253
3.92933	3253
3.93000	3252
3.93067	3252
3.93133	3251
3.93200	3250
3.93267	3250
3.93333	3249
3.93400	3249
3.93467	3249
3.93533	3248
3.93600	3248
3.93667	3247
3.93733	3247
3.93800	3246
3.93867	3246
3.93933	3246
3.94000	3245
3.94067	3245
3.94133	3244
3.94200	3244
3.94267	3243
3.94333	3243
3.94400	3243
3.94467	3242
3.94533	3242
3.94600	3241
3.94667	3241
3.94733	3240
3.94800	3240
3.94867	3240
3.94933	3239
3.95000	3239
3.95067	3238
3.95133	3238
3.95200	3238
3.95267	3237
3.95333	3237
3.95400	3237
3.95467	3237
3.95533	3236
3.95600	3236
3.95667	3236
3.95733	3236
3.95800	3235
3.95867	3235
3.95933	3235
3.96000	3235
3.96067	3234
3.96133	3234
3.96200	3234
3.96267	3234
3.96333	3234
3.96400	3233
3.96467	3233
3.96533	3233
3.96600	3233
3.96667	3233
3.96733	3232
3.96800	3232
3.96867	3232
3.96933	3232
3.97000	3232
3.97067	3231
3.97133	3231
3.97200	3231
3.97267	3231
3.97333	3231
3.97400	3231
3.97467	3231
3.97533	3231
3.97600	3230
3.97667	3230
3.97733	3230
3.97800	3230
3.97867	3230
3.97933	3230
3.98000	3230
3.98067	3230
3.98133	3230
3.98200	3229
3.98267	3229
3.98333	3229
3.98400	3229
3.98467	3229
3.98533	3230
3.98600	3230
3.98667	3230
3.98733	3230
3.98800	3230
3.98867	3231
3.98933	3231
3.99000	3232
3.99067	3232
3.99133	3232
3.99200	3233
3.99267	3233
3.99333	3234
3.99400	3234
3.99467	3235
3.99533	3236
3.99600	3236
3.99667	3237
3.99733	3237
3.99800	3238
3.99867	3239
3.99933	3240
4.00000	3240
4.00067	3241
4.00133	3242
4.00200	3243
4.00267	3244
4.00333	3246
4.00400	3247
4.00467	3248
4.00533	3249
4.00600	3251
4.00667	3252
4.00733	3254
4.00800	3255
4.00867	3257
4.00933	3259
4.01000	3261
4.01067	3263
4.01133	3265
4.01200	3267
4.01267	3269
4.01333	3271
4.01400	3273
4.01467	3276
4.01533	3278
4.01600	3280
4.01667	3283
4.01733	3285
4.01800	3288
4.01867	3291
4.01933	3293
4.02000	3296
4.02067	3299
4.02133	3302
4.02200	3305
4.02267	3308
4.02333	3311
4.02400	3314
4.02467	3318
4.02533	3321
4.02600	3324
4.02667	3328
4.02733	3331
4.02800	3335
4.02867	3339
4.02933	3342
4.03000	3346
4.03067	3350
4.03133	3354
4.03200	3359
4.03267	3363
4.03333	3367
4.03400	3372
4.03467	3376
4.03533	3381
4.03600	3385
4.03667	3390
4.03733	3395
4.03800	3400
4.03867	3405
4.03933	3410
4.04000	3415
4.04067	3420
4.04133	3425
4.04200	3430
4.04267	3435
4.04333	3440
4.04400	3446
4.04467	3451
4.04533	3456
4.04600	3462
4.04667	3467
4.04733	3473
4.04800	3478
4.04867	3484
4.04933	3490
4.05000	3495
4.05067	3501
4.05133	3507
4.05200	3513
4.05267	3518
4.05333	3524
4.05400	3530
4.05467	3535
4.05533	3541
4.05600	3547
4.05667	3552
4.05733	3558
4.05800	3563
4.05867	3569
4.05933	3575
4.06000	3580
4.06067	3586
4.06133	3591
4.06200	3597
4.06267	3602
4.06333	3607
4.06400	3613
4.06467	3618
4.06533	3623
4.06600	3628
4.06667	3633
4.06733	3639
4.06800	3644
4.06867	3649
4.06933	3654
4.07000	3659
4.07067	3664
4.07133	3669
4.07200	3673
4.07267	3678
4.07333	3683
4.07400	3687
4.07467	3692
4.07533	3696
4.07600	3701
4.07667	3705
4.07733	3709
4.07800	3713
4.07867	3717
4.07933	3721
4.08000	3725
4.08067	3729
4.08133	3733
4.08200	3737
4.08267	3740
4.08333	3744
4.08400	3747
4.08467	3751
4.08533	3754
4.08600	3757
4.08667	3761
4.08733	3764
4.08800	3767
4.08867	3770
4.08933	3772
4.09000	3775
4.09067	3778
4.09133	3780
4.09200	3783
4.09267	3785
4.09333	3788
4.09400	3790
4.09467	3792
4.09533	3794
4.09600	3796
4.09667	3798
4.09733	3800
4.09800	3801
4.09867	3803
4.09933	3804
4.10000	3806
4.10067	3807
4.10133	3808
4.10200	3809
4.10267	3810
4.10333	3811
4.10400	3812
4.10467	3813
4.10533	3814
4.10600	3814
4.10667	3815
4.10733	3816
4.10800	3816
4.10867	3817
4.10933	3817
4.11000	3817
4.11067	3818
4.11133	3818
4.11200	3818
4.11267	3818
4.11333	3819
4.11400	3819
4.11467	3819
4.11533	3819
4.11600	3819
4.11667	3819
4.11733	3819
4.11800	3819
4.11867	3819
4.11933	3819
4.12000	3819
4.12067	3819
4.12133	3819
4.12200	3819
4.12267	3819
4.12333	3819
4.12400	3819
4.12467	3819
4.12533	3819
4.12600	3818
4.12667	3818
4.12733	3818
4.12800	3818
4.12867	3818
4.12933	3817
4.13000	3817
4.13067	3817
4.13133	3817
4.13200	3816
4.13267	3816
4.13333	3816
4.13400	3815
4.13467	3815
4.13533	3815
4.13600	3815
4.13667	3814
4.13733	3814
4.13800	3814
4.13867	3813
4.13933	3813
4.14000	3813
4.14067	3812
4.14133	3812
4.14200	3812
4.14267	3811
4.14333	3811
4.14400	3811
4.14467	3810
4.14533	3810
4.14600	3810
4.14667	3809
4.14733	3809
4.14800	3809
4.14867	3809
4.14933	3808
4.15000	3808
4.15067	3808
4.15133	3807
4.15200	3807
4.15267	3807
4.15333	3807
4.15400	3806
4.15467	3806
4.15533	3806
4.15600	3805
4.15667	3805
4.15733	3805
4.15800	3804
4.15867	3804
4.15933	3804
4.16000	3803
4.16067	3803
4.16133	3803
4.16200	3802
4.16267	3802
4.16333	3801
4.16400	3801
4.16467	3800
4.16533	3800
4.16600	3799
4.16667	3799
4.16733	3798
4.16800	3798
4.16867	3797
4.16933	3797
4.17000	3796
4.17067	3795
4.17133	3794
4.17200	3794
4.17267	3793
4.17333	3792
4.17400	3792
4.17467	3791
4.17533	3790
4.17600	3790
4.17667	3789
4.17733	3788
4.17800	3788
4.17867	3787
4.17933	3786
4.18000	3786
4.18067	3785
4.18133	3785
4.18200	3784
4.18267	3783
4.18333	3783
4.18400	3782
4.18467	3782
4.18533	3781
4.18600	3781
4.18667	3780
4.18733	3780
4.18800	3779
4.18867	3779
4.18933	3779
4.19000	3778
4.19067	3778
4.19133	3778
4.19200	3777
4.19267	3777
4.19333	3777
4.19400	3777
4.19467	3777
4.19533	3777
4.19600	3777
4.19667	3777
4.19733	3777
4.19800	3777
4.19867	3778
4.19933	3778
4.20000	3778
4.20067	3779
4.20133	3780
4.20200	3781
4.20267	3782
4.20333	3783
4.20400	3784
4.20467	3785
4.20533	3786
4.20600	3788
4.20667	3789
4.20733	3791
4.20800	3793
4.20867	3795
4.20933	3797
4.21000	3799
4.21067	3802
4.21133	3804
4.21200	3807
4.21267	3810
4.21333	3813
4.21400	3816
4.21467	3819
4.21533	3823
4.21600	3827
4.21667	3831
4.21733	3835
4.21800	3840
4.21867	3845
4.21933	3850
4.22000	3855
4.22067	3860
4.22133	3866
4.22200	3872
4.22267	3878
4.22333	3885
4.22400	3892
4.22467	3899
4.22533	3906
4.22600	3914
4.22667	3921
4.22733	3930
4.22800	3938
4.22867	3947
4.22933	3956
4.23000	3966
4.23067	3976
4.23133	3986
4.23200	3997
4.23267	4008
4.23333	4019
4.23400	4031
4.23467	4043
4.23533	4055
4.23600	4068
4.23667	4081
4.23733	4095
4.23800	4108
4.23867	4123
4.23933	4137
4.24000	4152
4.24067	4167
4.24133	4183
4.24200	4199
4.24267	4215
4.24333	4232
4.24400	4249
4.24467	4267
4.24533	4285
4.24600	4303
4.24667	4322
4.24733	4341
4.24800	4361
4.24867	4381
4.24933	4401
4.25000	4422
4.25067	4443
4.25133	4465
4.25200	4487
4.25267	4509
4.25333	4532
4.25400	4555
4.25467	4578
4.25533	4602
4.25600	4626
4.25667	4651
4.25733	4676
4.25800	4701
4.25867	4727
4.25933	4753
4.26000	4780
4.26067	4807
4.26133	4834
4.26200	4862
4.26267	4890
4.26333	4918
4.26400	4947
4.26467	4975
4.26533	5005
4.26600	5034
4.26667	5064
4.26733	5094
4.26800	5125
4.26867	5156
4.26933	5187
4.27000	5218
4.27067	5250
4.27133	5282
4.27200	5314
4.27267	5346
4.27333	5379
4.27400	5412
4.27467	5445
4.27533	5478
4.27600	5512
4.27667	5546
4.27733	5580
4.27800	5614
4.27867	5648
4.27933	5683
4.28000	5718
4.28067	5753
4.28133	5788
4.28200	5823
4.28267	5859
4.28333	5894
4.28400	5930
4.28467	5966
4.28533	6002
4.28600	6038
4.28667	6074
4.28733	6110
4.28800	6146
4.28867	6183
4.28933	6219
4.29000	6255
4.29067	6292
4.29133	6328
4.29200	6365
4.29267	6401
4.29333	6438
4.29400	6474
4.29467	6511
4.29533	6547
4.29600	6583
4.29667	6620
4.29733	6656
4.29800	6692
4.29867	6729
4.29933	6765
4.30000	6801
4.30067	6837
4.30133	6873
4.30200	6909
4.30267	6945
4.30333	6980
4.30400	7016
4.30467	7051
4.30533	7087
4.30600	7122
4.30667	7156
4.30733	7191
4.30800	7225
4.30867	7259
4.30933	7293
4.31000	7327
4.31067	7360
4.31133	7392
4.31200	7425
4.31267	7456
4.31333	7488
4.31400	7519
4.31467	7549
4.31533	7579
4.31600	7609
4.31667	7638
4.31733	7666
4.31800	7694
4.31867	7721
4.31933	7748
4.32000	7774
4.32067	7800
4.32133	7825
4.32200	7849
4.32267	7873
4.32333	7897
4.32400	7919
4.32467	7942
4.32533	7963
4.32600	7984
4.32667	8005
4.32733	8025
4.32800	8044
4.32867	8063
4.32933	8081
4.33000	8099
4.33067	8116
4.33133	8132
4.33200	8148
4.33267	8163
4.33333	8178
4.33400	8192
4.33467	8205
4.33533	8218
4.33600	8230
4.33667	8241
4.33733	8252
4.33800	8262
4.33867	8272
4.33933	8281
4.34000	8289
4.34067	8297
4.34133	8304
4.34200	8311
4.34267	8317
4.34333	8322
4.34400	8327
4.34467	8332
4.34533	8336
4.34600	8339
4.34667	8342
4.34733	8345
4.34800	8347
4.34867	8349
4.34933	8351
4.35000	8352
4.35067	8353
4.35133	8354
4.35200	8354
4.35267	8354
4.35333	8354
4.35400	8353
4.35467	8353
4.35533	8352
4.35600	8351
4.35667	8350
4.35733	8349
4.35800	8348
4.35867	8347
4.35933	8346
4.36000	8345
4.36067	8344
4.36133	8344
4.36200	8343
4.36267	8343
4.36333	8343
4.36400	8343
4.36467	8343
4.36533	8344
4.36600	8346
4.36667	8348
4.36733	8350
4.36800	8354
4.36867	8357
4.36933	8362
4.37000	8367
4.37067	8373
4.37133	8380
4.37200	8387
4.37267	8395
4.37333	8405
4.37400	8415
4.37467	8425
4.37533	8437
4.37600	8450
4.37667	8464
4.37733	8479
4.37800	8495
4.37867	8513
4.37933	8531
4.38000	8551
4.38067	8571
4.38133	8594
4.38200	8617
4.38267	8642
4.38333	8668
4.38400	8696
4.38467	8725
4.38533	8756
4.38600	8788
4.38667	8821
4.38733	8856
4.38800	8893
4.38867	8931
4.38933	8971
4.39000	9012
4.39067	9054
4.39133	9099
4.39200	9144
4.39267	9192
4.39333	9241
4.39400	9291
4.39467	9343
4.39533	9397
4.39600	9452
4.39667	9510
4.39733	9568
4.39800	9629
4.39867	9691
4.39933	9755
4.40000	9820
4.40067	9887
4.40133	9956
4.40200	10026
4.40267	10098
4.40333	10171
4.40400	10246
4.40467	10322
4.40533	10400
4.40600	10479
4.40667	10560
4.40733	10642
4.40800	10725
4.40867	10809
4.40933	10894
4.41000	10981
4.41067	11069
4.41133	11157
4.41200	11247
4.41267	11337
4.41333	11429
4.41400	11521
4.41467	11614
4.41533	11708
4.41600	11803
4.41667	11898
4.41733	11994
4.41800	12091
4.41867	12188
4.41933	12286
4.42000	12384
4.42067	12483
4.42133	12581
4.42200	12681
4.42267	12780
4.42333	12879
4.42400	12979
4.42467	13078
4.42533	13177
4.42600	13277
4.42667	13376
4.42733	13474
4.42800	13572
4.42867	13670
4.42933	13767
4.43000	13864
4.43067	13959
4.43133	14054
4.43200	14148
4.43267	14241
4.43333	14333
4.43400	14424
4.43467	14514
4.43533	14602
4.43600	14690
4.43667	14775
4.43733	14860
4.43800	14942
4.43867	15023
4.43933	15103
4.44000	15181
4.44067	15257
4.44133	15331
4.44200	15403
4.44267	15473
4.44333	15542
4.44400	15608
4.44467	15671
4.44533	15733
4.44600	15793
4.44667	15850
4.44733	15905
4.44800	15957
4.44867	16007
4.44933	16055
4.45000	16100
4.45067	16143
4.45133	16183
4.45200	16221
4.45267	16256
4.45333	16288
4.45400	16318
4.45467	16346
4.45533	16370
4.45600	16392
4.45667	16412
4.45733	16428
4.45800	16442
4.45867	16453
4.45933	16462
4.46000	16467
4.46067	16470
4.46133	16470
4.46200	16467
4.46267	16462
4.46333	16454
4.46400	16444
4.46467	16430
4.46533	16415
4.46600	16396
4.46667	16375
4.46733	16352
4.46800	16326
4.46867	16297
4.46933	16266
4.47000	16233
4.47067	16197
4.47133	16159
4.47200	16119
4.47267	16076
4.47333	16031
4.47400	15984
4.47467	15935
4.47533	15883
4.47600	15830
4.47667	15775
4.47733	15718
4.47800	15659
4.47867	15598
4.47933	15536
4.48000	15472
4.48067	15406
4.48133	15339
4.48200	15270
4.48267	15200
4.48333	15128
4.48400	15055
4.48467	14980
4.48533	14905
4.48600	14828
4.48667	14750
4.48733	14671
4.48800	14591
4.48867	14509
4.48933	14427
4.49000	14344
4.49067	14261
4.49133	14176
4.49200	14091
4.49267	14006
4.49333	13920
4.49400	13834
4.49467	13747
4.49533	13660
4.49600	13573
4.49667	13485
4.49733	13398
4.49800	13311
4.49867	13223
4.49933	13136
4.50000	13050
4.50067	12963
4.50133	12877
4.50200	12791
4.50267	12706
4.50333	12622
4.50400	12538
4.50467	12454
4.50533	12372
4.50600	12290
4.50667	12210
4.50733	12130
4.50800	12052
4.50867	11974
4.50933	11898
4.51000	11824
4.51067	11750
4.51133	11679
4.51200	11608
4.51267	11540
4.51333	11473
4.51400	11407
4.51467	11344
4.51533	11282
4.51600	11222
4.51667	11164
4.51733	11108
4.51800	11054
4.51867	11003
4.51933	10953
4.52000	10905
4.52067	10860
4.52133	10817
4.52200	10777
4.52267	10739
4.52333	10703
4.52400	10670
4.52467	10640
4.52533	10612
4.52600	10587
4.52667	10565
4.52733	10545
4.52800	10528
4.52867	10515
4.52933	10504
4.53000	10496
4.53067	10491
4.53133	10489
4.53200	10490
4.53267	10495
4.53333	10502
4.53400	10513
4.53467	10526
4.53533	10543
4.53600	10563
4.53667	10587
4.53733	10613
4.53800	10643
4.53867	10676
4.53933	10713
4.54000	10753
4.54067	10796
4.54133	10842
4.54200	10892
4.54267	10945
4.54333	11001
4.54400	11061
4.54467	11124
4.54533	11190
4.54600	11259
4.54667	11332
4.54733	11408
4.54800	11488
4.54867	11571
4.54933	11657
4.55000	11746
4.55067	11839
4.55133	11935
4.55200	12034
4.55267	12136
4.55333	12242
4.55400	12350
4.55467	12462
4.55533	12577
4.55600	12696
4.55667	12817
4.55733	12942
4.55800	13069
4.55867	13200
4.55933	13333
4.56000	13470
4.56067	13609
4.56133	13752
4.56200	13897
4.56267	14045
4.56333	14195
4.56400	14348
4.56467	14504
4.56533	14663
4.56600	14824
4.56667	14987
4.56733	15153
4.56800	15320
4.56867	15490
4.56933	15662
4.57000	15836
4.57067	16011
4.57133	16187
4.57200	16366
4.57267	16545
4.57333	16726
4.57400	16907
4.57467	17090
4.57533	17274
4.57600	17458
4.57667	17643
4.57733	17829
4.57800	18015
4.57867	18201
4.57933	18387
4.58000	18573
4.58067	18759
4.58133	18945
4.58200	19129
4.58267	19314
4.58333	19497
4.58400	19680
4.58467	19862
4.58533	20042
4.58600	20222
4.58667	20400
4.58733	20576
4.58800	20752
4.58867	20925
4.58933	21096
4.59000	21266
4.59067	21434
4.59133	21599
4.59200	21763
4.59267	21924
4.59333	22082
4.59400	22239
4.59467	22392
4.59533	22543
4.59600	22692
4.59667	22837
4.59733	22980
4.59800	23120
4.59867	23257
4.59933	23390
4.60000	23521
4.60067	23649
4.60133	23773
4.60200	23894
4.60267	24011
4.60333	24126
4.60400	24236
4.60467	24344
4.60533	24447
4.60600	24548
4.60667	24644
4.60733	24737
4.60800	24827
4.60867	24913
4.60933	24995
4.61000	25074
4.61067	25149
4.61133	25221
4.61200	25289
4.61267	25353
4.61333	25414
4.61400	25472
4.61467	25526
4.61533	25576
4.61600	25623
4.61667	25667
4.61733	25707
4.61800	25744
4.61867	25778
4.61933	25808
4.62000	25835
4.62067	25859
4.62133	25879
4.62200	25896
4.62267	25910
4.62333	25921
4.62400	25929
4.62467	25933
4.62533	25935
4.62600	25933
4.62667	25929
4.62733	25922
4.62800	25912
4.62867	25899
4.62933	25884
4.63000	25866
4.63067	25845
4.63133	25821
4.63200	25795
4.63267	25767
4.63333	25736
4.63400	25702
4.63467	25666
4.63533	25628
4.63600	25588
4.63667	25545
4.63733	25501
4.63800	25454
4.63867	25406
4.63933	25355
4.64000	25303
4.64067	25249
4.64133	25194
4.64200	25137
4.64267	25079
4.64333	25019
4.64400	24959
4.64467	24898
4.64533	24835
4.64600	24772
4.64667	24707
4.64733	24642
4.64800	24576
4.64867	24509
4.64933	24441
4.65000	24372
4.65067	24303
4.65133	24233
4.65200	24163
4.65267	24092
4.65333	24021
4.65400	23950
4.65467	23877
4.65533	23805
4.65600	23733
4.65667	23660
4.65733	23587
4.65800	23513
4.65867	23440
4.65933	23367
4.66000	23293
4.66067	23219
4.66133	23145
4.66200	23072
4.66267	22998
4.66333	22923
4.66400	22849
4.66467	22775
4.66533	22701
4.66600	22627
4.66667	22552
4.66733	22478
4.66800	22404
4.66867	22331
4.66933	22257
4.67000	22184
4.67067	22111
4.67133	22038
4.67200	21966
4.67267	21893
4.67333	21821
4.67400	21750
4.67467	21678
4.67533	21607
4.67600	21537
4.67667	21466
4.67733	21397
4.67800	21327
4.67867	21258
4.67933	21189
4.68000	21121
4.68067	21053
4.68133	20985
4.68200	20918
4.68267	20852
4.68333	20785
4.68400	20719
4.68467	20654
4.68533	20589
4.68600	20524
4.68667	20460
4.68733	20397
4.68800	20333
4.68867	20271
4.68933	20208
4.69000	20147
4.69067	20085
4.69133	20025
4.69200	19965
4.69267	19905
4.69333	19846
4.69400	19788
4.69467	19730
4.69533	19673
4.69600	19616
4.69667	19560
4.69733	19504
4.69800	19449
4.69867	19395
4.69933	19341
4.70000	19287
4.70067	19235
4.70133	19183
4.70200	19131
4.70267	19080
4.70333	19030
4.70400	18980
4.70467	18930
4.70533	18881
4.70600	18833
4.70667	18785
4.70733	18738
4.70800	18690
4.70867	18644
4.70933	18597
4.71000	18551
4.71067	18506
4.71133	18460
4.71200	18415
4.71267	18370
4.71333	18326
4.71400	18281
4.71467	18237
4.71533	18193
4.71600	18150
4.71667	18106
4.71733	18064
4.71800	18021
4.71867	17979
4.71933	17937
4.72000	17895
4.72067	17854
4.72133	17813
4.72200	17772
4.72267	17732
4.72333	17692
4.72400	17652
4.72467	17612
4.72533	17573
4.72600	17534
4.72667	17496
4.72733	17457
4.72800	17419
4.72867	17381
4.72933	17344
4.73000	17306
4.73067	17269
4.73133	17233
4.73200	17197
4.73267	17161
4.73333	17125
4.73400	17090
4.73467	17055
4.73533	17021
4.73600	16987
4.73667	16954
4.73733	16921
4.73800	16888
4.73867	16856
4.73933	16824
4.74000	16792
4.74067	16761
4.74133	16731
4.74200	16700
4.74267	16670
4.74333	16641
4.74400	16611
4.74467	16583
4.74533	16554
4.74600	16526
4.74667	16498
4.74733	16470
4.74800	16443
4.74867	16415
4.74933	16388
4.75000	16362
4.75067	16335
4.75133	16309
4.75200	16284
4.75267	16258
4.75333	16233
4.75400	16208
4.75467	16183
4.75533	16159
4.75600	16135
4.75667	16111
4.75733	16087
4.75800	16064
4.75867	16040
4.75933	16017
4.76000	15995
4.76067	15972
4.76133	15949
4.76200	15927
4.76267	15905
4.76333	15883
4.76400	15862
4.76467	15840
4.76533	15819
4.76600	15798
4.76667	15776
4.76733	15755
4.76800	15734
4.76867	15714
4.76933	15693
4.77000	15672
4.77067	15651
4.77133	15631
4.77200	15610
4.77267	15589
4.77333	15569
4.77400	15548
4.77467	15528
4.77533	15508
4.77600	15488
4.77667	15467
4.77733	15447
4.77800	15427
4.77867	15408
4.77933	15388
4.78000	15368
4.78067	15349
4.78133	15329
4.78200	15310
4.78267	15290
4.78333	15271
4.78400	15251
4.78467	15232
4.78533	15212
4.78600	15193
4.78667	15173
4.78733	15154
4.78800	15134
4.78867	15115
4.78933	15096
4.79000	15077
4.79067	15057
4.79133	15038
4.79200	15019
4.79267	15000
4.79333	14981
4.79400	14962
4.79467	14944
4.79533	14925
4.79600	14906
4.79667	14888
4.79733	14869
4.79800	14851
4.79867	14833
4.79933	14815
4.80000	14796
4.80067	14778
4.80133	14760
4.80200	14742
4.80267	14724
4.80333	14706
4.80400	14688
4.80467	14670
4.80533	14652
4.80600	14634
4.80667	14616
4.80733	14598
4.80800	14580
4.80867	14562
4.80933	14544
4.81000	14526
4.81067	14508
4.81133	14491
4.81200	14473
4.81267	14455
4.81333	14438
4.81400	14420
4.81467	14403
4.81533	14386
4.81600	14369
4.81667	14352
4.81733	14335
4.81800	14318
4.81867	14302
4.81933	14285
4.82000	14269
4.82067	14253
4.82133	14237
4.82200	14221
4.82267	14205
4.82333	14190
4.82400	14174
4.82467	14159
4.82533	14143
4.82600	14128
4.82667	14113
4.82733	14098
4.82800	14083
4.82867	14068
4.82933	14053
4.83000	14039
4.83067	14024
4.83133	14009
4.83200	13995
4.83267	13981
4.83333	13966
4.83400	13952
4.83467	13938
4.83533	13925
4.83600	13911
4.83667	13897
4.83733	13884
4.83800	13871
4.83867	13857
4.83933	13844
4.84000	13831
4.84067	13818
4.84133	13806
4.84200	13793
4.84267	13780
4.84333	13767
4.84400	13755
4.84467	13742
4.84533	13729
4.84600	13716
4.84667	13704
4.84733	13691
4.84800	13678
4.84867	13665
4.84933	13652
4.85000	13640
4.85067	13627
4.85133	13614
4.85200	13601
4.85267	13588
4.85333	13575
4.85400	13562
4.85467	13549
4.85533	13536
4.85600	13523
4.85667	13510
4.85733	13497
4.85800	13483
4.85867	13470
4.85933	13456
4.86000	13443
4.86067	13429
4.86133	13416
4.86200	13402
4.86267	13389
4.86333	13375
4.86400	13362
4.86467	13349
4.86533	13335
4.86600	13322
4.86667	13309
4.86733	13295
4.86800	13282
4.86867	13269
4.86933	13255
4.87000	13242
4.87067	13229
4.87133	13216
4.87200	13203
4.87267	13190
4.87333	13177
4.87400	13164
4.87467	13151
4.87533	13138
4.87600	13125
4.87667	13112
4.87733	13099
4.87800	13087
4.87867	13074
4.87933	13061
4.88000	13048
4.88067	13035
4.88133	13022
4.88200	13009
4.88267	12996
4.88333	12982
4.88400	12969
4.88467	12956
4.88533	12943
4.88600	12930
4.88667	12917
4.88733	12904
4.88800	12891
4.88867	12878
4.88933	12865
4.89000	12852
4.89067	12839
4.89133	12826
4.89200	12813
4.89267	12800
4.89333	12788
4.89400	12775
4.89467	12762
4.89533	12750
4.89600	12737
4.89667	12724
4.89733	12712
4.89800	12699
4.89867	12687
4.89933	12675
4.90000	12663
4.90067	12651
4.90133	12639
4.90200	12627
4.90267	12615
4.90333	12603
4.90400	12592
4.90467	12580
4.90533	12569
4.90600	12558
4.90667	12547
4.90733	12537
4.90800	12526
4.90867	12516
4.90933	12505
4.91000	12495
4.91067	12485
4.91133	12475
4.91200	12465
4.91267	12455
4.91333	12446
4.91400	12436
4.91467	12426
4.91533	12416
4.91600	12406
4.91667	12397
4.91733	12387
4.91800	12377
4.91867	12367
4.91933	12358
4.92000	12348
4.92067	12338
4.92133	12329
4.92200	12319
4.92267	12309
4.92333	12300
4.92400	12290
4.92467	12280
4.92533	12270
4.92600	12261
4.92667	12251
4.92733	12241
4.92800	12232
4.92867	12222
4.92933	12212
4.93000	12203
4.93067	12194
4.93133	12184
4.93200	12175
4.93267	12166
4.93333	12157
4.93400	12147
4.93467	12138
4.93533	12129
4.93600	12120
4.93667	12111
4.93733	12102
4.93800	12094
4.93867	12085
4.93933	12076
4.94000	12067
4.94067	12058
4.94133	12049
4.94200	12039
4.94267	12030
4.94333	12021
4.94400	12012
4.94467	12002
4.94533	11993
4.94600	11984
4.94667	11974
4.94733	11965
4.94800	11955
4.94867	11945
4.94933	11936
4.95000	11926
4.95067	11916
4.95133	11906
4.95200	11896
4.95267	11886
4.95333	11876
4.95400	11866
4.95467	11855
4.95533	11845
4.95600	11835
4.95667	11824
4.95733	11814
4.95800	11803
4.95867	11793
4.95933	11782
4.96000	11772
4.96067	11761
4.96133	11750
4.96200	11740
4.96267	11729
4.96333	11718
4.96400	11707
4.96467	11696
4.96533	11686
4.96600	11675
4.96667	11665
4.96733	11654
4.96800	11644
4.96867	11634
4.96933	11624
4.97000	11614
4.97067	11604
4.97133	11595
4.97200	11585
4.97267	11575
4.97333	11566
4.97400	11556
4.97467	11547
4.97533	11538
4.97600	11528
4.97667	11519
4.97733	11510
4.97800	11501
4.97867	11491
4.97933	11482
4.98000	11473
4.98067	11464
4.98133	11455
4.98200	11446
4.98267	11437
4.98333	11428
4.98400	11419
4.98467	11410
4.98533	11401
4.98600	11392
4.98667	11383
4.98733	11373
4.98800	11364
4.98867	11355
4.98933	11346
4.99000	11337
4.99067	11328
4.99133	11319
4.99200	11310
4.99267	11301
4.99333	11292
4.99400	11283
4.99467	11275
4.99533	11266
4.99600	11257
4.99667	11248
4.99733	11239
4.99800	11231
4.99867	11222
4.99933	11213
5.00000	11205
5.00067	11196
5.00133	11187
5.00200	11179
5.00267	11170
5.00333	11162
5.00400	11154
5.00467	11145
5.00533	11137
5.00600	11129
5.00667	11121
5.00733	11113
5.00800	11105
5.00867	11097
5.00933	11090
5.01000	11082
5.01067	11074
5.01133	11067
5.01200	11059
5.01267	11052
5.01333	11045
5.01400	11037
5.01467	11030
5.01533	11023
5.01600	11016
5.01667	11008
5.01733	11001
5.01800	10994
5.01867	10987
5.01933	10980
5.02000	10973
5.02067	10966
5.02133	10959
5.02200	10952
5.02267	10945
5.02333	10937
5.02400	10930
5.02467	10923
5.02533	10916
5.02600	10909
5.02667	10901
5.02733	10894
5.02800	10887
5.02867	10880
5.02933	10873
5.03000	10866
5.03067	10859
5.03133	10852
5.03200	10845
5.03267	10838
5.03333	10830
5.03400	10823
5.03467	10816
5.03533	10809
5.03600	10802
5.03667	10795
5.03733	10788
5.03800	10781
5.03867	10773
5.03933	10766
5.04000	10759
5.04067	10752
5.04133	10744
5.04200	10737
5.04267	10730
5.04333	10723
5.04400	10716
5.04467	10708
5.04533	10701
5.04600	10694
5.04667	10687
5.04733	10680
5.04800	10673
5.04867	10666
5.04933	10659
5.05000	10652
5.05067	10645
5.05133	10638
5.05200	10631
5.05267	10624
5.05333	10617
5.05400	10610
5.05467	10603
5.05533	10596
5.05600	10589
5.05667	10582
5.05733	10575
5.05800	10568
5.05867	10561
5.05933	10554
5.06000	10547
5.06067	10540
5.06133	10533
5.06200	10526
5.06267	10519
5.06333	10512
5.06400	10505
5.06467	10498
5.06533	10491
5.06600	10484
5.06667	10477
5.06733	10471
5.06800	10464
5.06867	10457
5.06933	10450
5.07000	10443
5.07067	10437
5.07133	10430
5.07200	10424
5.07267	10418
5.07333	10412
5.07400	10405
5.07467	10399
5.07533	10393
5.07600	10388
5.07667	10382
5.07733	10376
5.07800	10370
5.07867	10365
5.07933	10359
5.08000	10354
5.08067	10348
5.08133	10343
5.08200	10337
5.08267	10332
5.08333	10326
5.08400	10321
5.08467	10316
5.08533	10310
5.08600	10305
5.08667	10300
5.08733	10294
5.08800	10289
5.08867	10284
5.08933	10279
5.09000	10274
5.09067	10269
5.09133	10264
5.09200	10259
5.09267	10254
5.09333	10249
5.09400	10244
5.09467	10239
5.09533	10234
5.09600	10230
5.09667	10225
5.09733	10220
5.09800	10215
5.09867	10210
5.09933	10206
5.10000	10201
5.10067	10196
5.10133	10192
5.10200	10187
5.10267	10182
5.10333	10178
5.10400	10173
5.10467	10168
5.10533	10164
5.10600	10159
5.10667	10155
5.10733	10150
5.10800	10146
5.10867	10142
5.10933	10138
5.11000	10133
5.11067	10129
5.11133	10125
5.11200	10121
5.11267	10117
5.11333	10113
5.11400	10109
5.11467	10105
5.11533	10101
5.11600	10097
5.11667	10094
5.11733	10090
5.11800	10086
5.11867	10082
5.11933	10078
5.12000	10075
5.12067	10071
5.12133	10067
5.12200	10064
5.12267	10061
5.12333	10057
5.12400	10054
5.12467	10051
5.12533	10048
5.12600	10045
5.12667	10042
5.12733	10040
5.12800	10037
5.12867	10035
5.12933	10033
5.13000	10031
5.13067	10029
5.13133	10028
5.13200	10026
5.13267	10025
5.13333	10023
5.13400	10022
5.13467	10021
5.13533	10020
5.13600	10019
5.13667	10018
5.13733	10017
5.13800	10016
5.13867	10016
5.13933	10015
5.14000	10015
5.14067	10015
5.14133	10015
5.14200	10015
5.14267	10015
5.14333	10016
5.14400	10017
5.14467	10018
5.14533	10019
5.14600	10020
5.14667	10021
5.14733	10023
5.14800	10025
5.14867	10027
5.14933	10030
5.15000	10032
5.15067	10035
5.15133	10038
5.15200	10041
5.15267	10044
5.15333	10048
5.15400	10051
5.15467	10055
5.15533	10059
5.15600	10063
5.15667	10067
5.15733	10072
5.15800	10077
5.15867	10082
5.15933	10087
5.16000	10092
5.16067	10097
5.16133	10103
5.16200	10109
5.16267	10115
5.16333	10121
5.16400	10128
5.16467	10134
5.16533	10141
5.16600	10149
5.16667	10156
5.16733	10163
5.16800	10171
5.16867	10179
5.16933	10187
5.17000	10195
5.17067	10203
5.17133	10211
5.17200	10220
5.17267	10229
5.17333	10237
5.17400	10246
5.17467	10255
5.17533	10264
5.17600	10274
5.17667	10283
5.17733	10293
5.17800	10302
5.17867	10312
5.17933	10322
5.18000	10332
5.18067	10343
5.18133	10353
5.18200	10364
5.18267	10374
5.18333	10385
5.18400	10396
5.18467	10407
5.18533	10418
5.18600	10429
5.18667	10440
5.18733	10451
5.18800	10463
5.18867	10474
5.18933	10485
5.19000	10497
5.19067	10508
5.19133	10519
5.19200	10531
5.19267	10542
5.19333	10554
5.19400	10565
5.19467	10577
5.19533	10588
5.19600	10600
5.19667	10611
5.19733	10623
5.19800	10634
5.19867	10646
5.19933	10657
5.20000	10668
5.20067	10680
5.20133	10691
5.20200	10702
5.20267	10713
5.20333	10724
5.20400	10735
5.20467	10746
5.20533	10756
5.20600	10767
5.20667	10777
5.20733	10787
5.20800	10797
5.20867	10807
5.20933	10817
5.21000	10826
5.21067	10835
5.21133	10845
5.21200	10853
5.21267	10862
5.21333	10871
5.21400	10879
5.21467	10887
5.21533	10895
5.21600	10903
5.21667	10910
5.21733	10918
5.21800	10925
5.21867	10931
5.21933	10938
5.22000	10944
5.22067	10950
5.22133	10955
5.22200	10961
5.22267	10966
5.22333	10971
5.22400	10975
5.22467	10980
5.22533	10984
5.22600	10987
5.22667	10991
5.22733	10994
5.22800	10997
5.22867	10999
5.22933	11001
5.23000	11003
5.23067	11004
5.23133	11006
5.23200	11007
5.23267	11007
5.23333	11008
5.23400	11008
5.23467	11007
5.23533	11007
5.23600	11006
5.23667	11005
5.23733	11003
5.23800	11001
5.23867	10999
5.23933	10996
5.24000	10993
5.24067	10990
5.24133	10986
5.24200	10982
5.24267	10978
5.24333	10973
5.24400	10968
5.24467	10963
5.24533	10958
5.24600	10952
5.24667	10946
5.24733	10939
5.24800	10933
5.24867	10926
5.24933	10919
5.25000	10911
5.25067	10903
5.25133	10895
5.25200	10887
5.25267	10879
5.25333	10870
5.25400	10861
5.25467	10852
5.25533	10843
5.25600	10834
5.25667	10824
5.25733	10814
5.25800	10804
5.25867	10794
5.25933	10784
5.26000	10773
5.26067	10762
5.26133	10751
5.26200	10740
5.26267	10729
5.26333	10717
5.26400	10705
5.26467	10693
5.26533	10681
5.26600	10669
5.26667	10656
5.26733	10643
5.26800	10630
5.26867	10617
5.26933	10604
5.27000	10591
5.27067	10578
5.27133	10564
5.27200	10551
5.27267	10537
5.27333	10523
5.27400	10510
5.27467	10496
5.27533	10482
5.27600	10468
5.27667	10454
5.27733	10439
5.27800	10425
5.27867	10411
5.27933	10396
5.28000	10382
5.28067	10367
5.28133	10352
5.28200	10337
5.28267	10322
5.28333	10307
5.28400	10293
5.28467	10278
5.28533	10263
5.28600	10248
5.28667	10233
5.28733	10218
5.28800	10203
5.28867	10188
5.28933	10173
5.29000	10158
5.29067	10143
5.29133	10128
5.29200	10113
5.29267	10098
5.29333	10083
5.29400	10069
5.29467	10054
5.29533	10040
5.29600	10025
5.29667	10010
5.29733	9996
5.29800	9981
5.29867	9967
5.29933	9953
5.30000	9938
5.30067	9924
5.30133	9910
5.30200	9896
5.30267	9882
5.30333	9868
5.30400	9854
5.30467	9840
5.30533	9826
5.30600	9812
5.30667	9799
5.30733	9785
5.30800	9772
5.30867	9758
5.30933	9745
5.31000	9732
5.31067	9718
5.31133	9705
5.31200	9692
5.31267	9679
5.31333	9667
5.31400	9654
5.31467	9641
5.31533	9628
5.31600	9616
5.31667	9603
5.31733	9591
5.31800	9579
5.31867	9567
5.31933	9555
5.32000	9543
5.32067	9531
5.32133	9519
5.32200	9507
5.32267	9496
5.32333	9484
5.32400	9473
5.32467	9461
5.32533	9450
5.32600	9439
5.32667	9428
5.32733	9417
5.32800	9406
5.32867	9395
5.32933	9384
5.33000	9373
5.33067	9362
5.33133	9351
5.33200	9341
5.33267	9330
5.33333	9320
5.33400	9309
5.33467	9299
5.33533	9288
5.33600	9278
5.33667	9268
5.33733	9257
5.33800	9247
5.33867	9237
5.33933	9227
5.34000	9217
5.34067	9206
5.34133	9196
5.34200	9186
5.34267	9177
5.34333	9167
5.34400	9157
5.34467	9147
5.34533	9137
5.34600	9128
5.34667	9118
5.34733	9109
5.34800	9099
5.34867	9090
5.34933	9080
5.35000	9071
5.35067	9062
5.35133	9053
5.35200	9044
5.35267	9035
5.35333	9026
5.35400	9017
5.35467	9008
5.35533	8999
5.35600	8991
5.35667	8982
5.35733	8973
5.35800	8965
5.35867	8956
5.35933	8948
5.36000	8940
5.36067	8931
5.36133	8923
5.36200	8915
5.36267	8906
5.36333	8898
5.36400	8890
5.36467	8881
5.36533	8873
5.36600	8865
5.36667	8857
5.36733	8849
5.36800	8840
5.36867	8832
5.36933	8824
5.37000	8816
5.37067	8808
5.37133	8800
5.37200	8793
5.37267	8785
5.37333	8777
5.37400	8769
5.37467	8761
5.37533	8754
5.37600	8746
5.37667	8739
5.37733	8731
5.37800	8724
5.37867	8717
5.37933	8710
5.38000	8703
5.38067	8696
5.38133	8689
5.38200	8682
5.38267	8675
5.38333	8669
5.38400	8662
5.38467	8656
5.38533	8649
5.38600	8642
5.38667	8636
5.38733	8629
5.38800	8623
5.38867	8616
5.38933	8610
5.39000	8604
5.39067	8597
5.39133	8591
5.39200	8585
5.39267	8578
5.39333	8572
5.39400	8566
5.39467	8560
5.39533	8554
5.39600	8547
5.39667	8541
5.39733	8535
5.39800	8529
5.39867	8523
5.39933	8517
5.40000	8511
5.40067	8505
5.40133	8499
5.40200	8494
5.40267	8488
5.40333	8482
5.40400	8476
5.40467	8470
5.40533	8464
5.40600	8458
5.40667	8452
5.40733	8446
5.40800	8440
5.40867	8435
5.40933	8429
5.41000	8423
5.41067	8417
5.41133	8411
5.41200	8405
5.41267	8399
5.41333	8393
5.41400	8388
5.41467	8382
5.41533	8376
5.41600	8370
5.41667	8364
5.41733	8358
5.41800	8352
5.41867	8346
5.41933	8340
5.42000	8335
5.42067	8329
5.42133	8323
5.42200	8317
5.42267	8311
5.42333	8305
5.42400	8300
5.42467	8294
5.42533	8288
5.42600	8282
5.42667	8276
5.42733	8271
5.42800	8265
5.42867	8259
5.42933	8253
5.43000	8248
5.43067	8242
5.43133	8237
5.43200	8231
5.43267	8225
5.43333	8220
5.43400	8214
5.43467	8208
5.43533	8203
5.43600	8197
5.43667	8191
5.43733	8185
5.43800	8179
5.43867	8174
5.43933	8168
5.44000	8162
5.44067	8156
5.44133	8150
5.44200	8144
5.44267	8138
5.44333	8133
5.44400	8127
5.44467	8121
5.44533	8115
5.44600	8109
5.44667	8104
5.44733	8098
5.44800	8092
5.44867	8087
5.44933	8081
5.45000	8075
5.45067	8070
5.45133	8064
5.45200	8059
5.45267	8053
5.45333	8048
5.45400	8042
5.45467	8037
5.45533	8031
5.45600	8026
5.45667	8021
5.45733	8015
5.45800	8010
5.45867	8005
5.45933	7999
5.46000	7994
5.46067	7989
5.46133	7984
5.46200	7979
5.46267	7974
5.46333	7969
5.46400	7964
5.46467	7959
5.46533	7954
5.46600	7949
5.46667	7945
5.46733	7940
5.46800	7935
5.46867	7930
5.46933	7926
5.47000	7921
5.47067	7917
5.47133	7912
5.47200	7908
5.47267	7903
5.47333	7899
5.47400	7895
5.47467	7890
5.47533	7886
5.47600	7882
5.47667	7878
5.47733	7874
5.47800	7869
5.47867	7865
5.47933	7861
5.48000	7857
5.48067	7853
5.48133	7849
5.48200	7845
5.48267	7841
5.48333	7837
5.48400	7833
5.48467	7829
5.48533	7825
5.48600	7821
5.48667	7817
5.48733	7813
5.48800	7809
5.48867	7805
5.48933	7801
5.49000	7797
5.49067	7793
5.49133	7789
5.49200	7785
5.49267	7780
5.49333	7776
5.49400	7772
5.49467	7768
5.49533	7764
5.49600	7760
5.49667	7755
5.49733	7751
5.49800	7747
5.49867	7742
5.49933	7738
5.50000	7734
5.50067	7729
5.50133	7725
5.50200	7720
5.50267	7716
5.50333	7711
5.50400	7707
5.50467	7702
5.50533	7698
5.50600	7693
5.50667	7689
5.50733	7684
5.50800	7680
5.50867	7675
5.50933	7670
5.51000	7666
5.51067	7661
5.51133	7657
5.51200	7652
5.51267	7648
5.51333	7643
5.51400	7639
5.51467	7634
5.51533	7630
5.51600	7625
5.51667	7621
5.51733	7616
5.51800	7612
5.51867	7607
5.51933	7603
5.52000	7599
5.52067	7594
5.52133	7590
5.52200	7585
5.52267	7581
5.52333	7576
5.52400	7572
5.52467	7567
5.52533	7563
5.52600	7558
5.52667	7554
5.52733	7550
5.52800	7545
5.52867	7541
5.52933	7537
5.53000	7532
5.53067	7528
5.53133	7524
5.53200	7520
5.53267	7516
5.53333	7512
5.53400	7508
5.53467	7505
5.53533	7501
5.53600	7497
5.53667	7493
5.53733	7489
5.53800	7485
5.53867	7481
5.53933	7478
5.54000	7474
5.54067	7470
5.54133	7466
5.54200	7463
5.54267	7459
5.54333	7455
5.54400	7451
5.54467	7448
5.54533	7444
5.54600	7441
5.54667	7437
5.54733	7434
5.54800	7430
5.54867	7427
5.54933	7424
5.55000	7421
5.55067	7418
5.55133	7414
5.55200	7411
5.55267	7408
5.55333	7405
5.55400	7402
5.55467	7399
5.55533	7396
5.55600	7392
5.55667	7389
5.55733	7386
5.55800	7383
5.55867	7380
5.55933	7377
5.56000	7374
5.56067	7371
5.56133	7368
5.56200	7365
5.56267	7362
5.56333	7360
5.56400	7357
5.56467	7354
5.56533	7351
5.56600	7348
5.56667	7346
5.56733	7343
5.56800	7340
5.56867	7338
5.56933	7335
5.57000	7332
5.57067	7330
5.57133	7327
5.57200	7324
5.57267	7321
5.57333	7319
5.57400	7316
5.57467	7313
5.57533	7310
5.57600	7307
5.57667	7305
5.57733	7302
5.57800	7299
5.57867	7296
5.57933	7294
5.58000	7291
5.58067	7288
5.58133	7285
5.58200	7282
5.58267	7279
5.58333	7276
5.58400	7274
5.58467	7271
5.58533	7268
5.58600	7265
5.58667	7262
5.58733	7259
5.58800	7256
5.58867	7253
5.58933	7250
5.59000	7247
5.59067	7244
5.59133	7241
5.59200	7238
5.59267	7235
5.59333	7232
5.59400	7229
5.59467	7226
5.59533	7224
5.59600	7221
5.59667	7218
5.59733	7215
5.59800	7212
5.59867	7209
5.59933	7206
5.60000	7203
5.60067	7199
5.60133	7196
5.60200	7193
5.60267	7190
5.60333	7187
5.60400	7183
5.60467	7180
5.60533	7177
5.60600	7174
5.60667	7171
5.60733	7167
5.60800	7164
5.60867	7161
5.60933	7158
5.61000	7154
5.61067	7151
5.61133	7148
5.61200	7145
5.61267	7141
5.61333	7138
5.61400	7135
5.61467	7132
5.61533	7128
5.61600	7125
5.61667	7122
5.61733	7119
5.61800	7116
5.61867	7112
5.61933	7109
5.62000	7106
5.62067	7103
5.62133	7100
5.62200	7097
5.62267	7094
5.62333	7091
5.62400	7088
5.62467	7085
5.62533	7082
5.62600	7079
5.62667	7076
5.62733	7073
5.62800	7070
5.62867	7068
5.62933	7065
5.63000	7062
5.63067	7059
5.63133	7057
5.63200	7054
5.63267	7051
5.63333	7048
5.63400	7046
5.63467	7043
5.63533	7040
5.63600	7037
5.63667	7035
5.63733	7032
5.63800	7029
5.63867	7026
5.63933	7023
5.64000	7021
5.64067	7018
5.64133	7015
5.64200	7012
5.64267	7009
5.64333	7006
5.64400	7004
5.64467	7001
5.64533	6998
5.64600	6995
5.64667	6992
5.64733	6989
5.64800	6986
5.64867	6983
5.64933	6980
5.65000	6978
5.65067	6975
5.65133	6972
5.65200	6969
5.65267	6966
5.65333	6963
5.65400	6960
5.65467	6957
5.65533	6954
5.65600	6951
5.65667	6948
5.65733	6945
5.65800	6942
5.65867	6939
5.65933	6936
5.66000	6933
5.66067	6930
5.66133	6928
5.66200	6925
5.66267	6922
5.66333	6919
5.66400	6916
5.66467	6913
5.66533	6910
5.66600	6907
5.66667	6904
5.66733	6901
5.66800	6898
5.66867	6895
5.66933	6892
5.67000	6889
5.67067	6886
5.67133	6883
5.67200	6880
5.67267	6877
5.67333	6874
5.67400	6871
5.67467	6868
5.67533	6864
5.67600	6861
5.67667	6858
5.67733	6855
5.67800	6852
5.67867	6849
5.67933	6846
5.68000	6843
5.68067	6840
5.68133	6837
5.68200	6834
5.68267	6831
5.68333	6828
5.68400	6825
5.68467	6823
5.68533	6820
5.68600	6817
5.68667	6814
5.68733	6811
5.68800	6808
5.68867	6806
5.68933	6803
5.69000	6800
5.69067	6797
5.69133	6795
5.69200	6792
5.69267	6789
5.69333	6787
5.69400	6784
5.69467	6782
5.69533	6779
5.69600	6776
5.69667	6774
5.69733	6771
5.69800	6769
5.69867	6766
5.69933	6764
5.70000	6761
5.70067	6759
5.70133	6757
5.70200	6754
5.70267	6752
5.70333	6750
5.70400	6747
5.70467	6745
5.70533	6743
5.70600	6741
5.70667	6739
5.70733	6737
5.70800	6735
5.70867	6733
5.70933	6731
5.71000	6729
5.71067	6727
5.71133	6725
5.71200	6723
5.71267	6721
5.71333	6719
5.71400	6717
5.71467	6715
5.71533	6713
5.71600	6711
5.71667	6709
5.71733	6707
5.71800	6705
5.71867	6703
5.71933	6701
5.72000	6699
5.72067	6697
5.72133	6695
5.72200	6693
5.72267	6691
5.72333	6689
5.72400	6687
5.72467	6685
5.72533	6683
5.72600	6682
5.72667	6680
5.72733	6678
5.72800	6676
5.72867	6674
5.72933	6672
5.73000	6671
5.73067	6669
5.73133	6667
5.73200	6665
5.73267	6663
5.73333	6661
5.73400	6660
5.73467	6658
5.73533	6656
5.73600	6654
5.73667	6652
5.73733	6650
5.73800	6648
5.73867	6646
5.73933	6645
5.74000	6643
5.74067	6641
5.74133	6639
5.74200	6638
5.74267	6636
5.74333	6634
5.74400	6632
5.74467	6631
5.74533	6629
5.74600	6628
5.74667	6626
5.74733	6624
5.74800	6623
5.74867	6621
5.74933	6619
5.75000	6618
5.75067	6616
5.75133	6615
5.75200	6613
5.75267	6611
5.75333	6610
5.75400	6608
5.75467	6607
5.75533	6605
5.75600	6603
5.75667	6602
5.75733	6600
5.75800	6599
5.75867	6597
5.75933	6596
5.76000	6594
5.76067	6592
5.76133	6591
5.76200	6589
5.76267	6588
5.76333	6587
5.76400	6585
5.76467	6584
5.76533	6582
5.76600	6581
5.76667	6579
5.76733	6578
5.76800	6576
5.76867	6575
5.76933	6574
5.77000	6572
5.77067	6571
5.77133	6569
5.77200	6568
5.77267	6567
5.77333	6565
5.77400	6564
5.77467	6563
5.77533	6562
5.77600	6561
5.77667	6560
5.77733	6559
5.77800	6558
5.77867	6557
5.77933	6555
5.78000	6554
5.78067	6553
5.78133	6552
5.78200	6551
5.78267	6550
5.78333	6548
5.78400	6547
5.78467	6546
5.78533	6545
5.78600	6544
5.78667	6542
5.78733	6541
5.78800	6540
5.78867	6539
5.78933	6538
5.79000	6537
5.79067	6536
5.79133	6535
5.79200	6534
5.79267	6533
5.79333	6532
5.79400	6531
5.79467	6530
5.79533	6529
5.79600	6527
5.79667	6526
5.79733	6525
5.79800	6524
5.79867	6523
5.79933	6522
5.80000	6521
5.80067	6520
5.80133	6519
5.80200	6518
5.80267	6517
5.80333	6516
5.80400	6515
5.80467	6514
5.80533	6514
5.80600	6513
5.80667	6512
5.80733	6511
5.80800	6510
5.80867	6509
5.80933	6508
5.81000	6507
5.81067	6506
5.81133	6506
5.81200	6505
5.81267	6504
5.81333	6503
5.81400	6502
5.81467	6501
5.81533	6500
5.81600	6499
5.81667	6498
5.81733	6497
5.81800	6496
5.81867	6495
5.81933	6494
5.82000	6493
5.82067	6491
5.82133	6490
5.82200	6489
5.82267	6488
5.82333	6487
5.82400	6485
5.82467	6484
5.82533	6483
5.82600	6482
5.82667	6481
5.82733	6479
5.82800	6478
5.82867	6477
5.82933	6476
5.83000	6475
5.83067	6473
5.83133	6472
5.83200	6471
5.83267	6470
5.83333	6469
5.83400	6468
5.83467	6466
5.83533	6465
5.83600	6464
5.83667	6463
5.83733	6462
5.83800	6460
5.83867	6459
5.83933	6458
5.84000	6457
5.84067	6456
5.84133	6454
5.84200	6453
5.84267	6452
5.84333	6451
5.84400	6450
5.84467	6448
5.84533	6447
5.84600	6446
5.84667	6445
5.84733	6443
5.84800	6442
5.84867	6441
5.84933	6440
5.85000	6438
5.85067	6437
5.85133	6436
5.85200	6435
5.85267	6433
5.85333	6432
5.85400	6431
5.85467	6430
5.85533	6429
5.85600	6427
5.85667	6426
5.85733	6425
5.85800	6424
5.85867	6422
5.85933	6421
5.86000	6420
5.86067	6418
5.86133	6417
5.86200	6415
5.86267	6414
5.86333	6412
5.86400	6411
5.86467	6409
5.86533	6408
5.86600	6406
5.86667	6405
5.86733	6403
5.86800	6401
5.86867	6400
5.86933	6398
5.87000	6396
5.87067	6395
5.87133	6393
5.87200	6391
5.87267	6390
5.87333	6388
5.87400	6386
5.87467	6384
5.87533	6383
5.87600	6381
5.87667	6379
5.87733	6377
5.87800	6375
5.87867	6373
5.87933	6371
5.88000	6369
5.88067	6367
5.88133	6365
5.88200	6363
5.88267	6361
5.88333	6359
5.88400	6357
5.88467	6355
5.88533	6353
5.88600	6351
5.88667	6349
5.88733	6347
5.88800	6345
5.88867	6343
5.88933	6341
5.89000	6339
5.89067	6336
5.89133	6334
5.89200	6332
5.89267	6330
5.89333	6328
5.89400	6326
5.89467	6324
5.89533	6321
5.89600	6319
5.89667	6317
5.89733	6315
5.89800	6313
5.89867	6310
5.89933	6308
5.90000	6306
5.90067	6304
5.90133	6301
5.90200	6299
5.90267	6297
5.90333	6295
5.90400	6292
5.90467	6290
5.90533	6288
5.90600	6285
5.90667	6283
5.90733	6281
5.90800	6279
5.90867	6277
5.90933	6274
5.91000	6272
5.91067	6270
5.91133	6268
5.91200	6266
5.91267	6264
5.91333	6262
5.91400	6260
5.91467	6258
5.91533	6256
5.91600	6254
5.91667	6252
5.91733	6250
5.91800	6248
5.91867	6247
5.91933	6245
5.92000	6243
5.92067	6242
5.92133	6240
5.92200	6238
5.92267	6236
5.92333	6235
5.92400	6233
5.92467	6231
5.92533	6229
5.92600	6228
5.92667	6226
5.92733	6224
5.92800	6222
5.92867	6220
5.92933	6219
5.93000	6217
5.93067	6215
5.93133	6213
5.93200	6211
5.93267	6210
5.93333	6208
5.93400	6206
5.93467	6204
5.93533	6203
5.93600	6201
5.93667	6199
5.93733	6197
5.93800	6196
5.93867	6194
5.93933	6192
5.94000	6191
5.94067	6189
5.94133	6187
5.94200	6186
5.94267	6184
5.94333	6182
5.94400	6181
5.94467	6179
5.94533	6177
5.94600	6176
5.94667	6174
5.94733	6172
5.94800	6171
5.94867	6169
5.94933	6167
5.95000	6166
5.95067	6164
5.95133	6162
5.95200	6161
5.95267	6159
5.95333	6157
5.95400	6155
5.95467	6154
5.95533	6152
5.95600	6150
5.95667	6148
5.95733	6146
5.95800	6144
5.95867	6142
5.95933	6141
5.96000	6139
5.96067	6137
5.96133	6135
5.96200	6133
5.96267	6132
5.96333	6130
5.96400	6128
5.96467	6127
5.96533	6125
5.96600	6123
5.96667	6122
5.96733	6120
5.96800	6119
5.96867	6117
5.96933	6115
5.97000	6114
5.97067	6113
5.97133	6111
5.97200	6110
5.97267	6108
5.97333	6107
5.97400	6106
5.97467	6105
5.97533	6103
5.97600	6102
5.97667	6101
5.97733	6100
5.97800	6099
5.97867	6097
5.97933	6096
5.98000	6095
5.98067	6094
5.98133	6093
5.98200	6092
5.98267	6091
5.98333	6090
5.98400	6089
5.98467	6088
5.98533	6087
5.98600	6086
5.98667	6085
5.98733	6084
5.98800	6083
5.98867	6083
5.98933	6082
5.99000	6081
5.99067	6080
5.99133	6079
5.99200	6078
5.99267	6077
5.99333	6077
5.99400	6076
5.99467	6075
5.99533	6074
5.99600	6073
5.99667	6073
5.99733	6072
5.99800	6071
5.99867	6070
5.99933	6069
6.00000	6068
6.00067	6068
6.00133	6067
6.00200	6066
6.00267	6065
6.00333	6064
6.00400	6064
6.00467	6063
6.00533	6062
6.00600	6061
6.00667	6060
6.00733	6059
6.00800	6058
6.00867	6057
6.00933	6056
6.01000	6055
6.01067	6054
6.01133	6053
6.01200	6052
6.01267	6051
6.01333	6050
6.01400	6048
6.01467	6047
6.01533	6046
6.01600	6045
6.01667	6043
6.01733	6042
6.01800	6041
6.01867	6040
6.01933	6038
6.02000	6037
6.02067	6036
6.02133	6034
6.02200	6033
6.02267	6032
6.02333	6030
6.02400	6029
6.02467	6028
6.02533	6026
6.02600	6025
6.02667	6024
6.02733	6022
6.02800	6021
6.02867	6020
6.02933	6018
6.03000	6017
6.03067	6015
6.03133	6014
6.03200	6013
6.03267	6011
6.03333	6010
6.03400	6009
6.03467	6007
6.03533	6006
6.03600	6005
6.03667	6003
6.03733	6002
6.03800	6001
6.03867	6000
6.03933	5999
6.04000	5997
6.04067	5996
6.04133	5995
6.04200	5994
6.04267	5993
6.04333	5992
6.04400	5991
6.04467	5989
6.04533	5988
6.04600	5987
6.04667	5986
6.04733	5985
6.04800	5984
6.04867	5983
6.04933	5982
6.05000	5980
6.05067	5979
6.05133	5978
6.05200	5977
6.05267	5976
6.05333	5975
6.05400	5974
6.05467	5973
6.05533	5972
6.05600	5971
6.05667	5970
6.05733	5969
6.05800	5969
6.05867	5968
6.05933	5967
6.06000	5966
6.06067	5965
6.06133	5965
6.06200	5964
6.06267	5963
6.06333	5962
6.06400	5961
6.06467	5960
6.06533	5959
6.06600	5958
6.06667	5957
6.06733	5956
6.06800	5955
6.06867	5954
6.06933	5952
6.07000	5951
6.07067	5950
6.07133	5949
6.07200	5947
6.07267	5946
6.07333	5945
6.07400	5943
6.07467	5942
6.07533	5941
6.07600	5939
6.07667	5938
6.07733	5937
6.07800	5935
6.07867	5934
6.07933	5932
6.08000	5931
6.08067	5930
6.08133	5928
6.08200	5927
6.08267	5926
6.08333	5924
6.08400	5923
6.08467	5921
6.08533	5920
6.08600	5919
6.08667	5917
6.08733	5916
6.08800	5914
6.08867	5913
6.08933	5912
6.09000	5910
6.09067	5909
6.09133	5907
6.09200	5906
6.09267	5905
6.09333	5903
6.09400	5902
6.09467	5901
6.09533	5900
6.09600	5898
6.09667	5897
6.09733	5896
6.09800	5895
6.09867	5894
6.09933	5892
6.10000	5891
6.10067	5890
6.10133	5889
6.10200	5888
6.10267	5887
6.10333	5886
6.10400	5885
6.10467	5884
6.10533	5883
6.10600	5882
6.10667	5881
6.10733	5880
6.10800	5879
6.10867	5878
6.10933	5877
6.11000	5876
6.11067	5875
6.11133	5874
6.11200	5874
6.11267	5873
6.11333	5872
6.11400	5871
6.11467	5870
6.11533	5869
6.11600	5868
6.11667	5867
6.11733	5866
6.11800	5865
6.11867	5865
6.11933	5864
6.12000	5863
6.12067	5862
6.12133	5861
6.12200	5860
6.12267	5860
6.12333	5859
6.12400	5858
6.12467	5857
6.12533	5857
6.12600	5856
6.12667	5855
6.12733	5854
6.12800	5853
6.12867	5852
6.12933	5852
6.13000	5851
6.13067	5850
6.13133	5849
6.13200	5848
6.13267	5847
6.13333	5846
6.13400	5845
6.13467	5844
6.13533	5843
6.13600	5842
6.13667	5841
6.13733	5840
6.13800	5840
6.13867	5839
6.13933	5838
6.14000	5837
6.14067	5836
6.14133	5835
6.14200	5834
6.14267	5833
6.14333	5832
6.14400	5831
6.14467	5830
6.14533	5829
6.14600	5828
6.14667	5827
6.14733	5826
6.14800	5825
6.14867	5824
6.14933	5823
6.15000	5822
6.15067	5821
6.15133	5820
6.15200	5819
6.15267	5818
6.15333	5817
6.15400	5816
6.15467	5815
6.15533	5814
6.15600	5813
6.15667	5813
6.15733	5812
6.15800	5811
6.15867	5810
6.15933	5809
6.16000	5808
6.16067	5807
6.16133	5806
6.16200	5806
6.16267	5805
6.16333	5804
6.16400	5803
6.16467	5802
6.16533	5801
6.16600	5800
6.16667	5799
6.16733	5799
6.16800	5798
6.16867	5797
6.16933	5796
6.17000	5795
6.17067	5794
6.17133	5793
6.17200	5793
6.17267	5792
6.17333	5791
6.17400	5790
6.17467	5789
6.17533	5788
6.17600	5788
6.17667	5787
6.17733	5786
6.17800	5785
6.17867	5784
6.17933	5784
6.18000	5783
6.18067	5782
6.18133	5781
6.18200	5781
6.18267	5780
6.18333	5779
6.18400	5779
6.18467	5778
6.18533	5778
6.18600	5777
6.18667	5777
6.18733	5776
6.18800	5775
6.18867	5775
6.18933	5774
6.19000	5774
6.19067	5773
6.19133	5773
6.19200	5772
6.19267	5772
6.19333	5772
6.19400	5771
6.19467	5771
6.19533	5770
6.19600	5770
6.19667	5769
6.19733	5769
6.19800	5768
6.19867	5768
6.19933	5767
6.20000	5767
6.20067	5766
6.20133	5766
6.20200	5766
6.20267	5765
6.20333	5765
6.20400	5764
6.20467	5764
6.20533	5764
6.20600	5763
6.20667	5763
6.20733	5762
6.20800	5762
6.20867	5762
6.20933	5761
6.21000	5761
6.21067	5760
6.21133	5760
6.21200	5760
6.21267	5759
6.21333	5759
6.21400	5759
6.21467	5759
6.21533	5758
6.21600	5758
6.21667	5758
6.21733	5758
6.21800	5758
6.21867	5757
6.21933	5757
6.22000	5757
6.22067	5757
6.22133	5757
6.22200	5757
6.22267	5757
6.22333	5757
6.22400	5757
6.22467	5757
6.22533	5757
6.22600	5757
6.22667	5757
6.22733	5757
6.22800	5757
6.22867	5757
6.22933	5757
6.23000	5757
6.23067	5757
6.23133	5758
6.23200	5758
6.23267	5758
6.23333	5758
6.23400	5758
6.23467	5758
6.23533	5758
6.23600	5758
6.23667	5758
6.23733	5758
6.23800	5758
6.23867	5758
6.23933	5758
6.24000	5758
6.24067	5758
6.24133	5758
6.24200	5758
6.24267	5758
6.24333	5758
6.24400	5758
6.24467	5758
6.24533	5758
6.24600	5758
6.24667	5758
6.24733	5758
6.24800	5758
6.24867	5758
6.24933	5758
6.25000	5758
6.25067	5758
6.25133	5759
6.25200	5759
6.25267	5759
6.25333	5759
6.25400	5759
6.25467	5759
6.25533	5759
6.25600	5759
6.25667	5759
6.25733	5759
6.25800	5759
6.25867	5759
6.25933	5759
6.26000	5759
6.26067	5759
6.26133	5759
6.26200	5759
6.26267	5759
6.26333	5759
6.26400	5759
6.26467	5759
6.26533	5759
6.26600	5759
6.26667	5758
6.26733	5758
6.26800	5758
6.26867	5758
6.26933	5758
6.27000	5758
6.27067	5758
6.27133	5758
6.27200	5758
6.27267	5757
6.27333	5757
6.27400	5757
6.27467	5757
6.27533	5757
6.27600	5756
6.27667	5756
6.27733	5756
6.27800	5756
6.27867	5756
6.27933	5755
6.28000	5755
6.28067	5755
6.28133	5755
6.28200	5754
6.28267	5754
6.28333	5754
6.28400	5754
6.28467	5753
6.28533	5753
6.28600	5753
6.28667	5753
6.28733	5752
6.28800	5752
6.28867	5752
6.28933	5751
6.29000	5751
6.29067	5751
6.29133	5751
6.29200	5750
6.29267	5750
6.29333	5750
6.29400	5749
6.29467	5749
6.29533	5749
6.29600	5748
6.29667	5748
6.29733	5748
6.29800	5747
6.29867	5747
6.29933	5746
6.30000	5746
6.30067	5745
6.30133	5745
6.30200	5744
6.30267	5744
6.30333	5744
6.30400	5743
6.30467	5743
6.30533	5742
6.30600	5741
6.30667	5741
6.30733	5740
6.30800	5740
6.30867	5739
6.30933	5739
6.31000	5738
6.31067	5738
6.31133	5737
6.31200	5736
6.31267	5736
6.31333	5735
6.31400	5734
6.31467	5734
6.31533	5733
6.31600	5732
6.31667	5732
6.31733	5731
6.31800	5730
6.31867	5730
6.31933	5729
6.32000	5728
6.32067	5728
6.32133	5727
6.32200	5726
6.32267	5725
6.32333	5724
6.32400	5723
6.32467	5723
6.32533	5722
6.32600	5721
6.32667	5720
6.32733	5719
6.32800	5718
6.32867	5717
6.32933	5716
6.33000	5715
6.33067	5714
6.33133	5713
6.33200	5712
6.33267	5711
6.33333	5710
6.33400	5709
6.33467	5709
6.33533	5708
6.33600	5707
6.33667	5706
6.33733	5705
6.33800	5704
6.33867	5703
6.33933	5702
6.34000	5701
6.34067	5700
6.34133	5699
6.34200	5699
6.34267	5698
6.34333	5697
6.34400	5696
6.34467	5695
6.34533	5695
6.34600	5694
6.34667	5693
6.34733	5693
6.34800	5692
6.34867	5691
6.34933	5690
6.35000	5690
6.35067	5689
6.35133	5689
6.35200	5688
6.35267	5687
6.35333	5687
6.35400	5686
6.35467	5685
6.35533	5685
6.35600	5684
6.35667	5684
6.35733	5683
6.35800	5682
6.35867	5682
6.35933	5681
6.36000	5681
6.36067	5680
6.36133	5680
6.36200	5679
6.36267	5679
6.36333	5678
6.36400	5677
6.36467	5677
6.36533	5676
6.36600	5676
6.36667	5675
6.36733	5674
6.36800	5674
6.36867	5673
6.36933	5672
6.37000	5671
6.37067	5671
6.37133	5670
6.37200	5669
6.37267	5669
6.37333	5668
6.37400	5667
6.37467	5667
6.37533	5666
6.37600	5665
6.37667	5664
6.37733	5664
6.37800	5663
6.37867	5662
6.37933	5661
6.38000	5660
6.38067	5659
6.38133	5658
6.38200	5657
6.38267	5656
6.38333	5656
6.38400	5655
6.38467	5654
6.38533	5653
6.38600	5652
6.38667	5651
6.38733	5650
6.38800	5649
6.38867	5648
6.38933	5647
6.39000	5646
6.39067	5645
6.39133	5644
6.39200	5644
6.39267	5643
6.39333	5642
6.39400	5641
6.39467	5640
6.39533	5640
6.39600	5639
6.39667	5638
6.39733	5637
6.39800	5636
6.39867	5636
6.39933	5635

