[Header]
Application Name	LabSolutions
Version	5.73
Data File Name	C:\LabSolutions\Data\Project1\stephen\2016-01-06\48.gcd
Output Date	1/11/2016
Output Time	1:19:49 PM

[Configuration]
Instrument Name	WEISSTA-PC-Instrument1
Instrument #	1
Line #	1
# of Detectors	1
Detector ID	DET#2
Detector Name	DFID1
# of Channels	1

[Chromatogram (Ch1)]
Interval(msec)	40
# of Points	9600
Start Time(min)	0.000
End Time(min)	6.399
R.Time (min)	Intensity
0.00000	33
0.00067	33
0.00133	33
0.00200	33
0.00267	33
0.00333	33
0.00400	33
0.00467	33
0.00533	33
0.00600	33
0.00667	33
0.00733	33
0.00800	33
0.00867	32
0.00933	30
0.01000	29
0.01067	26
0.01133	24
0.01200	21
0.01267	17
0.01333	13
0.01400	8
0.01467	3
0.01533	-3
0.01600	-9
0.01667	-16
0.01733	-22
0.01800	-29
0.01867	-36
0.01933	-43
0.02000	-50
0.02067	-57
0.02133	-64
0.02200	-70
0.02267	-77
0.02333	-83
0.02400	-90
0.02467	-96
0.02533	-101
0.02600	-107
0.02667	-112
0.02733	-117
0.02800	-122
0.02867	-126
0.02933	-131
0.03000	-134
0.03067	-138
0.03133	-141
0.03200	-144
0.03267	-147
0.03333	-150
0.03400	-152
0.03467	-154
0.03533	-156
0.03600	-158
0.03667	-160
0.03733	-161
0.03800	-162
0.03867	-163
0.03933	-164
0.04000	-165
0.04067	-166
0.04133	-166
0.04200	-167
0.04267	-167
0.04333	-167
0.04400	-167
0.04467	-167
0.04533	-167
0.04600	-167
0.04667	-167
0.04733	-167
0.04800	-167
0.04867	-166
0.04933	-166
0.05000	-166
0.05067	-166
0.05133	-165
0.05200	-165
0.05267	-165
0.05333	-164
0.05400	-164
0.05467	-164
0.05533	-163
0.05600	-163
0.05667	-162
0.05733	-162
0.05800	-162
0.05867	-161
0.05933	-161
0.06000	-160
0.06067	-160
0.06133	-160
0.06200	-159
0.06267	-159
0.06333	-158
0.06400	-158
0.06467	-157
0.06533	-157
0.06600	-156
0.06667	-156
0.06733	-155
0.06800	-155
0.06867	-154
0.06933	-154
0.07000	-154
0.07067	-153
0.07133	-153
0.07200	-152
0.07267	-152
0.07333	-151
0.07400	-151
0.07467	-150
0.07533	-150
0.07600	-149
0.07667	-149
0.07733	-148
0.07800	-148
0.07867	-147
0.07933	-147
0.08000	-146
0.08067	-146
0.08133	-145
0.08200	-145
0.08267	-144
0.08333	-143
0.08400	-143
0.08467	-142
0.08533	-142
0.08600	-141
0.08667	-140
0.08733	-136
0.08800	-129
0.08867	-115
0.08933	-84
0.09000	-36
0.09067	36
0.09133	157
0.09200	331
0.09267	553
0.09333	824
0.09400	1169
0.09467	1606
0.09533	2182
0.09600	2856
0.09667	3589
0.09733	4412
0.09800	5306
0.09867	6313
0.09933	7391
0.10000	8585
0.10067	9876
0.10133	11202
0.10200	12603
0.10267	14053
0.10333	15655
0.10400	17485
0.10467	19372
0.10533	21269
0.10600	23241
0.10667	25288
0.10733	27321
0.10800	29287
0.10867	31231
0.10933	33217
0.11000	35185
0.11067	37083
0.11133	38906
0.11200	40672
0.11267	42351
0.11333	43985
0.11400	45580
0.11467	47141
0.11533	48649
0.11600	50150
0.11667	51673
0.11733	53166
0.11800	54574
0.11867	55871
0.11933	57125
0.12000	58410
0.12067	59648
0.12133	60874
0.12200	62046
0.12267	63091
0.12333	64002
0.12400	64847
0.12467	65641
0.12533	66320
0.12600	66915
0.12667	67427
0.12733	67832
0.12800	68146
0.12867	68418
0.12933	68597
0.13000	68699
0.13067	68762
0.13133	68782
0.13200	68862
0.13267	68910
0.13333	68931
0.13400	68889
0.13467	68839
0.13533	69056
0.13600	70394
0.13667	75245
0.13733	88727
0.13800	120848
0.13867	189317
0.13933	321242
0.14000	549947
0.14067	910395
0.14133	1435294
0.14200	2153073
0.14267	3086337
0.14333	4251997
0.14400	5660538
0.14467	7317260
0.14533	9222659
0.14600	11368715
0.14667	13729039
0.14733	16290928
0.14800	19091193
0.14867	22166706
0.14933	25523808
0.15000	29150310
0.15067	33023814
0.15133	37116247
0.15200	41397475
0.15267	45837786
0.15333	50409917
0.15400	55087959
0.15467	59847351
0.15533	64664770
0.15600	69518392
0.15667	74387500
0.15733	79252362
0.15800	84094073
0.15867	88895131
0.15933	93639186
0.16000	98310675
0.16067	102895304
0.16133	107379584
0.16200	111751143
0.16267	115998875
0.16333	120113361
0.16400	124085947
0.16467	127909468
0.16533	131577433
0.16600	135084902
0.16667	138427757
0.16733	141602489
0.16800	144606514
0.16867	147438154
0.16933	150096200
0.17000	152580058
0.17067	154889824
0.17133	157026444
0.17200	158992200
0.17267	160790327
0.17333	162423953
0.17400	163895368
0.17467	165206539
0.17533	166359312
0.17600	167356073
0.17667	168199404
0.17733	168892432
0.17800	169438438
0.17867	169841236
0.17933	170104885
0.18000	170233967
0.18067	170233075
0.18133	170106945
0.18200	169860022
0.18267	169496741
0.18333	169021473
0.18400	168438720
0.18467	167752850
0.18533	166968192
0.18600	166088979
0.18667	165119374
0.18733	164063629
0.18800	162925974
0.18867	161710668
0.18933	160422000
0.19000	159064318
0.19067	157641757
0.19133	156158420
0.19200	154618268
0.19267	153025201
0.19333	151382961
0.19400	149695283
0.19467	147965768
0.19533	146197970
0.19600	144395243
0.19667	142560854
0.19733	140697921
0.19800	138809505
0.19867	136898621
0.19933	134968263
0.20000	133021435
0.20067	131061342
0.20133	129091257
0.20200	127114130
0.20267	125132340
0.20333	123147668
0.20400	121161533
0.20467	119175160
0.20533	117189764
0.20600	115206572
0.20667	113226894
0.20733	111252050
0.20800	109283426
0.20867	107322279
0.20933	105369917
0.21000	103427604
0.21067	101496586
0.21133	99578043
0.21200	97673114
0.21267	95782864
0.21333	93908313
0.21400	92050412
0.21467	90210053
0.21533	88388061
0.21600	86585202
0.21667	84802182
0.21733	83039650
0.21800	81298199
0.21867	79578367
0.21933	77880639
0.22000	76205442
0.22067	74553159
0.22133	72924121
0.22200	71318627
0.22267	69736928
0.22333	68179240
0.22400	66645741
0.22467	65136583
0.22533	63651876
0.22600	62191708
0.22667	60756129
0.22733	59345167
0.22800	57958820
0.22867	56597062
0.22933	55259839
0.23000	53947078
0.23067	52658684
0.23133	51394539
0.23200	50154509
0.23267	48938442
0.23333	47746184
0.23400	46577550
0.23467	45432345
0.23533	44310365
0.23600	43211393
0.23667	42135198
0.23733	41081540
0.23800	40050167
0.23867	39040818
0.23933	38053223
0.24000	37087104
0.24067	36142179
0.24133	35218161
0.24200	34314753
0.24267	33431661
0.24333	32568584
0.24400	31725220
0.24467	30901263
0.24533	30096407
0.24600	29310339
0.24667	28542747
0.24733	27793319
0.24800	27061759
0.24867	26347809
0.24933	25651253
0.25000	24971882
0.25067	24309456
0.25133	23663680
0.25200	23034213
0.25267	22420696
0.25333	21822776
0.25400	21240112
0.25467	20672356
0.25533	20119151
0.25600	19580130
0.25667	19054928
0.25733	18543179
0.25800	18044535
0.25867	17558659
0.25933	17085230
0.26000	16623938
0.26067	16174489
0.26133	15736599
0.26200	15309995
0.26267	14894414
0.26333	14489600
0.26400	14095305
0.26467	13711288
0.26533	13337310
0.26600	12973140
0.26667	12618549
0.26733	12273315
0.26800	11937219
0.26867	11610049
0.26933	11291592
0.27000	10981642
0.27067	10679996
0.27133	10386455
0.27200	10100824
0.27267	9822912
0.27333	9552531
0.27400	9289496
0.27467	9033628
0.27533	8784749
0.27600	8542686
0.27667	8307270
0.27733	8078335
0.27800	7855716
0.27867	7639256
0.27933	7428798
0.28000	7224191
0.28067	7025285
0.28133	6831935
0.28200	6643997
0.28267	6461330
0.28333	6283798
0.28400	6111266
0.28467	5943603
0.28533	5780681
0.28600	5622374
0.28667	5468560
0.28733	5319121
0.28800	5173939
0.28867	5032900
0.28933	4895893
0.29000	4762810
0.29067	4633545
0.29133	4507993
0.29200	4386054
0.29267	4267628
0.29333	4152620
0.29400	4040936
0.29467	3932484
0.29533	3827175
0.29600	3724922
0.29667	3625640
0.29733	3529247
0.29800	3435663
0.29867	3344809
0.29933	3256607
0.30000	3170983
0.30067	3087866
0.30133	3007185
0.30200	2928870
0.30267	2852853
0.30333	2779070
0.30400	2707457
0.30467	2637950
0.30533	2570491
0.30600	2505020
0.30667	2441479
0.30733	2379812
0.30800	2319966
0.30867	2261887
0.30933	2205524
0.31000	2150828
0.31067	2097752
0.31133	2046247
0.31200	1996267
0.31267	1947769
0.31333	1900708
0.31400	1855044
0.31467	1810733
0.31533	1767736
0.31600	1726015
0.31667	1685532
0.31733	1646251
0.31800	1608136
0.31867	1571154
0.31933	1535273
0.32000	1500461
0.32067	1466689
0.32133	1433928
0.32200	1402150
0.32267	1371332
0.32333	1341449
0.32400	1312480
0.32467	1284404
0.32533	1257202
0.32600	1230857
0.32667	1205352
0.32733	1180672
0.32800	1156804
0.32867	1133737
0.32933	1111460
0.33000	1089964
0.33067	1069243
0.33133	1049292
0.33200	1030106
0.33267	1011684
0.33333	994029
0.33400	977145
0.33467	961039
0.33533	945722
0.33600	931207
0.33667	917509
0.33733	904643
0.33800	892624
0.33867	881465
0.33933	871172
0.34000	861748
0.34067	853191
0.34133	845494
0.34200	838641
0.34267	832615
0.34333	827391
0.34400	822939
0.34467	819227
0.34533	816220
0.34600	813879
0.34667	812163
0.34733	811031
0.34800	810439
0.34867	810345
0.34933	810707
0.35000	811485
0.35067	812639
0.35133	814132
0.35200	815928
0.35267	817993
0.35333	820296
0.35400	822806
0.35467	825496
0.35533	828339
0.35600	831312
0.35667	834395
0.35733	837570
0.35800	840819
0.35867	844128
0.35933	847483
0.36000	850873
0.36067	854287
0.36133	857715
0.36200	861148
0.36267	864578
0.36333	867997
0.36400	871399
0.36467	874780
0.36533	878136
0.36600	881467
0.36667	884769
0.36733	888041
0.36800	891284
0.36867	894498
0.36933	897686
0.37000	900848
0.37067	903988
0.37133	907105
0.37200	910202
0.37267	913278
0.37333	916335
0.37400	919372
0.37467	922391
0.37533	925389
0.37600	928367
0.37667	931321
0.37733	934253
0.37800	937162
0.37867	940050
0.37933	942922
0.38000	945785
0.38067	948643
0.38133	951504
0.38200	954376
0.38267	957267
0.38333	960183
0.38400	963127
0.38467	966102
0.38533	969106
0.38600	972137
0.38667	975190
0.38733	978261
0.38800	981344
0.38867	984431
0.38933	987513
0.39000	990582
0.39067	993628
0.39133	996642
0.39200	999616
0.39267	1002544
0.39333	1005421
0.39400	1008242
0.39467	1011003
0.39533	1013699
0.39600	1016330
0.39667	1018890
0.39733	1021377
0.39800	1023785
0.39867	1026109
0.39933	1028340
0.40000	1030468
0.40067	1032482
0.40133	1034364
0.40200	1036097
0.40267	1037660
0.40333	1039033
0.40400	1040193
0.40467	1041118
0.40533	1041783
0.40600	1042164
0.40667	1042232
0.40733	1041961
0.40800	1041328
0.40867	1040310
0.40933	1038889
0.41000	1037049
0.41067	1034775
0.41133	1032055
0.41200	1028875
0.41267	1025225
0.41333	1021088
0.41400	1016453
0.41467	1011305
0.41533	1005633
0.41600	999433
0.41667	992703
0.41733	985450
0.41800	977685
0.41867	969423
0.41933	960686
0.42000	951496
0.42067	941882
0.42133	931870
0.42200	921490
0.42267	910771
0.42333	899744
0.42400	888437
0.42467	876878
0.42533	865098
0.42600	853121
0.42667	840976
0.42733	828687
0.42800	816278
0.42867	803773
0.42933	791193
0.43000	778560
0.43067	765891
0.43133	753207
0.43200	740523
0.43267	727857
0.43333	715222
0.43400	702633
0.43467	690102
0.43533	677642
0.43600	665263
0.43667	652976
0.43733	640790
0.43800	628714
0.43867	616756
0.43933	604924
0.44000	593225
0.44067	581664
0.44133	570248
0.44200	558980
0.44267	547866
0.44333	536908
0.44400	526110
0.44467	515475
0.44533	505003
0.44600	494698
0.44667	484560
0.44733	474592
0.44800	464795
0.44867	455169
0.44933	445716
0.45000	436436
0.45067	427331
0.45133	418399
0.45200	409642
0.45267	401059
0.45333	392648
0.45400	384411
0.45467	376344
0.45533	368449
0.45600	360722
0.45667	353163
0.45733	345770
0.45800	338542
0.45867	331476
0.45933	324572
0.46000	317827
0.46067	311240
0.46133	304810
0.46200	298533
0.46267	292410
0.46333	286438
0.46400	280616
0.46467	274942
0.46533	269417
0.46600	264037
0.46667	258803
0.46733	253713
0.46800	248766
0.46867	243960
0.46933	239292
0.47000	234761
0.47067	230361
0.47133	226088
0.47200	221941
0.47267	217915
0.47333	214008
0.47400	210216
0.47467	206535
0.47533	202964
0.47600	199497
0.47667	196133
0.47733	192867
0.47800	189697
0.47867	186620
0.47933	183633
0.48000	180732
0.48067	177916
0.48133	175181
0.48200	172525
0.48267	169946
0.48333	167441
0.48400	165007
0.48467	162643
0.48533	160345
0.48600	158113
0.48667	155943
0.48733	153835
0.48800	151785
0.48867	149792
0.48933	147854
0.49000	145969
0.49067	144135
0.49133	142350
0.49200	140614
0.49267	138922
0.49333	137275
0.49400	135671
0.49467	134107
0.49533	132582
0.49600	131096
0.49667	129646
0.49733	128231
0.49800	126850
0.49867	125502
0.49933	124185
0.50000	122898
0.50067	121640
0.50133	120411
0.50200	119209
0.50267	118033
0.50333	116883
0.50400	115757
0.50467	114655
0.50533	113575
0.50600	112517
0.50667	111480
0.50733	110464
0.50800	109468
0.50867	108491
0.50933	107532
0.51000	106591
0.51067	105667
0.51133	104760
0.51200	103869
0.51267	102994
0.51333	102134
0.51400	101288
0.51467	100457
0.51533	99639
0.51600	98834
0.51667	98043
0.51733	97263
0.51800	96496
0.51867	95741
0.51933	94997
0.52000	94263
0.52067	93541
0.52133	92829
0.52200	92127
0.52267	91435
0.52333	90753
0.52400	90079
0.52467	89415
0.52533	88759
0.52600	88112
0.52667	87473
0.52733	86842
0.52800	86219
0.52867	85604
0.52933	84996
0.53000	84395
0.53067	83802
0.53133	83215
0.53200	82635
0.53267	82062
0.53333	81494
0.53400	80934
0.53467	80379
0.53533	79830
0.53600	79287
0.53667	78750
0.53733	78219
0.53800	77693
0.53867	77172
0.53933	76657
0.54000	76148
0.54067	75643
0.54133	75144
0.54200	74650
0.54267	74161
0.54333	73677
0.54400	73198
0.54467	72724
0.54533	72256
0.54600	71792
0.54667	71334
0.54733	70881
0.54800	70434
0.54867	69993
0.54933	69557
0.55000	69127
0.55067	68703
0.55133	68286
0.55200	67874
0.55267	67468
0.55333	67069
0.55400	66675
0.55467	66288
0.55533	65906
0.55600	65531
0.55667	65161
0.55733	64796
0.55800	64437
0.55867	64084
0.55933	63734
0.56000	63390
0.56067	63049
0.56133	62713
0.56200	62380
0.56267	62050
0.56333	61724
0.56400	61400
0.56467	61079
0.56533	60760
0.56600	60443
0.56667	60128
0.56733	59815
0.56800	59503
0.56867	59192
0.56933	58883
0.57000	58575
0.57067	58268
0.57133	57962
0.57200	57658
0.57267	57354
0.57333	57051
0.57400	56749
0.57467	56449
0.57533	56149
0.57600	55851
0.57667	55553
0.57733	55257
0.57800	54961
0.57867	54667
0.57933	54374
0.58000	54082
0.58067	53791
0.58133	53501
0.58200	53213
0.58267	52925
0.58333	52639
0.58400	52353
0.58467	52069
0.58533	51787
0.58600	51505
0.58667	51225
0.58733	50946
0.58800	50668
0.58867	50391
0.58933	50116
0.59000	49843
0.59067	49571
0.59133	49300
0.59200	49031
0.59267	48764
0.59333	48498
0.59400	48233
0.59467	47971
0.59533	47710
0.59600	47450
0.59667	47193
0.59733	46937
0.59800	46683
0.59867	46431
0.59933	46181
0.60000	45932
0.60067	45685
0.60133	45441
0.60200	45198
0.60267	44956
0.60333	44717
0.60400	44480
0.60467	44245
0.60533	44011
0.60600	43780
0.60667	43550
0.60733	43323
0.60800	43097
0.60867	42874
0.60933	42652
0.61000	42433
0.61067	42216
0.61133	42001
0.61200	41788
0.61267	41577
0.61333	41368
0.61400	41161
0.61467	40957
0.61533	40754
0.61600	40554
0.61667	40356
0.61733	40160
0.61800	39965
0.61867	39773
0.61933	39583
0.62000	39394
0.62067	39207
0.62133	39023
0.62200	38839
0.62267	38658
0.62333	38478
0.62400	38300
0.62467	38123
0.62533	37948
0.62600	37774
0.62667	37602
0.62733	37431
0.62800	37261
0.62867	37093
0.62933	36926
0.63000	36761
0.63067	36597
0.63133	36434
0.63200	36272
0.63267	36112
0.63333	35953
0.63400	35795
0.63467	35638
0.63533	35483
0.63600	35329
0.63667	35176
0.63733	35025
0.63800	34875
0.63867	34727
0.63933	34580
0.64000	34434
0.64067	34289
0.64133	34146
0.64200	34005
0.64267	33864
0.64333	33725
0.64400	33587
0.64467	33451
0.64533	33316
0.64600	33182
0.64667	33049
0.64733	32917
0.64800	32787
0.64867	32657
0.64933	32529
0.65000	32401
0.65067	32275
0.65133	32149
0.65200	32024
0.65267	31900
0.65333	31776
0.65400	31654
0.65467	31532
0.65533	31410
0.65600	31290
0.65667	31170
0.65733	31050
0.65800	30931
0.65867	30812
0.65933	30694
0.66000	30576
0.66067	30459
0.66133	30342
0.66200	30226
0.66267	30110
0.66333	29994
0.66400	29879
0.66467	29765
0.66533	29651
0.66600	29537
0.66667	29423
0.66733	29310
0.66800	29198
0.66867	29086
0.66933	28974
0.67000	28863
0.67067	28752
0.67133	28642
0.67200	28532
0.67267	28423
0.67333	28314
0.67400	28206
0.67467	28098
0.67533	27991
0.67600	27885
0.67667	27779
0.67733	27675
0.67800	27571
0.67867	27468
0.67933	27367
0.68000	27267
0.68067	27168
0.68133	27070
0.68200	26975
0.68267	26881
0.68333	26789
0.68400	26699
0.68467	26612
0.68533	26527
0.68600	26445
0.68667	26366
0.68733	26290
0.68800	26218
0.68867	26149
0.68933	26084
0.69000	26023
0.69067	25967
0.69133	25915
0.69200	25867
0.69267	25824
0.69333	25786
0.69400	25752
0.69467	25723
0.69533	25699
0.69600	25679
0.69667	25663
0.69733	25651
0.69800	25642
0.69867	25638
0.69933	25636
0.70000	25636
0.70067	25639
0.70133	25644
0.70200	25649
0.70267	25656
0.70333	25663
0.70400	25670
0.70467	25675
0.70533	25680
0.70600	25683
0.70667	25684
0.70733	25683
0.70800	25679
0.70867	25672
0.70933	25662
0.71000	25648
0.71067	25631
0.71133	25610
0.71200	25586
0.71267	25558
0.71333	25526
0.71400	25491
0.71467	25452
0.71533	25409
0.71600	25363
0.71667	25314
0.71733	25261
0.71800	25205
0.71867	25147
0.71933	25085
0.72000	25021
0.72067	24954
0.72133	24885
0.72200	24814
0.72267	24740
0.72333	24665
0.72400	24588
0.72467	24509
0.72533	24429
0.72600	24347
0.72667	24264
0.72733	24180
0.72800	24095
0.72867	24009
0.72933	23922
0.73000	23834
0.73067	23746
0.73133	23657
0.73200	23568
0.73267	23478
0.73333	23388
0.73400	23298
0.73467	23208
0.73533	23117
0.73600	23026
0.73667	22936
0.73733	22845
0.73800	22755
0.73867	22665
0.73933	22574
0.74000	22484
0.74067	22395
0.74133	22305
0.74200	22216
0.74267	22128
0.74333	22039
0.74400	21952
0.74467	21864
0.74533	21777
0.74600	21691
0.74667	21605
0.74733	21519
0.74800	21434
0.74867	21350
0.74933	21266
0.75000	21183
0.75067	21100
0.75133	21018
0.75200	20937
0.75267	20856
0.75333	20776
0.75400	20696
0.75467	20617
0.75533	20539
0.75600	20461
0.75667	20384
0.75733	20308
0.75800	20232
0.75867	20157
0.75933	20083
0.76000	20010
0.76067	19937
0.76133	19864
0.76200	19793
0.76267	19722
0.76333	19651
0.76400	19582
0.76467	19513
0.76533	19444
0.76600	19377
0.76667	19310
0.76733	19244
0.76800	19178
0.76867	19113
0.76933	19049
0.77000	18985
0.77067	18922
0.77133	18860
0.77200	18798
0.77267	18737
0.77333	18677
0.77400	18617
0.77467	18558
0.77533	18499
0.77600	18441
0.77667	18384
0.77733	18327
0.77800	18270
0.77867	18215
0.77933	18159
0.78000	18105
0.78067	18051
0.78133	17997
0.78200	17944
0.78267	17892
0.78333	17840
0.78400	17788
0.78467	17738
0.78533	17687
0.78600	17637
0.78667	17588
0.78733	17539
0.78800	17490
0.78867	17442
0.78933	17394
0.79000	17347
0.79067	17300
0.79133	17254
0.79200	17208
0.79267	17162
0.79333	17117
0.79400	17072
0.79467	17028
0.79533	16984
0.79600	16941
0.79667	16898
0.79733	16855
0.79800	16813
0.79867	16771
0.79933	16729
0.80000	16688
0.80067	16648
0.80133	16608
0.80200	16568
0.80267	16528
0.80333	16489
0.80400	16450
0.80467	16412
0.80533	16374
0.80600	16336
0.80667	16299
0.80733	16261
0.80800	16225
0.80867	16188
0.80933	16152
0.81000	16116
0.81067	16081
0.81133	16046
0.81200	16011
0.81267	15976
0.81333	15942
0.81400	15909
0.81467	15875
0.81533	15842
0.81600	15810
0.81667	15777
0.81733	15745
0.81800	15714
0.81867	15682
0.81933	15651
0.82000	15621
0.82067	15590
0.82133	15560
0.82200	15530
0.82267	15500
0.82333	15471
0.82400	15441
0.82467	15412
0.82533	15383
0.82600	15355
0.82667	15327
0.82733	15298
0.82800	15270
0.82867	15243
0.82933	15215
0.83000	15188
0.83067	15160
0.83133	15133
0.83200	15106
0.83267	15080
0.83333	15053
0.83400	15026
0.83467	15000
0.83533	14974
0.83600	14948
0.83667	14922
0.83733	14896
0.83800	14870
0.83867	14845
0.83933	14819
0.84000	14794
0.84067	14769
0.84133	14743
0.84200	14718
0.84267	14693
0.84333	14668
0.84400	14643
0.84467	14618
0.84533	14594
0.84600	14569
0.84667	14544
0.84733	14519
0.84800	14495
0.84867	14470
0.84933	14446
0.85000	14421
0.85067	14397
0.85133	14372
0.85200	14348
0.85267	14324
0.85333	14299
0.85400	14275
0.85467	14251
0.85533	14227
0.85600	14203
0.85667	14179
0.85733	14155
0.85800	14130
0.85867	14107
0.85933	14083
0.86000	14059
0.86067	14035
0.86133	14011
0.86200	13987
0.86267	13964
0.86333	13940
0.86400	13917
0.86467	13893
0.86533	13870
0.86600	13846
0.86667	13823
0.86733	13800
0.86800	13777
0.86867	13754
0.86933	13731
0.87000	13708
0.87067	13685
0.87133	13662
0.87200	13640
0.87267	13617
0.87333	13595
0.87400	13572
0.87467	13550
0.87533	13528
0.87600	13506
0.87667	13484
0.87733	13462
0.87800	13440
0.87867	13419
0.87933	13397
0.88000	13376
0.88067	13355
0.88133	13334
0.88200	13313
0.88267	13292
0.88333	13271
0.88400	13251
0.88467	13230
0.88533	13210
0.88600	13190
0.88667	13170
0.88733	13150
0.88800	13130
0.88867	13110
0.88933	13091
0.89000	13072
0.89067	13052
0.89133	13033
0.89200	13014
0.89267	12995
0.89333	12976
0.89400	12958
0.89467	12939
0.89533	12920
0.89600	12902
0.89667	12884
0.89733	12865
0.89800	12847
0.89867	12829
0.89933	12811
0.90000	12793
0.90067	12775
0.90133	12757
0.90200	12739
0.90267	12722
0.90333	12704
0.90400	12686
0.90467	12669
0.90533	12652
0.90600	12634
0.90667	12617
0.90733	12600
0.90800	12583
0.90867	12566
0.90933	12549
0.91000	12532
0.91067	12515
0.91133	12499
0.91200	12482
0.91267	12465
0.91333	12449
0.91400	12432
0.91467	12416
0.91533	12400
0.91600	12383
0.91667	12367
0.91733	12351
0.91800	12335
0.91867	12319
0.91933	12304
0.92000	12288
0.92067	12272
0.92133	12257
0.92200	12241
0.92267	12226
0.92333	12210
0.92400	12195
0.92467	12180
0.92533	12164
0.92600	12149
0.92667	12134
0.92733	12119
0.92800	12104
0.92867	12089
0.92933	12075
0.93000	12060
0.93067	12045
0.93133	12031
0.93200	12016
0.93267	12002
0.93333	11987
0.93400	11973
0.93467	11959
0.93533	11944
0.93600	11930
0.93667	11916
0.93733	11902
0.93800	11887
0.93867	11873
0.93933	11859
0.94000	11845
0.94067	11831
0.94133	11817
0.94200	11803
0.94267	11788
0.94333	11774
0.94400	11760
0.94467	11746
0.94533	11732
0.94600	11718
0.94667	11704
0.94733	11690
0.94800	11676
0.94867	11662
0.94933	11649
0.95000	11635
0.95067	11621
0.95133	11608
0.95200	11594
0.95267	11581
0.95333	11567
0.95400	11554
0.95467	11541
0.95533	11528
0.95600	11515
0.95667	11502
0.95733	11489
0.95800	11476
0.95867	11464
0.95933	11451
0.96000	11439
0.96067	11427
0.96133	11414
0.96200	11402
0.96267	11390
0.96333	11378
0.96400	11366
0.96467	11355
0.96533	11343
0.96600	11331
0.96667	11320
0.96733	11308
0.96800	11297
0.96867	11285
0.96933	11274
0.97000	11262
0.97067	11251
0.97133	11239
0.97200	11227
0.97267	11216
0.97333	11204
0.97400	11192
0.97467	11181
0.97533	11169
0.97600	11157
0.97667	11145
0.97733	11133
0.97800	11122
0.97867	11110
0.97933	11098
0.98000	11085
0.98067	11073
0.98133	11061
0.98200	11049
0.98267	11036
0.98333	11024
0.98400	11012
0.98467	10999
0.98533	10987
0.98600	10974
0.98667	10961
0.98733	10949
0.98800	10936
0.98867	10923
0.98933	10910
0.99000	10898
0.99067	10885
0.99133	10872
0.99200	10860
0.99267	10847
0.99333	10834
0.99400	10821
0.99467	10809
0.99533	10796
0.99600	10783
0.99667	10771
0.99733	10758
0.99800	10745
0.99867	10733
0.99933	10720
1.00000	10708
1.00067	10696
1.00133	10683
1.00200	10671
1.00267	10659
1.00333	10647
1.00400	10634
1.00467	10622
1.00533	10610
1.00600	10598
1.00667	10586
1.00733	10575
1.00800	10563
1.00867	10551
1.00933	10540
1.01000	10528
1.01067	10517
1.01133	10506
1.01200	10495
1.01267	10484
1.01333	10474
1.01400	10463
1.01467	10453
1.01533	10443
1.01600	10433
1.01667	10423
1.01733	10414
1.01800	10404
1.01867	10395
1.01933	10386
1.02000	10378
1.02067	10370
1.02133	10362
1.02200	10354
1.02267	10346
1.02333	10338
1.02400	10331
1.02467	10324
1.02533	10317
1.02600	10310
1.02667	10304
1.02733	10297
1.02800	10290
1.02867	10284
1.02933	10278
1.03000	10271
1.03067	10265
1.03133	10258
1.03200	10252
1.03267	10246
1.03333	10239
1.03400	10233
1.03467	10226
1.03533	10220
1.03600	10213
1.03667	10206
1.03733	10199
1.03800	10192
1.03867	10184
1.03933	10177
1.04000	10169
1.04067	10162
1.04133	10154
1.04200	10146
1.04267	10138
1.04333	10129
1.04400	10121
1.04467	10113
1.04533	10104
1.04600	10096
1.04667	10087
1.04733	10078
1.04800	10069
1.04867	10060
1.04933	10051
1.05000	10042
1.05067	10033
1.05133	10023
1.05200	10014
1.05267	10004
1.05333	9994
1.05400	9985
1.05467	9975
1.05533	9965
1.05600	9955
1.05667	9945
1.05733	9935
1.05800	9925
1.05867	9915
1.05933	9905
1.06000	9895
1.06067	9885
1.06133	9875
1.06200	9865
1.06267	9855
1.06333	9845
1.06400	9835
1.06467	9825
1.06533	9815
1.06600	9805
1.06667	9795
1.06733	9785
1.06800	9775
1.06867	9765
1.06933	9755
1.07000	9745
1.07067	9736
1.07133	9726
1.07200	9716
1.07267	9707
1.07333	9697
1.07400	9687
1.07467	9678
1.07533	9668
1.07600	9658
1.07667	9649
1.07733	9639
1.07800	9630
1.07867	9620
1.07933	9611
1.08000	9601
1.08067	9592
1.08133	9582
1.08200	9573
1.08267	9564
1.08333	9554
1.08400	9545
1.08467	9536
1.08533	9526
1.08600	9517
1.08667	9508
1.08733	9499
1.08800	9489
1.08867	9480
1.08933	9471
1.09000	9462
1.09067	9453
1.09133	9444
1.09200	9435
1.09267	9426
1.09333	9417
1.09400	9408
1.09467	9400
1.09533	9391
1.09600	9382
1.09667	9374
1.09733	9365
1.09800	9357
1.09867	9348
1.09933	9340
1.10000	9331
1.10067	9323
1.10133	9314
1.10200	9306
1.10267	9297
1.10333	9289
1.10400	9281
1.10467	9272
1.10533	9264
1.10600	9256
1.10667	9247
1.10733	9239
1.10800	9231
1.10867	9223
1.10933	9215
1.11000	9207
1.11067	9199
1.11133	9191
1.11200	9184
1.11267	9176
1.11333	9168
1.11400	9161
1.11467	9153
1.11533	9145
1.11600	9138
1.11667	9131
1.11733	9123
1.11800	9116
1.11867	9109
1.11933	9102
1.12000	9095
1.12067	9088
1.12133	9081
1.12200	9075
1.12267	9068
1.12333	9062
1.12400	9056
1.12467	9049
1.12533	9043
1.12600	9038
1.12667	9032
1.12733	9026
1.12800	9021
1.12867	9016
1.12933	9011
1.13000	9006
1.13067	9001
1.13133	8996
1.13200	8992
1.13267	8987
1.13333	8983
1.13400	8979
1.13467	8975
1.13533	8972
1.13600	8968
1.13667	8965
1.13733	8962
1.13800	8959
1.13867	8956
1.13933	8954
1.14000	8951
1.14067	8949
1.14133	8947
1.14200	8944
1.14267	8942
1.14333	8940
1.14400	8938
1.14467	8936
1.14533	8934
1.14600	8932
1.14667	8930
1.14733	8927
1.14800	8925
1.14867	8923
1.14933	8920
1.15000	8918
1.15067	8915
1.15133	8913
1.15200	8910
1.15267	8907
1.15333	8904
1.15400	8900
1.15467	8897
1.15533	8893
1.15600	8890
1.15667	8886
1.15733	8882
1.15800	8878
1.15867	8874
1.15933	8870
1.16000	8865
1.16067	8861
1.16133	8856
1.16200	8851
1.16267	8846
1.16333	8841
1.16400	8835
1.16467	8830
1.16533	8824
1.16600	8819
1.16667	8813
1.16733	8807
1.16800	8801
1.16867	8795
1.16933	8789
1.17000	8783
1.17067	8777
1.17133	8771
1.17200	8765
1.17267	8759
1.17333	8752
1.17400	8746
1.17467	8740
1.17533	8733
1.17600	8727
1.17667	8720
1.17733	8714
1.17800	8707
1.17867	8701
1.17933	8694
1.18000	8688
1.18067	8681
1.18133	8675
1.18200	8668
1.18267	8662
1.18333	8656
1.18400	8649
1.18467	8643
1.18533	8636
1.18600	8630
1.18667	8624
1.18733	8618
1.18800	8611
1.18867	8605
1.18933	8599
1.19000	8593
1.19067	8587
1.19133	8581
1.19200	8575
1.19267	8569
1.19333	8564
1.19400	8558
1.19467	8552
1.19533	8547
1.19600	8541
1.19667	8536
1.19733	8530
1.19800	8525
1.19867	8519
1.19933	8514
1.20000	8509
1.20067	8504
1.20133	8499
1.20200	8494
1.20267	8489
1.20333	8484
1.20400	8479
1.20467	8474
1.20533	8470
1.20600	8465
1.20667	8461
1.20733	8457
1.20800	8452
1.20867	8448
1.20933	8444
1.21000	8440
1.21067	8436
1.21133	8432
1.21200	8428
1.21267	8424
1.21333	8421
1.21400	8417
1.21467	8413
1.21533	8410
1.21600	8407
1.21667	8403
1.21733	8400
1.21800	8397
1.21867	8394
1.21933	8391
1.22000	8388
1.22067	8385
1.22133	8382
1.22200	8379
1.22267	8376
1.22333	8373
1.22400	8370
1.22467	8367
1.22533	8365
1.22600	8362
1.22667	8359
1.22733	8356
1.22800	8354
1.22867	8351
1.22933	8348
1.23000	8346
1.23067	8343
1.23133	8340
1.23200	8338
1.23267	8335
1.23333	8332
1.23400	8330
1.23467	8327
1.23533	8325
1.23600	8323
1.23667	8320
1.23733	8318
1.23800	8315
1.23867	8313
1.23933	8311
1.24000	8308
1.24067	8306
1.24133	8303
1.24200	8301
1.24267	8299
1.24333	8297
1.24400	8295
1.24467	8292
1.24533	8290
1.24600	8288
1.24667	8286
1.24733	8284
1.24800	8282
1.24867	8280
1.24933	8279
1.25000	8277
1.25067	8275
1.25133	8273
1.25200	8272
1.25267	8270
1.25333	8268
1.25400	8267
1.25467	8266
1.25533	8264
1.25600	8263
1.25667	8262
1.25733	8261
1.25800	8260
1.25867	8260
1.25933	8259
1.26000	8259
1.26067	8259
1.26133	8259
1.26200	8260
1.26267	8260
1.26333	8261
1.26400	8262
1.26467	8263
1.26533	8264
1.26600	8266
1.26667	8268
1.26733	8271
1.26800	8273
1.26867	8276
1.26933	8279
1.27000	8283
1.27067	8286
1.27133	8290
1.27200	8295
1.27267	8299
1.27333	8304
1.27400	8309
1.27467	8315
1.27533	8321
1.27600	8326
1.27667	8333
1.27733	8339
1.27800	8346
1.27867	8352
1.27933	8359
1.28000	8366
1.28067	8373
1.28133	8381
1.28200	8388
1.28267	8395
1.28333	8403
1.28400	8410
1.28467	8418
1.28533	8425
1.28600	8432
1.28667	8440
1.28733	8447
1.28800	8453
1.28867	8460
1.28933	8466
1.29000	8472
1.29067	8478
1.29133	8484
1.29200	8489
1.29267	8494
1.29333	8498
1.29400	8503
1.29467	8507
1.29533	8510
1.29600	8513
1.29667	8516
1.29733	8518
1.29800	8520
1.29867	8522
1.29933	8523
1.30000	8524
1.30067	8524
1.30133	8525
1.30200	8524
1.30267	8524
1.30333	8523
1.30400	8522
1.30467	8520
1.30533	8518
1.30600	8516
1.30667	8514
1.30733	8511
1.30800	8508
1.30867	8504
1.30933	8501
1.31000	8497
1.31067	8492
1.31133	8488
1.31200	8483
1.31267	8478
1.31333	8473
1.31400	8468
1.31467	8462
1.31533	8457
1.31600	8451
1.31667	8445
1.31733	8439
1.31800	8433
1.31867	8426
1.31933	8420
1.32000	8413
1.32067	8407
1.32133	8400
1.32200	8393
1.32267	8386
1.32333	8379
1.32400	8371
1.32467	8364
1.32533	8357
1.32600	8349
1.32667	8342
1.32733	8334
1.32800	8326
1.32867	8319
1.32933	8311
1.33000	8303
1.33067	8295
1.33133	8287
1.33200	8279
1.33267	8271
1.33333	8263
1.33400	8255
1.33467	8247
1.33533	8239
1.33600	8231
1.33667	8223
1.33733	8215
1.33800	8207
1.33867	8199
1.33933	8191
1.34000	8183
1.34067	8174
1.34133	8166
1.34200	8158
1.34267	8150
1.34333	8142
1.34400	8133
1.34467	8125
1.34533	8117
1.34600	8109
1.34667	8101
1.34733	8093
1.34800	8085
1.34867	8077
1.34933	8069
1.35000	8061
1.35067	8053
1.35133	8045
1.35200	8037
1.35267	8030
1.35333	8022
1.35400	8014
1.35467	8006
1.35533	7999
1.35600	7991
1.35667	7983
1.35733	7976
1.35800	7969
1.35867	7961
1.35933	7954
1.36000	7947
1.36067	7940
1.36133	7932
1.36200	7925
1.36267	7919
1.36333	7912
1.36400	7905
1.36467	7898
1.36533	7891
1.36600	7885
1.36667	7878
1.36733	7872
1.36800	7866
1.36867	7859
1.36933	7853
1.37000	7847
1.37067	7841
1.37133	7835
1.37200	7829
1.37267	7823
1.37333	7817
1.37400	7812
1.37467	7806
1.37533	7801
1.37600	7795
1.37667	7790
1.37733	7784
1.37800	7779
1.37867	7773
1.37933	7768
1.38000	7763
1.38067	7758
1.38133	7753
1.38200	7747
1.38267	7742
1.38333	7738
1.38400	7733
1.38467	7728
1.38533	7723
1.38600	7719
1.38667	7714
1.38733	7710
1.38800	7705
1.38867	7701
1.38933	7697
1.39000	7692
1.39067	7688
1.39133	7684
1.39200	7680
1.39267	7676
1.39333	7672
1.39400	7668
1.39467	7664
1.39533	7660
1.39600	7656
1.39667	7652
1.39733	7648
1.39800	7644
1.39867	7640
1.39933	7636
1.40000	7632
1.40067	7628
1.40133	7624
1.40200	7620
1.40267	7616
1.40333	7612
1.40400	7608
1.40467	7605
1.40533	7601
1.40600	7597
1.40667	7593
1.40733	7589
1.40800	7585
1.40867	7581
1.40933	7577
1.41000	7573
1.41067	7570
1.41133	7566
1.41200	7562
1.41267	7558
1.41333	7554
1.41400	7550
1.41467	7546
1.41533	7542
1.41600	7538
1.41667	7534
1.41733	7530
1.41800	7526
1.41867	7522
1.41933	7518
1.42000	7514
1.42067	7511
1.42133	7507
1.42200	7503
1.42267	7499
1.42333	7495
1.42400	7492
1.42467	7488
1.42533	7484
1.42600	7481
1.42667	7477
1.42733	7473
1.42800	7470
1.42867	7466
1.42933	7463
1.43000	7459
1.43067	7456
1.43133	7453
1.43200	7450
1.43267	7446
1.43333	7443
1.43400	7440
1.43467	7437
1.43533	7434
1.43600	7431
1.43667	7428
1.43733	7425
1.43800	7422
1.43867	7419
1.43933	7417
1.44000	7414
1.44067	7411
1.44133	7408
1.44200	7406
1.44267	7403
1.44333	7401
1.44400	7398
1.44467	7396
1.44533	7393
1.44600	7391
1.44667	7388
1.44733	7386
1.44800	7384
1.44867	7382
1.44933	7380
1.45000	7377
1.45067	7375
1.45133	7373
1.45200	7371
1.45267	7369
1.45333	7367
1.45400	7364
1.45467	7362
1.45533	7360
1.45600	7358
1.45667	7356
1.45733	7353
1.45800	7351
1.45867	7349
1.45933	7347
1.46000	7345
1.46067	7343
1.46133	7340
1.46200	7338
1.46267	7336
1.46333	7334
1.46400	7331
1.46467	7329
1.46533	7327
1.46600	7324
1.46667	7322
1.46733	7319
1.46800	7317
1.46867	7314
1.46933	7312
1.47000	7309
1.47067	7307
1.47133	7304
1.47200	7302
1.47267	7299
1.47333	7296
1.47400	7294
1.47467	7291
1.47533	7288
1.47600	7285
1.47667	7283
1.47733	7280
1.47800	7277
1.47867	7274
1.47933	7272
1.48000	7269
1.48067	7266
1.48133	7263
1.48200	7260
1.48267	7257
1.48333	7254
1.48400	7251
1.48467	7248
1.48533	7245
1.48600	7242
1.48667	7239
1.48733	7236
1.48800	7233
1.48867	7230
1.48933	7227
1.49000	7224
1.49067	7221
1.49133	7219
1.49200	7216
1.49267	7213
1.49333	7210
1.49400	7207
1.49467	7204
1.49533	7201
1.49600	7199
1.49667	7196
1.49733	7193
1.49800	7191
1.49867	7188
1.49933	7185
1.50000	7183
1.50067	7180
1.50133	7177
1.50200	7175
1.50267	7172
1.50333	7169
1.50400	7167
1.50467	7164
1.50533	7161
1.50600	7159
1.50667	7156
1.50733	7153
1.50800	7151
1.50867	7148
1.50933	7145
1.51000	7142
1.51067	7140
1.51133	7137
1.51200	7134
1.51267	7131
1.51333	7129
1.51400	7126
1.51467	7123
1.51533	7120
1.51600	7118
1.51667	7115
1.51733	7112
1.51800	7109
1.51867	7107
1.51933	7104
1.52000	7102
1.52067	7099
1.52133	7096
1.52200	7094
1.52267	7091
1.52333	7089
1.52400	7086
1.52467	7084
1.52533	7081
1.52600	7079
1.52667	7077
1.52733	7074
1.52800	7072
1.52867	7070
1.52933	7068
1.53000	7066
1.53067	7064
1.53133	7062
1.53200	7060
1.53267	7058
1.53333	7056
1.53400	7054
1.53467	7052
1.53533	7050
1.53600	7048
1.53667	7046
1.53733	7045
1.53800	7043
1.53867	7041
1.53933	7039
1.54000	7038
1.54067	7036
1.54133	7034
1.54200	7032
1.54267	7030
1.54333	7029
1.54400	7027
1.54467	7025
1.54533	7024
1.54600	7022
1.54667	7020
1.54733	7019
1.54800	7017
1.54867	7015
1.54933	7013
1.55000	7012
1.55067	7010
1.55133	7008
1.55200	7006
1.55267	7004
1.55333	7003
1.55400	7001
1.55467	6999
1.55533	6997
1.55600	6995
1.55667	6993
1.55733	6991
1.55800	6989
1.55867	6987
1.55933	6985
1.56000	6983
1.56067	6981
1.56133	6979
1.56200	6977
1.56267	6975
1.56333	6972
1.56400	6970
1.56467	6968
1.56533	6966
1.56600	6964
1.56667	6961
1.56733	6959
1.56800	6957
1.56867	6954
1.56933	6952
1.57000	6950
1.57067	6948
1.57133	6946
1.57200	6944
1.57267	6942
1.57333	6940
1.57400	6938
1.57467	6936
1.57533	6934
1.57600	6932
1.57667	6931
1.57733	6929
1.57800	6928
1.57867	6926
1.57933	6925
1.58000	6923
1.58067	6922
1.58133	6920
1.58200	6919
1.58267	6917
1.58333	6916
1.58400	6914
1.58467	6913
1.58533	6911
1.58600	6910
1.58667	6909
1.58733	6907
1.58800	6906
1.58867	6905
1.58933	6904
1.59000	6902
1.59067	6901
1.59133	6900
1.59200	6898
1.59267	6897
1.59333	6896
1.59400	6894
1.59467	6893
1.59533	6891
1.59600	6890
1.59667	6889
1.59733	6887
1.59800	6886
1.59867	6884
1.59933	6883
1.60000	6881
1.60067	6880
1.60133	6878
1.60200	6877
1.60267	6875
1.60333	6874
1.60400	6872
1.60467	6871
1.60533	6869
1.60600	6868
1.60667	6866
1.60733	6864
1.60800	6863
1.60867	6861
1.60933	6860
1.61000	6858
1.61067	6857
1.61133	6855
1.61200	6854
1.61267	6853
1.61333	6851
1.61400	6850
1.61467	6848
1.61533	6847
1.61600	6846
1.61667	6844
1.61733	6843
1.61800	6842
1.61867	6840
1.61933	6839
1.62000	6837
1.62067	6836
1.62133	6835
1.62200	6833
1.62267	6832
1.62333	6831
1.62400	6829
1.62467	6828
1.62533	6827
1.62600	6826
1.62667	6824
1.62733	6823
1.62800	6822
1.62867	6821
1.62933	6820
1.63000	6819
1.63067	6817
1.63133	6816
1.63200	6815
1.63267	6814
1.63333	6813
1.63400	6812
1.63467	6811
1.63533	6810
1.63600	6809
1.63667	6808
1.63733	6807
1.63800	6806
1.63867	6805
1.63933	6804
1.64000	6803
1.64067	6802
1.64133	6801
1.64200	6800
1.64267	6799
1.64333	6798
1.64400	6797
1.64467	6796
1.64533	6795
1.64600	6794
1.64667	6794
1.64733	6793
1.64800	6792
1.64867	6792
1.64933	6791
1.65000	6790
1.65067	6790
1.65133	6789
1.65200	6789
1.65267	6788
1.65333	6787
1.65400	6787
1.65467	6786
1.65533	6786
1.65600	6785
1.65667	6785
1.65733	6784
1.65800	6784
1.65867	6783
1.65933	6783
1.66000	6782
1.66067	6782
1.66133	6781
1.66200	6781
1.66267	6780
1.66333	6779
1.66400	6779
1.66467	6778
1.66533	6778
1.66600	6777
1.66667	6776
1.66733	6776
1.66800	6775
1.66867	6774
1.66933	6773
1.67000	6772
1.67067	6771
1.67133	6770
1.67200	6769
1.67267	6768
1.67333	6767
1.67400	6766
1.67467	6765
1.67533	6764
1.67600	6763
1.67667	6761
1.67733	6760
1.67800	6759
1.67867	6758
1.67933	6756
1.68000	6755
1.68067	6754
1.68133	6752
1.68200	6751
1.68267	6750
1.68333	6748
1.68400	6747
1.68467	6745
1.68533	6744
1.68600	6742
1.68667	6741
1.68733	6739
1.68800	6738
1.68867	6736
1.68933	6734
1.69000	6733
1.69067	6731
1.69133	6729
1.69200	6728
1.69267	6726
1.69333	6724
1.69400	6722
1.69467	6720
1.69533	6718
1.69600	6716
1.69667	6714
1.69733	6712
1.69800	6710
1.69867	6708
1.69933	6706
1.70000	6704
1.70067	6702
1.70133	6700
1.70200	6698
1.70267	6695
1.70333	6693
1.70400	6691
1.70467	6689
1.70533	6687
1.70600	6685
1.70667	6683
1.70733	6681
1.70800	6679
1.70867	6678
1.70933	6676
1.71000	6674
1.71067	6672
1.71133	6671
1.71200	6670
1.71267	6668
1.71333	6667
1.71400	6666
1.71467	6666
1.71533	6665
1.71600	6665
1.71667	6666
1.71733	6666
1.71800	6668
1.71867	6671
1.71933	6674
1.72000	6679
1.72067	6686
1.72133	6694
1.72200	6705
1.72267	6718
1.72333	6735
1.72400	6756
1.72467	6781
1.72533	6813
1.72600	6851
1.72667	6897
1.72733	6953
1.72800	7020
1.72867	7099
1.72933	7194
1.73000	7306
1.73067	7438
1.73133	7594
1.73200	7776
1.73267	7987
1.73333	8234
1.73400	8519
1.73467	8848
1.73533	9227
1.73600	9661
1.73667	10156
1.73733	10719
1.73800	11358
1.73867	12079
1.73933	12891
1.74000	13801
1.74067	14818
1.74133	15950
1.74200	17205
1.74267	18591
1.74333	20118
1.74400	21793
1.74467	23624
1.74533	25618
1.74600	27783
1.74667	30125
1.74733	32652
1.74800	35367
1.74867	38275
1.74933	41378
1.75000	44680
1.75067	48183
1.75133	51885
1.75200	55787
1.75267	59884
1.75333	64169
1.75400	68638
1.75467	73283
1.75533	78097
1.75600	83072
1.75667	88197
1.75733	93460
1.75800	98847
1.75867	104341
1.75933	109924
1.76000	115576
1.76067	121276
1.76133	127001
1.76200	132729
1.76267	138434
1.76333	144093
1.76400	149681
1.76467	155173
1.76533	160546
1.76600	165778
1.76667	170849
1.76733	175740
1.76800	180433
1.76867	184912
1.76933	189163
1.77000	193172
1.77067	196926
1.77133	200418
1.77200	203638
1.77267	206581
1.77333	209243
1.77400	211622
1.77467	213720
1.77533	215535
1.77600	217072
1.77667	218333
1.77733	219325
1.77800	220052
1.77867	220523
1.77933	220745
1.78000	220728
1.78067	220482
1.78133	220016
1.78200	219340
1.78267	218466
1.78333	217404
1.78400	216164
1.78467	214757
1.78533	213194
1.78600	211486
1.78667	209642
1.78733	207673
1.78800	205589
1.78867	203399
1.78933	201112
1.79000	198738
1.79067	196284
1.79133	193760
1.79200	191172
1.79267	188529
1.79333	185836
1.79400	183102
1.79467	180332
1.79533	177532
1.79600	174707
1.79667	171863
1.79733	169005
1.79800	166137
1.79867	163264
1.79933	160389
1.80000	157517
1.80067	154651
1.80133	151794
1.80200	148950
1.80267	146121
1.80333	143309
1.80400	140517
1.80467	137748
1.80533	135003
1.80600	132284
1.80667	129592
1.80733	126930
1.80800	124299
1.80867	121700
1.80933	119134
1.81000	116603
1.81067	114106
1.81133	111645
1.81200	109221
1.81267	106834
1.81333	104484
1.81400	102172
1.81467	99899
1.81533	97664
1.81600	95468
1.81667	93310
1.81733	91192
1.81800	89113
1.81867	87072
1.81933	85071
1.82000	83108
1.82067	81184
1.82133	79298
1.82200	77450
1.82267	75641
1.82333	73868
1.82400	72133
1.82467	70435
1.82533	68774
1.82600	67148
1.82667	65558
1.82733	64004
1.82800	62484
1.82867	60998
1.82933	59547
1.83000	58128
1.83067	56743
1.83133	55389
1.83200	54068
1.83267	52778
1.83333	51519
1.83400	50290
1.83467	49090
1.83533	47920
1.83600	46779
1.83667	45665
1.83733	44580
1.83800	43521
1.83867	42489
1.83933	41483
1.84000	40503
1.84067	39548
1.84133	38617
1.84200	37710
1.84267	36827
1.84333	35967
1.84400	35130
1.84467	34315
1.84533	33521
1.84600	32748
1.84667	31996
1.84733	31264
1.84800	30552
1.84867	29858
1.84933	29184
1.85000	28528
1.85067	27890
1.85133	27269
1.85200	26665
1.85267	26078
1.85333	25507
1.85400	24952
1.85467	24412
1.85533	23888
1.85600	23378
1.85667	22882
1.85733	22400
1.85800	21932
1.85867	21477
1.85933	21035
1.86000	20605
1.86067	20187
1.86133	19781
1.86200	19387
1.86267	19004
1.86333	18631
1.86400	18269
1.86467	17918
1.86533	17576
1.86600	17244
1.86667	16922
1.86733	16609
1.86800	16305
1.86867	16009
1.86933	15722
1.87000	15443
1.87067	15172
1.87133	14909
1.87200	14654
1.87267	14405
1.87333	14164
1.87400	13930
1.87467	13703
1.87533	13482
1.87600	13267
1.87667	13059
1.87733	12856
1.87800	12660
1.87867	12469
1.87933	12283
1.88000	12103
1.88067	11929
1.88133	11759
1.88200	11594
1.88267	11434
1.88333	11279
1.88400	11128
1.88467	10982
1.88533	10840
1.88600	10702
1.88667	10568
1.88733	10438
1.88800	10312
1.88867	10189
1.88933	10070
1.89000	9955
1.89067	9843
1.89133	9734
1.89200	9628
1.89267	9525
1.89333	9426
1.89400	9329
1.89467	9235
1.89533	9144
1.89600	9056
1.89667	8970
1.89733	8887
1.89800	8806
1.89867	8727
1.89933	8651
1.90000	8577
1.90067	8505
1.90133	8436
1.90200	8368
1.90267	8302
1.90333	8238
1.90400	8176
1.90467	8115
1.90533	8057
1.90600	8000
1.90667	7944
1.90733	7890
1.90800	7838
1.90867	7787
1.90933	7738
1.91000	7690
1.91067	7643
1.91133	7597
1.91200	7553
1.91267	7509
1.91333	7467
1.91400	7426
1.91467	7386
1.91533	7347
1.91600	7309
1.91667	7272
1.91733	7236
1.91800	7201
1.91867	7167
1.91933	7133
1.92000	7101
1.92067	7069
1.92133	7038
1.92200	7008
1.92267	6978
1.92333	6949
1.92400	6921
1.92467	6894
1.92533	6867
1.92600	6841
1.92667	6815
1.92733	6790
1.92800	6766
1.92867	6742
1.92933	6719
1.93000	6696
1.93067	6674
1.93133	6652
1.93200	6631
1.93267	6611
1.93333	6591
1.93400	6571
1.93467	6552
1.93533	6533
1.93600	6515
1.93667	6497
1.93733	6479
1.93800	6462
1.93867	6446
1.93933	6429
1.94000	6414
1.94067	6398
1.94133	6383
1.94200	6368
1.94267	6354
1.94333	6340
1.94400	6326
1.94467	6312
1.94533	6299
1.94600	6286
1.94667	6274
1.94733	6262
1.94800	6250
1.94867	6238
1.94933	6227
1.95000	6216
1.95067	6205
1.95133	6194
1.95200	6184
1.95267	6174
1.95333	6164
1.95400	6154
1.95467	6145
1.95533	6136
1.95600	6127
1.95667	6118
1.95733	6109
1.95800	6101
1.95867	6093
1.95933	6085
1.96000	6077
1.96067	6069
1.96133	6062
1.96200	6055
1.96267	6048
1.96333	6041
1.96400	6034
1.96467	6027
1.96533	6020
1.96600	6014
1.96667	6007
1.96733	6001
1.96800	5995
1.96867	5989
1.96933	5983
1.97000	5977
1.97067	5971
1.97133	5965
1.97200	5960
1.97267	5954
1.97333	5949
1.97400	5943
1.97467	5938
1.97533	5933
1.97600	5928
1.97667	5923
1.97733	5918
1.97800	5913
1.97867	5908
1.97933	5903
1.98000	5899
1.98067	5894
1.98133	5890
1.98200	5886
1.98267	5882
1.98333	5877
1.98400	5873
1.98467	5869
1.98533	5866
1.98600	5862
1.98667	5858
1.98733	5854
1.98800	5851
1.98867	5847
1.98933	5844
1.99000	5841
1.99067	5837
1.99133	5834
1.99200	5831
1.99267	5828
1.99333	5825
1.99400	5822
1.99467	5818
1.99533	5815
1.99600	5812
1.99667	5809
1.99733	5806
1.99800	5803
1.99867	5800
1.99933	5797
2.00000	5794
2.00067	5791
2.00133	5789
2.00200	5786
2.00267	5783
2.00333	5780
2.00400	5777
2.00467	5774
2.00533	5771
2.00600	5768
2.00667	5766
2.00733	5763
2.00800	5760
2.00867	5757
2.00933	5754
2.01000	5751
2.01067	5748
2.01133	5745
2.01200	5742
2.01267	5739
2.01333	5736
2.01400	5733
2.01467	5730
2.01533	5727
2.01600	5724
2.01667	5721
2.01733	5718
2.01800	5714
2.01867	5711
2.01933	5708
2.02000	5705
2.02067	5702
2.02133	5698
2.02200	5695
2.02267	5692
2.02333	5689
2.02400	5685
2.02467	5682
2.02533	5679
2.02600	5676
2.02667	5672
2.02733	5669
2.02800	5666
2.02867	5663
2.02933	5660
2.03000	5656
2.03067	5653
2.03133	5650
2.03200	5647
2.03267	5644
2.03333	5641
2.03400	5638
2.03467	5635
2.03533	5633
2.03600	5630
2.03667	5627
2.03733	5624
2.03800	5621
2.03867	5619
2.03933	5616
2.04000	5613
2.04067	5611
2.04133	5608
2.04200	5605
2.04267	5603
2.04333	5600
2.04400	5598
2.04467	5595
2.04533	5593
2.04600	5590
2.04667	5588
2.04733	5585
2.04800	5583
2.04867	5580
2.04933	5578
2.05000	5575
2.05067	5573
2.05133	5570
2.05200	5568
2.05267	5565
2.05333	5563
2.05400	5560
2.05467	5558
2.05533	5555
2.05600	5553
2.05667	5551
2.05733	5548
2.05800	5546
2.05867	5544
2.05933	5542
2.06000	5539
2.06067	5537
2.06133	5535
2.06200	5533
2.06267	5531
2.06333	5528
2.06400	5526
2.06467	5524
2.06533	5522
2.06600	5520
2.06667	5518
2.06733	5515
2.06800	5513
2.06867	5511
2.06933	5509
2.07000	5507
2.07067	5505
2.07133	5502
2.07200	5500
2.07267	5498
2.07333	5496
2.07400	5494
2.07467	5492
2.07533	5490
2.07600	5487
2.07667	5485
2.07733	5483
2.07800	5481
2.07867	5479
2.07933	5477
2.08000	5475
2.08067	5473
2.08133	5471
2.08200	5469
2.08267	5467
2.08333	5465
2.08400	5463
2.08467	5461
2.08533	5459
2.08600	5457
2.08667	5455
2.08733	5453
2.08800	5451
2.08867	5449
2.08933	5447
2.09000	5445
2.09067	5443
2.09133	5441
2.09200	5439
2.09267	5437
2.09333	5435
2.09400	5433
2.09467	5431
2.09533	5429
2.09600	5427
2.09667	5425
2.09733	5423
2.09800	5422
2.09867	5420
2.09933	5418
2.10000	5416
2.10067	5414
2.10133	5412
2.10200	5410
2.10267	5407
2.10333	5405
2.10400	5403
2.10467	5401
2.10533	5399
2.10600	5397
2.10667	5395
2.10733	5393
2.10800	5391
2.10867	5390
2.10933	5388
2.11000	5386
2.11067	5384
2.11133	5382
2.11200	5380
2.11267	5378
2.11333	5377
2.11400	5375
2.11467	5373
2.11533	5371
2.11600	5369
2.11667	5367
2.11733	5365
2.11800	5364
2.11867	5362
2.11933	5360
2.12000	5358
2.12067	5356
2.12133	5354
2.12200	5352
2.12267	5350
2.12333	5348
2.12400	5346
2.12467	5344
2.12533	5342
2.12600	5340
2.12667	5338
2.12733	5336
2.12800	5334
2.12867	5332
2.12933	5330
2.13000	5328
2.13067	5326
2.13133	5324
2.13200	5322
2.13267	5320
2.13333	5318
2.13400	5315
2.13467	5313
2.13533	5311
2.13600	5309
2.13667	5307
2.13733	5305
2.13800	5303
2.13867	5301
2.13933	5299
2.14000	5297
2.14067	5295
2.14133	5293
2.14200	5290
2.14267	5288
2.14333	5286
2.14400	5284
2.14467	5282
2.14533	5280
2.14600	5278
2.14667	5276
2.14733	5274
2.14800	5272
2.14867	5269
2.14933	5267
2.15000	5265
2.15067	5263
2.15133	5261
2.15200	5259
2.15267	5257
2.15333	5255
2.15400	5252
2.15467	5250
2.15533	5248
2.15600	5246
2.15667	5244
2.15733	5242
2.15800	5240
2.15867	5238
2.15933	5236
2.16000	5234
2.16067	5232
2.16133	5230
2.16200	5228
2.16267	5226
2.16333	5225
2.16400	5223
2.16467	5221
2.16533	5219
2.16600	5217
2.16667	5216
2.16733	5214
2.16800	5212
2.16867	5211
2.16933	5209
2.17000	5207
2.17067	5206
2.17133	5204
2.17200	5203
2.17267	5201
2.17333	5200
2.17400	5198
2.17467	5196
2.17533	5195
2.17600	5193
2.17667	5191
2.17733	5190
2.17800	5188
2.17867	5187
2.17933	5185
2.18000	5184
2.18067	5182
2.18133	5181
2.18200	5179
2.18267	5177
2.18333	5176
2.18400	5174
2.18467	5173
2.18533	5171
2.18600	5169
2.18667	5168
2.18733	5166
2.18800	5164
2.18867	5163
2.18933	5161
2.19000	5159
2.19067	5158
2.19133	5156
2.19200	5154
2.19267	5152
2.19333	5151
2.19400	5149
2.19467	5147
2.19533	5146
2.19600	5144
2.19667	5142
2.19733	5141
2.19800	5139
2.19867	5138
2.19933	5136
2.20000	5135
2.20067	5133
2.20133	5132
2.20200	5131
2.20267	5130
2.20333	5128
2.20400	5127
2.20467	5126
2.20533	5125
2.20600	5124
2.20667	5123
2.20733	5122
2.20800	5122
2.20867	5121
2.20933	5120
2.21000	5120
2.21067	5119
2.21133	5119
2.21200	5119
2.21267	5118
2.21333	5118
2.21400	5118
2.21467	5118
2.21533	5118
2.21600	5118
2.21667	5118
2.21733	5118
2.21800	5118
2.21867	5119
2.21933	5119
2.22000	5119
2.22067	5119
2.22133	5120
2.22200	5120
2.22267	5120
2.22333	5120
2.22400	5121
2.22467	5121
2.22533	5121
2.22600	5121
2.22667	5121
2.22733	5122
2.22800	5122
2.22867	5122
2.22933	5122
2.23000	5122
2.23067	5122
2.23133	5122
2.23200	5122
2.23267	5122
2.23333	5121
2.23400	5121
2.23467	5121
2.23533	5121
2.23600	5120
2.23667	5120
2.23733	5119
2.23800	5119
2.23867	5118
2.23933	5118
2.24000	5117
2.24067	5116
2.24133	5116
2.24200	5115
2.24267	5114
2.24333	5113
2.24400	5113
2.24467	5112
2.24533	5111
2.24600	5110
2.24667	5109
2.24733	5108
2.24800	5107
2.24867	5106
2.24933	5105
2.25000	5104
2.25067	5103
2.25133	5102
2.25200	5101
2.25267	5100
2.25333	5099
2.25400	5098
2.25467	5097
2.25533	5096
2.25600	5095
2.25667	5094
2.25733	5093
2.25800	5091
2.25867	5090
2.25933	5089
2.26000	5088
2.26067	5087
2.26133	5086
2.26200	5085
2.26267	5083
2.26333	5082
2.26400	5081
2.26467	5079
2.26533	5078
2.26600	5077
2.26667	5075
2.26733	5074
2.26800	5072
2.26867	5071
2.26933	5069
2.27000	5068
2.27067	5066
2.27133	5064
2.27200	5063
2.27267	5061
2.27333	5059
2.27400	5058
2.27467	5056
2.27533	5055
2.27600	5053
2.27667	5052
2.27733	5050
2.27800	5049
2.27867	5047
2.27933	5046
2.28000	5044
2.28067	5043
2.28133	5041
2.28200	5040
2.28267	5038
2.28333	5037
2.28400	5035
2.28467	5034
2.28533	5032
2.28600	5031
2.28667	5030
2.28733	5028
2.28800	5027
2.28867	5026
2.28933	5024
2.29000	5023
2.29067	5022
2.29133	5021
2.29200	5019
2.29267	5018
2.29333	5017
2.29400	5016
2.29467	5015
2.29533	5014
2.29600	5012
2.29667	5011
2.29733	5010
2.29800	5009
2.29867	5008
2.29933	5007
2.30000	5006
2.30067	5005
2.30133	5005
2.30200	5004
2.30267	5003
2.30333	5002
2.30400	5001
2.30467	5000
2.30533	5000
2.30600	4999
2.30667	4998
2.30733	4998
2.30800	4997
2.30867	4996
2.30933	4995
2.31000	4995
2.31067	4994
2.31133	4993
2.31200	4993
2.31267	4992
2.31333	4991
2.31400	4991
2.31467	4990
2.31533	4990
2.31600	4989
2.31667	4988
2.31733	4988
2.31800	4987
2.31867	4987
2.31933	4987
2.32000	4986
2.32067	4986
2.32133	4985
2.32200	4985
2.32267	4985
2.32333	4985
2.32400	4985
2.32467	4984
2.32533	4984
2.32600	4984
2.32667	4984
2.32733	4984
2.32800	4984
2.32867	4984
2.32933	4984
2.33000	4984
2.33067	4984
2.33133	4984
2.33200	4984
2.33267	4984
2.33333	4984
2.33400	4984
2.33467	4984
2.33533	4985
2.33600	4985
2.33667	4985
2.33733	4985
2.33800	4985
2.33867	4985
2.33933	4985
2.34000	4985
2.34067	4986
2.34133	4986
2.34200	4986
2.34267	4986
2.34333	4987
2.34400	4987
2.34467	4987
2.34533	4987
2.34600	4988
2.34667	4988
2.34733	4989
2.34800	4989
2.34867	4989
2.34933	4990
2.35000	4990
2.35067	4990
2.35133	4991
2.35200	4991
2.35267	4991
2.35333	4991
2.35400	4992
2.35467	4992
2.35533	4992
2.35600	4992
2.35667	4993
2.35733	4993
2.35800	4993
2.35867	4993
2.35933	4994
2.36000	4994
2.36067	4994
2.36133	4994
2.36200	4995
2.36267	4995
2.36333	4995
2.36400	4996
2.36467	4996
2.36533	4996
2.36600	4997
2.36667	4997
2.36733	4997
2.36800	4998
2.36867	4998
2.36933	4998
2.37000	4999
2.37067	4999
2.37133	4999
2.37200	5000
2.37267	5000
2.37333	5000
2.37400	5000
2.37467	5000
2.37533	5001
2.37600	5001
2.37667	5001
2.37733	5001
2.37800	5001
2.37867	5001
2.37933	5001
2.38000	5000
2.38067	5000
2.38133	5000
2.38200	5000
2.38267	5000
2.38333	4999
2.38400	4999
2.38467	4999
2.38533	4998
2.38600	4998
2.38667	4997
2.38733	4997
2.38800	4997
2.38867	4996
2.38933	4996
2.39000	4995
2.39067	4995
2.39133	4994
2.39200	4994
2.39267	4993
2.39333	4993
2.39400	4992
2.39467	4991
2.39533	4991
2.39600	4990
2.39667	4990
2.39733	4989
2.39800	4989
2.39867	4988
2.39933	4988
2.40000	4987
2.40067	4986
2.40133	4986
2.40200	4985
2.40267	4985
2.40333	4984
2.40400	4983
2.40467	4983
2.40533	4982
2.40600	4982
2.40667	4981
2.40733	4981
2.40800	4980
2.40867	4979
2.40933	4979
2.41000	4978
2.41067	4978
2.41133	4978
2.41200	4977
2.41267	4977
2.41333	4976
2.41400	4976
2.41467	4975
2.41533	4975
2.41600	4975
2.41667	4974
2.41733	4974
2.41800	4973
2.41867	4973
2.41933	4972
2.42000	4972
2.42067	4972
2.42133	4971
2.42200	4971
2.42267	4970
2.42333	4969
2.42400	4969
2.42467	4968
2.42533	4967
2.42600	4967
2.42667	4966
2.42733	4965
2.42800	4964
2.42867	4964
2.42933	4963
2.43000	4962
2.43067	4961
2.43133	4959
2.43200	4958
2.43267	4957
2.43333	4956
2.43400	4954
2.43467	4953
2.43533	4952
2.43600	4950
2.43667	4949
2.43733	4947
2.43800	4946
2.43867	4944
2.43933	4943
2.44000	4941
2.44067	4940
2.44133	4938
2.44200	4936
2.44267	4934
2.44333	4933
2.44400	4931
2.44467	4929
2.44533	4927
2.44600	4925
2.44667	4924
2.44733	4922
2.44800	4920
2.44867	4918
2.44933	4916
2.45000	4914
2.45067	4912
2.45133	4911
2.45200	4909
2.45267	4907
2.45333	4905
2.45400	4903
2.45467	4901
2.45533	4899
2.45600	4898
2.45667	4896
2.45733	4894
2.45800	4892
2.45867	4890
2.45933	4889
2.46000	4887
2.46067	4885
2.46133	4883
2.46200	4881
2.46267	4879
2.46333	4877
2.46400	4875
2.46467	4873
2.46533	4872
2.46600	4870
2.46667	4868
2.46733	4866
2.46800	4864
2.46867	4862
2.46933	4860
2.47000	4858
2.47067	4856
2.47133	4854
2.47200	4852
2.47267	4850
2.47333	4848
2.47400	4846
2.47467	4845
2.47533	4843
2.47600	4841
2.47667	4839
2.47733	4837
2.47800	4835
2.47867	4833
2.47933	4831
2.48000	4829
2.48067	4827
2.48133	4825
2.48200	4823
2.48267	4821
2.48333	4818
2.48400	4816
2.48467	4814
2.48533	4812
2.48600	4810
2.48667	4808
2.48733	4806
2.48800	4804
2.48867	4802
2.48933	4800
2.49000	4798
2.49067	4796
2.49133	4795
2.49200	4793
2.49267	4791
2.49333	4789
2.49400	4787
2.49467	4785
2.49533	4784
2.49600	4782
2.49667	4780
2.49733	4778
2.49800	4777
2.49867	4775
2.49933	4773
2.50000	4771
2.50067	4769
2.50133	4768
2.50200	4766
2.50267	4764
2.50333	4762
2.50400	4761
2.50467	4759
2.50533	4757
2.50600	4755
2.50667	4753
2.50733	4752
2.50800	4750
2.50867	4748
2.50933	4746
2.51000	4745
2.51067	4743
2.51133	4741
2.51200	4739
2.51267	4737
2.51333	4736
2.51400	4734
2.51467	4732
2.51533	4730
2.51600	4729
2.51667	4727
2.51733	4725
2.51800	4724
2.51867	4722
2.51933	4720
2.52000	4719
2.52067	4717
2.52133	4715
2.52200	4713
2.52267	4712
2.52333	4710
2.52400	4708
2.52467	4707
2.52533	4705
2.52600	4703
2.52667	4701
2.52733	4700
2.52800	4698
2.52867	4696
2.52933	4695
2.53000	4693
2.53067	4691
2.53133	4690
2.53200	4688
2.53267	4686
2.53333	4685
2.53400	4683
2.53467	4681
2.53533	4679
2.53600	4678
2.53667	4676
2.53733	4674
2.53800	4672
2.53867	4670
2.53933	4669
2.54000	4667
2.54067	4665
2.54133	4664
2.54200	4662
2.54267	4660
2.54333	4658
2.54400	4657
2.54467	4655
2.54533	4653
2.54600	4652
2.54667	4650
2.54733	4648
2.54800	4646
2.54867	4645
2.54933	4643
2.55000	4641
2.55067	4640
2.55133	4638
2.55200	4636
2.55267	4635
2.55333	4633
2.55400	4632
2.55467	4630
2.55533	4629
2.55600	4627
2.55667	4626
2.55733	4624
2.55800	4623
2.55867	4621
2.55933	4619
2.56000	4618
2.56067	4616
2.56133	4615
2.56200	4613
2.56267	4612
2.56333	4610
2.56400	4609
2.56467	4608
2.56533	4606
2.56600	4605
2.56667	4603
2.56733	4602
2.56800	4600
2.56867	4599
2.56933	4598
2.57000	4596
2.57067	4595
2.57133	4594
2.57200	4592
2.57267	4591
2.57333	4590
2.57400	4588
2.57467	4587
2.57533	4586
2.57600	4585
2.57667	4583
2.57733	4582
2.57800	4581
2.57867	4580
2.57933	4579
2.58000	4578
2.58067	4577
2.58133	4576
2.58200	4575
2.58267	4574
2.58333	4572
2.58400	4571
2.58467	4570
2.58533	4569
2.58600	4569
2.58667	4568
2.58733	4567
2.58800	4566
2.58867	4565
2.58933	4564
2.59000	4563
2.59067	4562
2.59133	4561
2.59200	4560
2.59267	4560
2.59333	4559
2.59400	4558
2.59467	4557
2.59533	4556
2.59600	4556
2.59667	4555
2.59733	4554
2.59800	4553
2.59867	4552
2.59933	4551
2.60000	4551
2.60067	4550
2.60133	4549
2.60200	4548
2.60267	4547
2.60333	4546
2.60400	4545
2.60467	4545
2.60533	4544
2.60600	4543
2.60667	4542
2.60733	4541
2.60800	4540
2.60867	4540
2.60933	4539
2.61000	4538
2.61067	4537
2.61133	4536
2.61200	4535
2.61267	4535
2.61333	4534
2.61400	4533
2.61467	4532
2.61533	4531
2.61600	4530
2.61667	4530
2.61733	4529
2.61800	4528
2.61867	4527
2.61933	4526
2.62000	4525
2.62067	4524
2.62133	4523
2.62200	4522
2.62267	4521
2.62333	4520
2.62400	4520
2.62467	4519
2.62533	4518
2.62600	4517
2.62667	4516
2.62733	4515
2.62800	4515
2.62867	4514
2.62933	4513
2.63000	4512
2.63067	4511
2.63133	4510
2.63200	4509
2.63267	4508
2.63333	4507
2.63400	4506
2.63467	4505
2.63533	4505
2.63600	4504
2.63667	4503
2.63733	4501
2.63800	4500
2.63867	4499
2.63933	4498
2.64000	4497
2.64067	4496
2.64133	4495
2.64200	4494
2.64267	4493
2.64333	4492
2.64400	4490
2.64467	4489
2.64533	4488
2.64600	4487
2.64667	4486
2.64733	4484
2.64800	4483
2.64867	4482
2.64933	4481
2.65000	4480
2.65067	4478
2.65133	4477
2.65200	4476
2.65267	4475
2.65333	4474
2.65400	4473
2.65467	4471
2.65533	4470
2.65600	4469
2.65667	4468
2.65733	4467
2.65800	4465
2.65867	4464
2.65933	4463
2.66000	4461
2.66067	4460
2.66133	4459
2.66200	4457
2.66267	4456
2.66333	4455
2.66400	4453
2.66467	4452
2.66533	4451
2.66600	4449
2.66667	4448
2.66733	4447
2.66800	4445
2.66867	4444
2.66933	4442
2.67000	4441
2.67067	4440
2.67133	4438
2.67200	4437
2.67267	4435
2.67333	4434
2.67400	4432
2.67467	4431
2.67533	4429
2.67600	4428
2.67667	4426
2.67733	4425
2.67800	4423
2.67867	4422
2.67933	4420
2.68000	4419
2.68067	4417
2.68133	4416
2.68200	4414
2.68267	4413
2.68333	4411
2.68400	4410
2.68467	4409
2.68533	4407
2.68600	4406
2.68667	4405
2.68733	4403
2.68800	4402
2.68867	4400
2.68933	4399
2.69000	4398
2.69067	4397
2.69133	4395
2.69200	4394
2.69267	4393
2.69333	4392
2.69400	4390
2.69467	4389
2.69533	4388
2.69600	4387
2.69667	4386
2.69733	4385
2.69800	4384
2.69867	4383
2.69933	4381
2.70000	4380
2.70067	4379
2.70133	4378
2.70200	4377
2.70267	4376
2.70333	4376
2.70400	4375
2.70467	4374
2.70533	4373
2.70600	4372
2.70667	4371
2.70733	4370
2.70800	4369
2.70867	4368
2.70933	4367
2.71000	4366
2.71067	4365
2.71133	4365
2.71200	4364
2.71267	4363
2.71333	4362
2.71400	4361
2.71467	4360
2.71533	4359
2.71600	4358
2.71667	4358
2.71733	4357
2.71800	4356
2.71867	4355
2.71933	4355
2.72000	4354
2.72067	4353
2.72133	4353
2.72200	4352
2.72267	4352
2.72333	4351
2.72400	4350
2.72467	4350
2.72533	4350
2.72600	4349
2.72667	4349
2.72733	4348
2.72800	4348
2.72867	4347
2.72933	4347
2.73000	4346
2.73067	4346
2.73133	4345
2.73200	4345
2.73267	4344
2.73333	4344
2.73400	4343
2.73467	4343
2.73533	4343
2.73600	4342
2.73667	4342
2.73733	4341
2.73800	4341
2.73867	4340
2.73933	4340
2.74000	4340
2.74067	4339
2.74133	4339
2.74200	4338
2.74267	4338
2.74333	4338
2.74400	4337
2.74467	4337
2.74533	4337
2.74600	4337
2.74667	4337
2.74733	4337
2.74800	4336
2.74867	4336
2.74933	4336
2.75000	4336
2.75067	4336
2.75133	4336
2.75200	4336
2.75267	4336
2.75333	4336
2.75400	4336
2.75467	4336
2.75533	4336
2.75600	4336
2.75667	4336
2.75733	4336
2.75800	4336
2.75867	4336
2.75933	4336
2.76000	4336
2.76067	4337
2.76133	4337
2.76200	4337
2.76267	4338
2.76333	4338
2.76400	4338
2.76467	4339
2.76533	4339
2.76600	4340
2.76667	4340
2.76733	4341
2.76800	4342
2.76867	4342
2.76933	4343
2.77000	4344
2.77067	4344
2.77133	4345
2.77200	4346
2.77267	4347
2.77333	4348
2.77400	4349
2.77467	4350
2.77533	4351
2.77600	4352
2.77667	4353
2.77733	4354
2.77800	4355
2.77867	4357
2.77933	4358
2.78000	4359
2.78067	4361
2.78133	4362
2.78200	4364
2.78267	4366
2.78333	4367
2.78400	4369
2.78467	4371
2.78533	4373
2.78600	4375
2.78667	4377
2.78733	4380
2.78800	4382
2.78867	4384
2.78933	4387
2.79000	4389
2.79067	4392
2.79133	4395
2.79200	4397
2.79267	4400
2.79333	4403
2.79400	4406
2.79467	4409
2.79533	4412
2.79600	4415
2.79667	4419
2.79733	4422
2.79800	4425
2.79867	4429
2.79933	4432
2.80000	4436
2.80067	4440
2.80133	4443
2.80200	4447
2.80267	4451
2.80333	4455
2.80400	4459
2.80467	4463
2.80533	4467
2.80600	4471
2.80667	4475
2.80733	4479
2.80800	4483
2.80867	4488
2.80933	4492
2.81000	4496
2.81067	4500
2.81133	4504
2.81200	4508
2.81267	4512
2.81333	4516
2.81400	4520
2.81467	4524
2.81533	4528
2.81600	4531
2.81667	4535
2.81733	4538
2.81800	4542
2.81867	4545
2.81933	4549
2.82000	4552
2.82067	4555
2.82133	4558
2.82200	4560
2.82267	4563
2.82333	4566
2.82400	4568
2.82467	4570
2.82533	4573
2.82600	4575
2.82667	4576
2.82733	4578
2.82800	4580
2.82867	4581
2.82933	4582
2.83000	4584
2.83067	4585
2.83133	4586
2.83200	4587
2.83267	4587
2.83333	4588
2.83400	4588
2.83467	4589
2.83533	4589
2.83600	4589
2.83667	4589
2.83733	4588
2.83800	4588
2.83867	4587
2.83933	4587
2.84000	4586
2.84067	4585
2.84133	4584
2.84200	4583
2.84267	4582
2.84333	4581
2.84400	4579
2.84467	4578
2.84533	4576
2.84600	4575
2.84667	4573
2.84733	4571
2.84800	4569
2.84867	4568
2.84933	4566
2.85000	4564
2.85067	4561
2.85133	4559
2.85200	4557
2.85267	4555
2.85333	4553
2.85400	4550
2.85467	4548
2.85533	4546
2.85600	4543
2.85667	4541
2.85733	4539
2.85800	4536
2.85867	4534
2.85933	4532
2.86000	4529
2.86067	4527
2.86133	4524
2.86200	4522
2.86267	4520
2.86333	4518
2.86400	4515
2.86467	4513
2.86533	4511
2.86600	4509
2.86667	4507
2.86733	4506
2.86800	4504
2.86867	4502
2.86933	4501
2.87000	4499
2.87067	4498
2.87133	4496
2.87200	4495
2.87267	4494
2.87333	4493
2.87400	4493
2.87467	4492
2.87533	4492
2.87600	4492
2.87667	4491
2.87733	4492
2.87800	4492
2.87867	4492
2.87933	4493
2.88000	4494
2.88067	4495
2.88133	4496
2.88200	4498
2.88267	4499
2.88333	4501
2.88400	4503
2.88467	4506
2.88533	4508
2.88600	4511
2.88667	4514
2.88733	4517
2.88800	4521
2.88867	4524
2.88933	4528
2.89000	4532
2.89067	4537
2.89133	4541
2.89200	4546
2.89267	4551
2.89333	4556
2.89400	4561
2.89467	4567
2.89533	4572
2.89600	4578
2.89667	4583
2.89733	4589
2.89800	4595
2.89867	4601
2.89933	4606
2.90000	4612
2.90067	4618
2.90133	4624
2.90200	4630
2.90267	4635
2.90333	4641
2.90400	4646
2.90467	4652
2.90533	4657
2.90600	4662
2.90667	4667
2.90733	4672
2.90800	4677
2.90867	4681
2.90933	4685
2.91000	4689
2.91067	4693
2.91133	4697
2.91200	4700
2.91267	4703
2.91333	4705
2.91400	4707
2.91467	4709
2.91533	4711
2.91600	4712
2.91667	4713
2.91733	4714
2.91800	4714
2.91867	4714
2.91933	4714
2.92000	4713
2.92067	4713
2.92133	4711
2.92200	4710
2.92267	4708
2.92333	4705
2.92400	4703
2.92467	4700
2.92533	4697
2.92600	4693
2.92667	4689
2.92733	4685
2.92800	4681
2.92867	4676
2.92933	4671
2.93000	4666
2.93067	4660
2.93133	4654
2.93200	4648
2.93267	4642
2.93333	4636
2.93400	4629
2.93467	4623
2.93533	4616
2.93600	4609
2.93667	4601
2.93733	4594
2.93800	4587
2.93867	4579
2.93933	4572
2.94000	4564
2.94067	4556
2.94133	4548
2.94200	4540
2.94267	4532
2.94333	4524
2.94400	4516
2.94467	4508
2.94533	4500
2.94600	4492
2.94667	4484
2.94733	4476
2.94800	4468
2.94867	4460
2.94933	4452
2.95000	4444
2.95067	4436
2.95133	4428
2.95200	4421
2.95267	4413
2.95333	4405
2.95400	4397
2.95467	4390
2.95533	4382
2.95600	4375
2.95667	4368
2.95733	4360
2.95800	4353
2.95867	4346
2.95933	4339
2.96000	4332
2.96067	4325
2.96133	4319
2.96200	4312
2.96267	4306
2.96333	4299
2.96400	4293
2.96467	4287
2.96533	4280
2.96600	4274
2.96667	4268
2.96733	4263
2.96800	4257
2.96867	4251
2.96933	4245
2.97000	4240
2.97067	4234
2.97133	4229
2.97200	4224
2.97267	4218
2.97333	4213
2.97400	4208
2.97467	4203
2.97533	4199
2.97600	4194
2.97667	4190
2.97733	4185
2.97800	4181
2.97867	4177
2.97933	4172
2.98000	4168
2.98067	4164
2.98133	4160
2.98200	4156
2.98267	4152
2.98333	4148
2.98400	4145
2.98467	4141
2.98533	4137
2.98600	4134
2.98667	4130
2.98733	4127
2.98800	4123
2.98867	4120
2.98933	4116
2.99000	4113
2.99067	4110
2.99133	4106
2.99200	4103
2.99267	4100
2.99333	4097
2.99400	4094
2.99467	4091
2.99533	4088
2.99600	4085
2.99667	4082
2.99733	4079
2.99800	4077
2.99867	4074
2.99933	4071
3.00000	4069
3.00067	4066
3.00133	4064
3.00200	4061
3.00267	4059
3.00333	4056
3.00400	4054
3.00467	4051
3.00533	4049
3.00600	4047
3.00667	4044
3.00733	4042
3.00800	4040
3.00867	4037
3.00933	4035
3.01000	4033
3.01067	4031
3.01133	4028
3.01200	4026
3.01267	4024
3.01333	4022
3.01400	4019
3.01467	4017
3.01533	4015
3.01600	4013
3.01667	4011
3.01733	4008
3.01800	4006
3.01867	4004
3.01933	4002
3.02000	4000
3.02067	3997
3.02133	3995
3.02200	3993
3.02267	3991
3.02333	3989
3.02400	3987
3.02467	3985
3.02533	3983
3.02600	3981
3.02667	3979
3.02733	3977
3.02800	3975
3.02867	3973
3.02933	3971
3.03000	3969
3.03067	3968
3.03133	3966
3.03200	3964
3.03267	3962
3.03333	3960
3.03400	3958
3.03467	3957
3.03533	3955
3.03600	3953
3.03667	3951
3.03733	3950
3.03800	3948
3.03867	3946
3.03933	3945
3.04000	3943
3.04067	3942
3.04133	3940
3.04200	3939
3.04267	3937
3.04333	3936
3.04400	3934
3.04467	3933
3.04533	3932
3.04600	3930
3.04667	3929
3.04733	3928
3.04800	3927
3.04867	3926
3.04933	3925
3.05000	3924
3.05067	3923
3.05133	3922
3.05200	3921
3.05267	3920
3.05333	3919
3.05400	3918
3.05467	3917
3.05533	3916
3.05600	3916
3.05667	3915
3.05733	3914
3.05800	3913
3.05867	3913
3.05933	3912
3.06000	3911
3.06067	3911
3.06133	3910
3.06200	3910
3.06267	3909
3.06333	3908
3.06400	3908
3.06467	3907
3.06533	3907
3.06600	3906
3.06667	3906
3.06733	3906
3.06800	3905
3.06867	3905
3.06933	3904
3.07000	3904
3.07067	3904
3.07133	3903
3.07200	3903
3.07267	3903
3.07333	3903
3.07400	3902
3.07467	3902
3.07533	3902
3.07600	3902
3.07667	3902
3.07733	3902
3.07800	3901
3.07867	3901
3.07933	3901
3.08000	3901
3.08067	3901
3.08133	3901
3.08200	3901
3.08267	3901
3.08333	3901
3.08400	3901
3.08467	3900
3.08533	3900
3.08600	3900
3.08667	3900
3.08733	3900
3.08800	3900
3.08867	3899
3.08933	3899
3.09000	3899
3.09067	3899
3.09133	3898
3.09200	3898
3.09267	3898
3.09333	3897
3.09400	3897
3.09467	3897
3.09533	3896
3.09600	3896
3.09667	3895
3.09733	3895
3.09800	3894
3.09867	3894
3.09933	3893
3.10000	3893
3.10067	3892
3.10133	3891
3.10200	3890
3.10267	3890
3.10333	3889
3.10400	3888
3.10467	3887
3.10533	3886
3.10600	3885
3.10667	3884
3.10733	3883
3.10800	3882
3.10867	3881
3.10933	3880
3.11000	3879
3.11067	3878
3.11133	3877
3.11200	3876
3.11267	3875
3.11333	3873
3.11400	3872
3.11467	3871
3.11533	3870
3.11600	3869
3.11667	3867
3.11733	3866
3.11800	3865
3.11867	3864
3.11933	3862
3.12000	3861
3.12067	3860
3.12133	3859
3.12200	3857
3.12267	3856
3.12333	3855
3.12400	3854
3.12467	3853
3.12533	3851
3.12600	3850
3.12667	3849
3.12733	3848
3.12800	3847
3.12867	3846
3.12933	3844
3.13000	3843
3.13067	3842
3.13133	3841
3.13200	3840
3.13267	3838
3.13333	3837
3.13400	3836
3.13467	3835
3.13533	3834
3.13600	3833
3.13667	3831
3.13733	3830
3.13800	3829
3.13867	3828
3.13933	3827
3.14000	3826
3.14067	3824
3.14133	3823
3.14200	3822
3.14267	3821
3.14333	3819
3.14400	3818
3.14467	3817
3.14533	3816
3.14600	3815
3.14667	3814
3.14733	3813
3.14800	3812
3.14867	3811
3.14933	3809
3.15000	3808
3.15067	3807
3.15133	3806
3.15200	3805
3.15267	3804
3.15333	3803
3.15400	3802
3.15467	3801
3.15533	3800
3.15600	3799
3.15667	3797
3.15733	3796
3.15800	3795
3.15867	3794
3.15933	3793
3.16000	3792
3.16067	3791
3.16133	3790
3.16200	3789
3.16267	3788
3.16333	3787
3.16400	3786
3.16467	3785
3.16533	3784
3.16600	3783
3.16667	3782
3.16733	3781
3.16800	3780
3.16867	3779
3.16933	3778
3.17000	3777
3.17067	3776
3.17133	3775
3.17200	3774
3.17267	3774
3.17333	3773
3.17400	3772
3.17467	3771
3.17533	3770
3.17600	3769
3.17667	3769
3.17733	3768
3.17800	3767
3.17867	3766
3.17933	3765
3.18000	3765
3.18067	3764
3.18133	3763
3.18200	3763
3.18267	3762
3.18333	3761
3.18400	3760
3.18467	3760
3.18533	3759
3.18600	3758
3.18667	3758
3.18733	3757
3.18800	3756
3.18867	3756
3.18933	3755
3.19000	3754
3.19067	3754
3.19133	3753
3.19200	3752
3.19267	3752
3.19333	3751
3.19400	3750
3.19467	3750
3.19533	3749
3.19600	3748
3.19667	3748
3.19733	3747
3.19800	3746
3.19867	3746
3.19933	3745
3.20000	3744
3.20067	3744
3.20133	3743
3.20200	3742
3.20267	3742
3.20333	3741
3.20400	3740
3.20467	3740
3.20533	3739
3.20600	3739
3.20667	3738
3.20733	3737
3.20800	3737
3.20867	3736
3.20933	3736
3.21000	3735
3.21067	3735
3.21133	3734
3.21200	3733
3.21267	3733
3.21333	3732
3.21400	3732
3.21467	3731
3.21533	3731
3.21600	3730
3.21667	3730
3.21733	3729
3.21800	3729
3.21867	3728
3.21933	3728
3.22000	3728
3.22067	3727
3.22133	3727
3.22200	3727
3.22267	3726
3.22333	3726
3.22400	3726
3.22467	3725
3.22533	3725
3.22600	3725
3.22667	3724
3.22733	3724
3.22800	3724
3.22867	3723
3.22933	3723
3.23000	3723
3.23067	3722
3.23133	3722
3.23200	3722
3.23267	3721
3.23333	3721
3.23400	3721
3.23467	3720
3.23533	3720
3.23600	3720
3.23667	3719
3.23733	3719
3.23800	3719
3.23867	3719
3.23933	3718
3.24000	3718
3.24067	3718
3.24133	3718
3.24200	3717
3.24267	3717
3.24333	3717
3.24400	3717
3.24467	3716
3.24533	3716
3.24600	3716
3.24667	3716
3.24733	3715
3.24800	3715
3.24867	3715
3.24933	3714
3.25000	3714
3.25067	3714
3.25133	3713
3.25200	3713
3.25267	3713
3.25333	3712
3.25400	3712
3.25467	3712
3.25533	3711
3.25600	3711
3.25667	3710
3.25733	3710
3.25800	3710
3.25867	3709
3.25933	3709
3.26000	3709
3.26067	3708
3.26133	3708
3.26200	3708
3.26267	3707
3.26333	3707
3.26400	3707
3.26467	3706
3.26533	3706
3.26600	3705
3.26667	3705
3.26733	3704
3.26800	3704
3.26867	3703
3.26933	3703
3.27000	3703
3.27067	3702
3.27133	3702
3.27200	3702
3.27267	3701
3.27333	3701
3.27400	3700
3.27467	3700
3.27533	3700
3.27600	3699
3.27667	3699
3.27733	3698
3.27800	3698
3.27867	3698
3.27933	3697
3.28000	3697
3.28067	3696
3.28133	3696
3.28200	3696
3.28267	3695
3.28333	3695
3.28400	3694
3.28467	3694
3.28533	3694
3.28600	3693
3.28667	3693
3.28733	3692
3.28800	3692
3.28867	3692
3.28933	3691
3.29000	3691
3.29067	3691
3.29133	3690
3.29200	3690
3.29267	3690
3.29333	3690
3.29400	3689
3.29467	3689
3.29533	3689
3.29600	3689
3.29667	3689
3.29733	3688
3.29800	3688
3.29867	3688
3.29933	3688
3.30000	3688
3.30067	3688
3.30133	3687
3.30200	3687
3.30267	3687
3.30333	3687
3.30400	3687
3.30467	3686
3.30533	3686
3.30600	3686
3.30667	3686
3.30733	3686
3.30800	3685
3.30867	3685
3.30933	3685
3.31000	3685
3.31067	3684
3.31133	3684
3.31200	3684
3.31267	3683
3.31333	3683
3.31400	3683
3.31467	3682
3.31533	3682
3.31600	3682
3.31667	3681
3.31733	3681
3.31800	3680
3.31867	3680
3.31933	3679
3.32000	3679
3.32067	3679
3.32133	3678
3.32200	3678
3.32267	3677
3.32333	3677
3.32400	3676
3.32467	3676
3.32533	3675
3.32600	3675
3.32667	3674
3.32733	3674
3.32800	3673
3.32867	3673
3.32933	3672
3.33000	3672
3.33067	3671
3.33133	3671
3.33200	3670
3.33267	3670
3.33333	3669
3.33400	3668
3.33467	3668
3.33533	3667
3.33600	3667
3.33667	3666
3.33733	3665
3.33800	3665
3.33867	3664
3.33933	3664
3.34000	3663
3.34067	3663
3.34133	3662
3.34200	3661
3.34267	3661
3.34333	3660
3.34400	3660
3.34467	3659
3.34533	3659
3.34600	3659
3.34667	3658
3.34733	3658
3.34800	3657
3.34867	3657
3.34933	3657
3.35000	3656
3.35067	3656
3.35133	3656
3.35200	3655
3.35267	3655
3.35333	3655
3.35400	3654
3.35467	3654
3.35533	3654
3.35600	3653
3.35667	3653
3.35733	3653
3.35800	3652
3.35867	3652
3.35933	3652
3.36000	3652
3.36067	3651
3.36133	3651
3.36200	3651
3.36267	3651
3.36333	3651
3.36400	3651
3.36467	3650
3.36533	3650
3.36600	3650
3.36667	3650
3.36733	3650
3.36800	3650
3.36867	3650
3.36933	3650
3.37000	3650
3.37067	3650
3.37133	3650
3.37200	3650
3.37267	3650
3.37333	3650
3.37400	3650
3.37467	3650
3.37533	3650
3.37600	3650
3.37667	3651
3.37733	3651
3.37800	3651
3.37867	3652
3.37933	3652
3.38000	3652
3.38067	3653
3.38133	3653
3.38200	3654
3.38267	3654
3.38333	3654
3.38400	3655
3.38467	3655
3.38533	3656
3.38600	3656
3.38667	3657
3.38733	3658
3.38800	3658
3.38867	3659
3.38933	3659
3.39000	3660
3.39067	3661
3.39133	3661
3.39200	3662
3.39267	3663
3.39333	3663
3.39400	3664
3.39467	3665
3.39533	3666
3.39600	3666
3.39667	3667
3.39733	3668
3.39800	3669
3.39867	3670
3.39933	3670
3.40000	3671
3.40067	3672
3.40133	3673
3.40200	3674
3.40267	3675
3.40333	3676
3.40400	3677
3.40467	3678
3.40533	3679
3.40600	3680
3.40667	3681
3.40733	3683
3.40800	3684
3.40867	3685
3.40933	3686
3.41000	3687
3.41067	3689
3.41133	3690
3.41200	3691
3.41267	3692
3.41333	3694
3.41400	3695
3.41467	3696
3.41533	3698
3.41600	3699
3.41667	3700
3.41733	3701
3.41800	3703
3.41867	3704
3.41933	3706
3.42000	3707
3.42067	3708
3.42133	3710
3.42200	3712
3.42267	3713
3.42333	3715
3.42400	3717
3.42467	3718
3.42533	3720
3.42600	3722
3.42667	3724
3.42733	3726
3.42800	3728
3.42867	3730
3.42933	3732
3.43000	3734
3.43067	3736
3.43133	3738
3.43200	3740
3.43267	3742
3.43333	3745
3.43400	3747
3.43467	3749
3.43533	3752
3.43600	3754
3.43667	3757
3.43733	3760
3.43800	3762
3.43867	3765
3.43933	3768
3.44000	3771
3.44067	3774
3.44133	3777
3.44200	3780
3.44267	3783
3.44333	3787
3.44400	3790
3.44467	3793
3.44533	3797
3.44600	3801
3.44667	3804
3.44733	3808
3.44800	3812
3.44867	3816
3.44933	3820
3.45000	3824
3.45067	3828
3.45133	3832
3.45200	3837
3.45267	3841
3.45333	3846
3.45400	3850
3.45467	3855
3.45533	3859
3.45600	3864
3.45667	3869
3.45733	3874
3.45800	3879
3.45867	3884
3.45933	3889
3.46000	3894
3.46067	3900
3.46133	3905
3.46200	3910
3.46267	3916
3.46333	3921
3.46400	3927
3.46467	3932
3.46533	3938
3.46600	3944
3.46667	3949
3.46733	3955
3.46800	3961
3.46867	3967
3.46933	3973
3.47000	3979
3.47067	3985
3.47133	3991
3.47200	3997
3.47267	4003
3.47333	4010
3.47400	4016
3.47467	4023
3.47533	4029
3.47600	4036
3.47667	4042
3.47733	4049
3.47800	4055
3.47867	4062
3.47933	4069
3.48000	4076
3.48067	4082
3.48133	4089
3.48200	4096
3.48267	4103
3.48333	4110
3.48400	4118
3.48467	4125
3.48533	4132
3.48600	4140
3.48667	4147
3.48733	4155
3.48800	4162
3.48867	4170
3.48933	4178
3.49000	4186
3.49067	4194
3.49133	4203
3.49200	4211
3.49267	4220
3.49333	4229
3.49400	4238
3.49467	4247
3.49533	4256
3.49600	4266
3.49667	4276
3.49733	4286
3.49800	4296
3.49867	4307
3.49933	4318
3.50000	4329
3.50067	4341
3.50133	4353
3.50200	4366
3.50267	4378
3.50333	4392
3.50400	4406
3.50467	4420
3.50533	4435
3.50600	4450
3.50667	4466
3.50733	4482
3.50800	4499
3.50867	4517
3.50933	4535
3.51000	4554
3.51067	4574
3.51133	4594
3.51200	4615
3.51267	4637
3.51333	4660
3.51400	4683
3.51467	4707
3.51533	4732
3.51600	4758
3.51667	4785
3.51733	4812
3.51800	4841
3.51867	4871
3.51933	4901
3.52000	4932
3.52067	4965
3.52133	4998
3.52200	5032
3.52267	5068
3.52333	5104
3.52400	5141
3.52467	5180
3.52533	5219
3.52600	5260
3.52667	5301
3.52733	5344
3.52800	5387
3.52867	5431
3.52933	5476
3.53000	5523
3.53067	5570
3.53133	5617
3.53200	5666
3.53267	5716
3.53333	5766
3.53400	5817
3.53467	5869
3.53533	5922
3.53600	5976
3.53667	6030
3.53733	6085
3.53800	6140
3.53867	6196
3.53933	6252
3.54000	6308
3.54067	6365
3.54133	6422
3.54200	6480
3.54267	6537
3.54333	6595
3.54400	6653
3.54467	6711
3.54533	6769
3.54600	6826
3.54667	6884
3.54733	6941
3.54800	6998
3.54867	7054
3.54933	7110
3.55000	7166
3.55067	7221
3.55133	7275
3.55200	7329
3.55267	7382
3.55333	7434
3.55400	7485
3.55467	7535
3.55533	7584
3.55600	7633
3.55667	7680
3.55733	7726
3.55800	7771
3.55867	7815
3.55933	7857
3.56000	7898
3.56067	7938
3.56133	7976
3.56200	8013
3.56267	8049
3.56333	8082
3.56400	8115
3.56467	8146
3.56533	8175
3.56600	8202
3.56667	8228
3.56733	8253
3.56800	8275
3.56867	8296
3.56933	8315
3.57000	8333
3.57067	8349
3.57133	8363
3.57200	8376
3.57267	8387
3.57333	8397
3.57400	8404
3.57467	8411
3.57533	8416
3.57600	8419
3.57667	8421
3.57733	8422
3.57800	8421
3.57867	8418
3.57933	8414
3.58000	8409
3.58067	8403
3.58133	8395
3.58200	8386
3.58267	8376
3.58333	8365
3.58400	8352
3.58467	8339
3.58533	8324
3.58600	8308
3.58667	8291
3.58733	8273
3.58800	8254
3.58867	8234
3.58933	8213
3.59000	8192
3.59067	8169
3.59133	8146
3.59200	8122
3.59267	8097
3.59333	8072
3.59400	8046
3.59467	8020
3.59533	7993
3.59600	7965
3.59667	7937
3.59733	7909
3.59800	7880
3.59867	7851
3.59933	7821
3.60000	7791
3.60067	7761
3.60133	7730
3.60200	7699
3.60267	7668
3.60333	7637
3.60400	7606
3.60467	7574
3.60533	7542
3.60600	7510
3.60667	7478
3.60733	7446
3.60800	7414
3.60867	7382
3.60933	7349
3.61000	7317
3.61067	7285
3.61133	7253
3.61200	7221
3.61267	7189
3.61333	7157
3.61400	7125
3.61467	7093
3.61533	7061
3.61600	7029
3.61667	6998
3.61733	6967
3.61800	6935
3.61867	6904
3.61933	6873
3.62000	6842
3.62067	6811
3.62133	6780
3.62200	6750
3.62267	6719
3.62333	6688
3.62400	6658
3.62467	6628
3.62533	6598
3.62600	6568
3.62667	6538
3.62733	6508
3.62800	6478
3.62867	6448
3.62933	6419
3.63000	6389
3.63067	6360
3.63133	6330
3.63200	6301
3.63267	6272
3.63333	6243
3.63400	6214
3.63467	6185
3.63533	6157
3.63600	6128
3.63667	6100
3.63733	6072
3.63800	6044
3.63867	6016
3.63933	5988
3.64000	5960
3.64067	5933
3.64133	5905
3.64200	5878
3.64267	5851
3.64333	5824
3.64400	5797
3.64467	5771
3.64533	5744
3.64600	5718
3.64667	5692
3.64733	5666
3.64800	5640
3.64867	5614
3.64933	5589
3.65000	5563
3.65067	5538
3.65133	5513
3.65200	5488
3.65267	5463
3.65333	5439
3.65400	5414
3.65467	5390
3.65533	5366
3.65600	5343
3.65667	5319
3.65733	5296
3.65800	5272
3.65867	5249
3.65933	5227
3.66000	5204
3.66067	5182
3.66133	5160
3.66200	5138
3.66267	5116
3.66333	5094
3.66400	5073
3.66467	5052
3.66533	5031
3.66600	5010
3.66667	4990
3.66733	4969
3.66800	4949
3.66867	4929
3.66933	4910
3.67000	4890
3.67067	4871
3.67133	4853
3.67200	4834
3.67267	4816
3.67333	4797
3.67400	4779
3.67467	4762
3.67533	4744
3.67600	4727
3.67667	4710
3.67733	4693
3.67800	4677
3.67867	4661
3.67933	4645
3.68000	4629
3.68067	4613
3.68133	4598
3.68200	4583
3.68267	4568
3.68333	4553
3.68400	4539
3.68467	4524
3.68533	4510
3.68600	4496
3.68667	4483
3.68733	4469
3.68800	4456
3.68867	4443
3.68933	4430
3.69000	4417
3.69067	4405
3.69133	4392
3.69200	4380
3.69267	4368
3.69333	4357
3.69400	4345
3.69467	4334
3.69533	4322
3.69600	4311
3.69667	4300
3.69733	4290
3.69800	4279
3.69867	4269
3.69933	4258
3.70000	4248
3.70067	4238
3.70133	4228
3.70200	4219
3.70267	4209
3.70333	4200
3.70400	4191
3.70467	4182
3.70533	4173
3.70600	4164
3.70667	4156
3.70733	4147
3.70800	4139
3.70867	4131
3.70933	4123
3.71000	4115
3.71067	4108
3.71133	4100
3.71200	4093
3.71267	4085
3.71333	4078
3.71400	4071
3.71467	4064
3.71533	4058
3.71600	4051
3.71667	4044
3.71733	4038
3.71800	4032
3.71867	4025
3.71933	4019
3.72000	4013
3.72067	4007
3.72133	4001
3.72200	3995
3.72267	3990
3.72333	3984
3.72400	3978
3.72467	3973
3.72533	3967
3.72600	3962
3.72667	3957
3.72733	3951
3.72800	3946
3.72867	3941
3.72933	3936
3.73000	3931
3.73067	3926
3.73133	3922
3.73200	3917
3.73267	3912
3.73333	3908
3.73400	3903
3.73467	3899
3.73533	3894
3.73600	3890
3.73667	3886
3.73733	3882
3.73800	3878
3.73867	3874
3.73933	3870
3.74000	3866
3.74067	3862
3.74133	3858
3.74200	3855
3.74267	3851
3.74333	3847
3.74400	3844
3.74467	3840
3.74533	3837
3.74600	3833
3.74667	3830
3.74733	3826
3.74800	3823
3.74867	3819
3.74933	3816
3.75000	3813
3.75067	3810
3.75133	3806
3.75200	3803
3.75267	3800
3.75333	3796
3.75400	3793
3.75467	3790
3.75533	3787
3.75600	3784
3.75667	3781
3.75733	3778
3.75800	3775
3.75867	3772
3.75933	3769
3.76000	3767
3.76067	3764
3.76133	3761
3.76200	3758
3.76267	3755
3.76333	3753
3.76400	3750
3.76467	3748
3.76533	3745
3.76600	3742
3.76667	3740
3.76733	3737
3.76800	3735
3.76867	3732
3.76933	3730
3.77000	3728
3.77067	3725
3.77133	3723
3.77200	3720
3.77267	3718
3.77333	3716
3.77400	3713
3.77467	3711
3.77533	3709
3.77600	3707
3.77667	3704
3.77733	3702
3.77800	3700
3.77867	3698
3.77933	3696
3.78000	3694
3.78067	3692
3.78133	3690
3.78200	3688
3.78267	3686
3.78333	3684
3.78400	3682
3.78467	3680
3.78533	3678
3.78600	3676
3.78667	3674
3.78733	3672
3.78800	3670
3.78867	3668
3.78933	3666
3.79000	3664
3.79067	3662
3.79133	3660
3.79200	3658
3.79267	3656
3.79333	3654
3.79400	3652
3.79467	3650
3.79533	3649
3.79600	3647
3.79667	3645
3.79733	3643
3.79800	3641
3.79867	3639
3.79933	3637
3.80000	3636
3.80067	3634
3.80133	3632
3.80200	3630
3.80267	3628
3.80333	3626
3.80400	3624
3.80467	3622
3.80533	3621
3.80600	3619
3.80667	3617
3.80733	3615
3.80800	3613
3.80867	3611
3.80933	3609
3.81000	3607
3.81067	3605
3.81133	3604
3.81200	3602
3.81267	3600
3.81333	3598
3.81400	3596
3.81467	3594
3.81533	3593
3.81600	3591
3.81667	3589
3.81733	3587
3.81800	3586
3.81867	3584
3.81933	3582
3.82000	3580
3.82067	3579
3.82133	3577
3.82200	3575
3.82267	3574
3.82333	3572
3.82400	3570
3.82467	3568
3.82533	3567
3.82600	3565
3.82667	3563
3.82733	3562
3.82800	3560
3.82867	3559
3.82933	3557
3.83000	3555
3.83067	3554
3.83133	3552
3.83200	3551
3.83267	3550
3.83333	3548
3.83400	3547
3.83467	3545
3.83533	3544
3.83600	3542
3.83667	3541
3.83733	3540
3.83800	3538
3.83867	3537
3.83933	3536
3.84000	3534
3.84067	3533
3.84133	3531
3.84200	3530
3.84267	3529
3.84333	3527
3.84400	3526
3.84467	3525
3.84533	3523
3.84600	3522
3.84667	3521
3.84733	3520
3.84800	3519
3.84867	3518
3.84933	3516
3.85000	3515
3.85067	3514
3.85133	3513
3.85200	3512
3.85267	3511
3.85333	3510
3.85400	3509
3.85467	3508
3.85533	3506
3.85600	3505
3.85667	3504
3.85733	3503
3.85800	3502
3.85867	3501
3.85933	3500
3.86000	3499
3.86067	3498
3.86133	3497
3.86200	3496
3.86267	3495
3.86333	3495
3.86400	3494
3.86467	3493
3.86533	3492
3.86600	3491
3.86667	3490
3.86733	3489
3.86800	3488
3.86867	3487
3.86933	3486
3.87000	3485
3.87067	3485
3.87133	3484
3.87200	3483
3.87267	3482
3.87333	3481
3.87400	3480
3.87467	3480
3.87533	3479
3.87600	3478
3.87667	3477
3.87733	3477
3.87800	3476
3.87867	3475
3.87933	3475
3.88000	3474
3.88067	3473
3.88133	3473
3.88200	3472
3.88267	3471
3.88333	3471
3.88400	3470
3.88467	3470
3.88533	3469
3.88600	3469
3.88667	3468
3.88733	3467
3.88800	3467
3.88867	3466
3.88933	3466
3.89000	3465
3.89067	3465
3.89133	3464
3.89200	3464
3.89267	3463
3.89333	3463
3.89400	3462
3.89467	3462
3.89533	3461
3.89600	3461
3.89667	3460
3.89733	3460
3.89800	3459
3.89867	3459
3.89933	3458
3.90000	3458
3.90067	3457
3.90133	3457
3.90200	3456
3.90267	3456
3.90333	3456
3.90400	3455
3.90467	3455
3.90533	3454
3.90600	3454
3.90667	3453
3.90733	3453
3.90800	3453
3.90867	3452
3.90933	3452
3.91000	3451
3.91067	3451
3.91133	3451
3.91200	3450
3.91267	3450
3.91333	3449
3.91400	3449
3.91467	3448
3.91533	3448
3.91600	3448
3.91667	3447
3.91733	3447
3.91800	3446
3.91867	3446
3.91933	3446
3.92000	3445
3.92067	3445
3.92133	3444
3.92200	3444
3.92267	3443
3.92333	3443
3.92400	3443
3.92467	3442
3.92533	3442
3.92600	3441
3.92667	3441
3.92733	3441
3.92800	3440
3.92867	3440
3.92933	3439
3.93000	3439
3.93067	3438
3.93133	3438
3.93200	3437
3.93267	3437
3.93333	3436
3.93400	3436
3.93467	3436
3.93533	3435
3.93600	3435
3.93667	3434
3.93733	3434
3.93800	3433
3.93867	3433
3.93933	3432
3.94000	3432
3.94067	3431
3.94133	3431
3.94200	3430
3.94267	3430
3.94333	3429
3.94400	3429
3.94467	3429
3.94533	3428
3.94600	3428
3.94667	3428
3.94733	3428
3.94800	3427
3.94867	3427
3.94933	3427
3.95000	3426
3.95067	3426
3.95133	3426
3.95200	3425
3.95267	3425
3.95333	3425
3.95400	3425
3.95467	3424
3.95533	3424
3.95600	3424
3.95667	3423
3.95733	3423
3.95800	3422
3.95867	3422
3.95933	3422
3.96000	3421
3.96067	3421
3.96133	3420
3.96200	3420
3.96267	3420
3.96333	3419
3.96400	3419
3.96467	3418
3.96533	3418
3.96600	3418
3.96667	3417
3.96733	3417
3.96800	3417
3.96867	3416
3.96933	3416
3.97000	3416
3.97067	3416
3.97133	3415
3.97200	3415
3.97267	3415
3.97333	3414
3.97400	3414
3.97467	3414
3.97533	3414
3.97600	3413
3.97667	3413
3.97733	3413
3.97800	3413
3.97867	3413
3.97933	3412
3.98000	3412
3.98067	3412
3.98133	3412
3.98200	3412
3.98267	3412
3.98333	3412
3.98400	3412
3.98467	3412
3.98533	3412
3.98600	3413
3.98667	3413
3.98733	3413
3.98800	3413
3.98867	3413
3.98933	3413
3.99000	3414
3.99067	3414
3.99133	3414
3.99200	3415
3.99267	3415
3.99333	3416
3.99400	3416
3.99467	3417
3.99533	3417
3.99600	3418
3.99667	3418
3.99733	3419
3.99800	3420
3.99867	3421
3.99933	3422
4.00000	3422
4.00067	3423
4.00133	3424
4.00200	3425
4.00267	3426
4.00333	3428
4.00400	3429
4.00467	3430
4.00533	3431
4.00600	3433
4.00667	3434
4.00733	3436
4.00800	3437
4.00867	3439
4.00933	3440
4.01000	3442
4.01067	3444
4.01133	3446
4.01200	3448
4.01267	3450
4.01333	3452
4.01400	3454
4.01467	3456
4.01533	3458
4.01600	3460
4.01667	3462
4.01733	3465
4.01800	3467
4.01867	3470
4.01933	3472
4.02000	3475
4.02067	3478
4.02133	3480
4.02200	3483
4.02267	3486
4.02333	3489
4.02400	3492
4.02467	3495
4.02533	3498
4.02600	3501
4.02667	3504
4.02733	3508
4.02800	3511
4.02867	3514
4.02933	3518
4.03000	3521
4.03067	3525
4.03133	3529
4.03200	3532
4.03267	3536
4.03333	3540
4.03400	3544
4.03467	3548
4.03533	3552
4.03600	3556
4.03667	3560
4.03733	3564
4.03800	3569
4.03867	3573
4.03933	3577
4.04000	3582
4.04067	3586
4.04133	3591
4.04200	3595
4.04267	3600
4.04333	3605
4.04400	3609
4.04467	3614
4.04533	3619
4.04600	3624
4.04667	3629
4.04733	3634
4.04800	3639
4.04867	3644
4.04933	3649
4.05000	3655
4.05067	3660
4.05133	3665
4.05200	3670
4.05267	3676
4.05333	3681
4.05400	3686
4.05467	3691
4.05533	3697
4.05600	3702
4.05667	3707
4.05733	3713
4.05800	3718
4.05867	3723
4.05933	3728
4.06000	3733
4.06067	3739
4.06133	3744
4.06200	3749
4.06267	3754
4.06333	3760
4.06400	3765
4.06467	3770
4.06533	3775
4.06600	3780
4.06667	3785
4.06733	3791
4.06800	3796
4.06867	3801
4.06933	3806
4.07000	3811
4.07067	3815
4.07133	3820
4.07200	3825
4.07267	3830
4.07333	3834
4.07400	3839
4.07467	3844
4.07533	3848
4.07600	3853
4.07667	3857
4.07733	3861
4.07800	3866
4.07867	3870
4.07933	3874
4.08000	3878
4.08067	3882
4.08133	3887
4.08200	3891
4.08267	3894
4.08333	3898
4.08400	3902
4.08467	3906
4.08533	3909
4.08600	3913
4.08667	3916
4.08733	3919
4.08800	3922
4.08867	3925
4.08933	3929
4.09000	3931
4.09067	3934
4.09133	3937
4.09200	3940
4.09267	3943
4.09333	3945
4.09400	3948
4.09467	3950
4.09533	3952
4.09600	3954
4.09667	3956
4.09733	3958
4.09800	3960
4.09867	3962
4.09933	3964
4.10000	3966
4.10067	3967
4.10133	3969
4.10200	3970
4.10267	3971
4.10333	3973
4.10400	3974
4.10467	3975
4.10533	3976
4.10600	3977
4.10667	3978
4.10733	3979
4.10800	3980
4.10867	3981
4.10933	3981
4.11000	3982
4.11067	3983
4.11133	3983
4.11200	3984
4.11267	3984
4.11333	3984
4.11400	3985
4.11467	3985
4.11533	3985
4.11600	3985
4.11667	3985
4.11733	3985
4.11800	3986
4.11867	3986
4.11933	3986
4.12000	3986
4.12067	3986
4.12133	3986
4.12200	3986
4.12267	3985
4.12333	3985
4.12400	3985
4.12467	3985
4.12533	3985
4.12600	3985
4.12667	3985
4.12733	3985
4.12800	3985
4.12867	3985
4.12933	3985
4.13000	3984
4.13067	3984
4.13133	3984
4.13200	3984
4.13267	3984
4.13333	3984
4.13400	3984
4.13467	3983
4.13533	3983
4.13600	3983
4.13667	3983
4.13733	3983
4.13800	3983
4.13867	3983
4.13933	3983
4.14000	3983
4.14067	3983
4.14133	3983
4.14200	3983
4.14267	3983
4.14333	3983
4.14400	3983
4.14467	3983
4.14533	3983
4.14600	3983
4.14667	3983
4.14733	3983
4.14800	3983
4.14867	3983
4.14933	3983
4.15000	3983
4.15067	3983
4.15133	3983
4.15200	3983
4.15267	3983
4.15333	3983
4.15400	3983
4.15467	3983
4.15533	3982
4.15600	3982
4.15667	3982
4.15733	3982
4.15800	3982
4.15867	3982
4.15933	3982
4.16000	3982
4.16067	3982
4.16133	3982
4.16200	3982
4.16267	3982
4.16333	3982
4.16400	3981
4.16467	3981
4.16533	3981
4.16600	3981
4.16667	3981
4.16733	3981
4.16800	3981
4.16867	3981
4.16933	3981
4.17000	3980
4.17067	3980
4.17133	3980
4.17200	3980
4.17267	3979
4.17333	3979
4.17400	3979
4.17467	3978
4.17533	3978
4.17600	3978
4.17667	3977
4.17733	3977
4.17800	3977
4.17867	3976
4.17933	3976
4.18000	3975
4.18067	3975
4.18133	3974
4.18200	3974
4.18267	3973
4.18333	3973
4.18400	3973
4.18467	3972
4.18533	3972
4.18600	3971
4.18667	3971
4.18733	3971
4.18800	3970
4.18867	3970
4.18933	3970
4.19000	3969
4.19067	3969
4.19133	3969
4.19200	3969
4.19267	3969
4.19333	3969
4.19400	3970
4.19467	3970
4.19533	3970
4.19600	3970
4.19667	3971
4.19733	3971
4.19800	3972
4.19867	3972
4.19933	3973
4.20000	3974
4.20067	3975
4.20133	3975
4.20200	3976
4.20267	3977
4.20333	3979
4.20400	3980
4.20467	3981
4.20533	3983
4.20600	3985
4.20667	3986
4.20733	3988
4.20800	3990
4.20867	3992
4.20933	3994
4.21000	3997
4.21067	3999
4.21133	4002
4.21200	4005
4.21267	4008
4.21333	4011
4.21400	4014
4.21467	4018
4.21533	4021
4.21600	4025
4.21667	4029
4.21733	4034
4.21800	4038
4.21867	4043
4.21933	4048
4.22000	4053
4.22067	4058
4.22133	4064
4.22200	4069
4.22267	4075
4.22333	4082
4.22400	4088
4.22467	4095
4.22533	4101
4.22600	4109
4.22667	4116
4.22733	4124
4.22800	4131
4.22867	4140
4.22933	4148
4.23000	4157
4.23067	4166
4.23133	4175
4.23200	4184
4.23267	4194
4.23333	4204
4.23400	4215
4.23467	4226
4.23533	4237
4.23600	4248
4.23667	4260
4.23733	4272
4.23800	4284
4.23867	4297
4.23933	4310
4.24000	4324
4.24067	4337
4.24133	4351
4.24200	4366
4.24267	4381
4.24333	4396
4.24400	4411
4.24467	4427
4.24533	4443
4.24600	4459
4.24667	4476
4.24733	4493
4.24800	4511
4.24867	4529
4.24933	4547
4.25000	4565
4.25067	4584
4.25133	4604
4.25200	4623
4.25267	4643
4.25333	4664
4.25400	4684
4.25467	4705
4.25533	4727
4.25600	4749
4.25667	4771
4.25733	4793
4.25800	4816
4.25867	4839
4.25933	4863
4.26000	4887
4.26067	4911
4.26133	4935
4.26200	4960
4.26267	4985
4.26333	5010
4.26400	5036
4.26467	5062
4.26533	5088
4.26600	5115
4.26667	5142
4.26733	5169
4.26800	5197
4.26867	5225
4.26933	5253
4.27000	5282
4.27067	5311
4.27133	5341
4.27200	5371
4.27267	5401
4.27333	5432
4.27400	5462
4.27467	5494
4.27533	5525
4.27600	5557
4.27667	5589
4.27733	5622
4.27800	5655
4.27867	5688
4.27933	5721
4.28000	5755
4.28067	5789
4.28133	5823
4.28200	5858
4.28267	5892
4.28333	5927
4.28400	5962
4.28467	5998
4.28533	6033
4.28600	6069
4.28667	6105
4.28733	6142
4.28800	6178
4.28867	6215
4.28933	6251
4.29000	6288
4.29067	6326
4.29133	6363
4.29200	6401
4.29267	6439
4.29333	6477
4.29400	6515
4.29467	6554
4.29533	6592
4.29600	6631
4.29667	6670
4.29733	6709
4.29800	6748
4.29867	6787
4.29933	6827
4.30000	6866
4.30067	6905
4.30133	6945
4.30200	6984
4.30267	7024
4.30333	7063
4.30400	7103
4.30467	7142
4.30533	7182
4.30600	7221
4.30667	7261
4.30733	7300
4.30800	7339
4.30867	7378
4.30933	7417
4.31000	7456
4.31067	7495
4.31133	7534
4.31200	7572
4.31267	7610
4.31333	7648
4.31400	7686
4.31467	7723
4.31533	7760
4.31600	7797
4.31667	7833
4.31733	7869
4.31800	7905
4.31867	7940
4.31933	7974
4.32000	8008
4.32067	8042
4.32133	8075
4.32200	8107
4.32267	8139
4.32333	8170
4.32400	8201
4.32467	8231
4.32533	8261
4.32600	8289
4.32667	8317
4.32733	8345
4.32800	8371
4.32867	8397
4.32933	8423
4.33000	8447
4.33067	8471
4.33133	8494
4.33200	8517
4.33267	8538
4.33333	8559
4.33400	8579
4.33467	8598
4.33533	8617
4.33600	8635
4.33667	8652
4.33733	8668
4.33800	8683
4.33867	8698
4.33933	8712
4.34000	8725
4.34067	8737
4.34133	8749
4.34200	8760
4.34267	8770
4.34333	8780
4.34400	8789
4.34467	8797
4.34533	8805
4.34600	8812
4.34667	8818
4.34733	8824
4.34800	8830
4.34867	8835
4.34933	8839
4.35000	8843
4.35067	8846
4.35133	8849
4.35200	8851
4.35267	8853
4.35333	8855
4.35400	8856
4.35467	8857
4.35533	8857
4.35600	8857
4.35667	8857
4.35733	8857
4.35800	8857
4.35867	8856
4.35933	8855
4.36000	8854
4.36067	8854
4.36133	8853
4.36200	8852
4.36267	8851
4.36333	8850
4.36400	8850
4.36467	8849
4.36533	8849
4.36600	8849
4.36667	8849
4.36733	8850
4.36800	8851
4.36867	8852
4.36933	8854
4.37000	8856
4.37067	8859
4.37133	8862
4.37200	8866
4.37267	8871
4.37333	8876
4.37400	8882
4.37467	8889
4.37533	8897
4.37600	8905
4.37667	8915
4.37733	8925
4.37800	8936
4.37867	8948
4.37933	8961
4.38000	8976
4.38067	8991
4.38133	9008
4.38200	9025
4.38267	9044
4.38333	9065
4.38400	9086
4.38467	9109
4.38533	9133
4.38600	9158
4.38667	9185
4.38733	9213
4.38800	9242
4.38867	9273
4.38933	9305
4.39000	9339
4.39067	9375
4.39133	9411
4.39200	9450
4.39267	9490
4.39333	9531
4.39400	9574
4.39467	9619
4.39533	9666
4.39600	9714
4.39667	9764
4.39733	9815
4.39800	9869
4.39867	9924
4.39933	9980
4.40000	10038
4.40067	10098
4.40133	10159
4.40200	10222
4.40267	10286
4.40333	10352
4.40400	10420
4.40467	10489
4.40533	10560
4.40600	10632
4.40667	10705
4.40733	10781
4.40800	10857
4.40867	10935
4.40933	11014
4.41000	11095
4.41067	11177
4.41133	11260
4.41200	11344
4.41267	11430
4.41333	11517
4.41400	11604
4.41467	11693
4.41533	11782
4.41600	11872
4.41667	11964
4.41733	12055
4.41800	12148
4.41867	12241
4.41933	12335
4.42000	12429
4.42067	12524
4.42133	12619
4.42200	12714
4.42267	12809
4.42333	12904
4.42400	13000
4.42467	13095
4.42533	13190
4.42600	13285
4.42667	13379
4.42733	13473
4.42800	13567
4.42867	13660
4.42933	13752
4.43000	13844
4.43067	13935
4.43133	14026
4.43200	14116
4.43267	14205
4.43333	14293
4.43400	14380
4.43467	14466
4.43533	14551
4.43600	14635
4.43667	14718
4.43733	14799
4.43800	14879
4.43867	14957
4.43933	15034
4.44000	15110
4.44067	15183
4.44133	15255
4.44200	15325
4.44267	15393
4.44333	15459
4.44400	15523
4.44467	15586
4.44533	15646
4.44600	15704
4.44667	15760
4.44733	15813
4.44800	15865
4.44867	15914
4.44933	15961
4.45000	16006
4.45067	16048
4.45133	16088
4.45200	16125
4.45267	16160
4.45333	16193
4.45400	16223
4.45467	16251
4.45533	16276
4.45600	16299
4.45667	16319
4.45733	16337
4.45800	16352
4.45867	16365
4.45933	16375
4.46000	16382
4.46067	16388
4.46133	16390
4.46200	16390
4.46267	16387
4.46333	16382
4.46400	16374
4.46467	16363
4.46533	16350
4.46600	16334
4.46667	16315
4.46733	16294
4.46800	16271
4.46867	16245
4.46933	16217
4.47000	16186
4.47067	16152
4.47133	16117
4.47200	16078
4.47267	16038
4.47333	15995
4.47400	15951
4.47467	15904
4.47533	15855
4.47600	15803
4.47667	15750
4.47733	15695
4.47800	15638
4.47867	15580
4.47933	15519
4.48000	15457
4.48067	15393
4.48133	15328
4.48200	15261
4.48267	15193
4.48333	15123
4.48400	15052
4.48467	14979
4.48533	14906
4.48600	14831
4.48667	14755
4.48733	14678
4.48800	14601
4.48867	14522
4.48933	14442
4.49000	14362
4.49067	14281
4.49133	14199
4.49200	14116
4.49267	14033
4.49333	13950
4.49400	13866
4.49467	13782
4.49533	13697
4.49600	13612
4.49667	13527
4.49733	13442
4.49800	13356
4.49867	13271
4.49933	13186
4.50000	13101
4.50067	13016
4.50133	12932
4.50200	12848
4.50267	12764
4.50333	12681
4.50400	12598
4.50467	12516
4.50533	12434
4.50600	12354
4.50667	12274
4.50733	12195
4.50800	12116
4.50867	12039
4.50933	11963
4.51000	11888
4.51067	11814
4.51133	11741
4.51200	11669
4.51267	11599
4.51333	11531
4.51400	11463
4.51467	11397
4.51533	11333
4.51600	11271
4.51667	11209
4.51733	11150
4.51800	11092
4.51867	11037
4.51933	10982
4.52000	10930
4.52067	10879
4.52133	10831
4.52200	10784
4.52267	10739
4.52333	10697
4.52400	10656
4.52467	10618
4.52533	10582
4.52600	10548
4.52667	10516
4.52733	10487
4.52800	10460
4.52867	10436
4.52933	10414
4.53000	10394
4.53067	10377
4.53133	10362
4.53200	10350
4.53267	10341
4.53333	10334
4.53400	10329
4.53467	10328
4.53533	10329
4.53600	10333
4.53667	10339
4.53733	10348
4.53800	10360
4.53867	10374
4.53933	10392
4.54000	10412
4.54067	10435
4.54133	10461
4.54200	10489
4.54267	10521
4.54333	10555
4.54400	10592
4.54467	10632
4.54533	10675
4.54600	10721
4.54667	10769
4.54733	10820
4.54800	10874
4.54867	10930
4.54933	10990
4.55000	11051
4.55067	11116
4.55133	11183
4.55200	11252
4.55267	11324
4.55333	11398
4.55400	11475
4.55467	11555
4.55533	11637
4.55600	11721
4.55667	11807
4.55733	11896
4.55800	11988
4.55867	12081
4.55933	12177
4.56000	12275
4.56067	12376
4.56133	12478
4.56200	12582
4.56267	12689
4.56333	12797
4.56400	12907
4.56467	13019
4.56533	13132
4.56600	13247
4.56667	13364
4.56733	13482
4.56800	13601
4.56867	13722
4.56933	13844
4.57000	13967
4.57067	14091
4.57133	14217
4.57200	14343
4.57267	14471
4.57333	14600
4.57400	14729
4.57467	14859
4.57533	14990
4.57600	15122
4.57667	15255
4.57733	15388
4.57800	15522
4.57867	15656
4.57933	15790
4.58000	15925
4.58067	16059
4.58133	16194
4.58200	16328
4.58267	16463
4.58333	16596
4.58400	16730
4.58467	16863
4.58533	16995
4.58600	17127
4.58667	17258
4.58733	17387
4.58800	17516
4.58867	17644
4.58933	17771
4.59000	17897
4.59067	18021
4.59133	18145
4.59200	18267
4.59267	18387
4.59333	18507
4.59400	18624
4.59467	18741
4.59533	18855
4.59600	18968
4.59667	19080
4.59733	19189
4.59800	19297
4.59867	19403
4.59933	19506
4.60000	19608
4.60067	19708
4.60133	19806
4.60200	19901
4.60267	19994
4.60333	20085
4.60400	20174
4.60467	20260
4.60533	20344
4.60600	20426
4.60667	20505
4.60733	20582
4.60800	20657
4.60867	20729
4.60933	20798
4.61000	20865
4.61067	20930
4.61133	20991
4.61200	21051
4.61267	21107
4.61333	21162
4.61400	21213
4.61467	21263
4.61533	21309
4.61600	21354
4.61667	21396
4.61733	21435
4.61800	21472
4.61867	21506
4.61933	21538
4.62000	21568
4.62067	21595
4.62133	21620
4.62200	21642
4.62267	21662
4.62333	21680
4.62400	21696
4.62467	21709
4.62533	21720
4.62600	21729
4.62667	21736
4.62733	21740
4.62800	21743
4.62867	21744
4.62933	21742
4.63000	21738
4.63067	21733
4.63133	21725
4.63200	21715
4.63267	21704
4.63333	21690
4.63400	21675
4.63467	21657
4.63533	21638
4.63600	21617
4.63667	21594
4.63733	21570
4.63800	21543
4.63867	21515
4.63933	21486
4.64000	21455
4.64067	21422
4.64133	21388
4.64200	21353
4.64267	21316
4.64333	21278
4.64400	21239
4.64467	21199
4.64533	21157
4.64600	21114
4.64667	21071
4.64733	21026
4.64800	20980
4.64867	20933
4.64933	20886
4.65000	20837
4.65067	20788
4.65133	20737
4.65200	20686
4.65267	20635
4.65333	20582
4.65400	20529
4.65467	20476
4.65533	20422
4.65600	20367
4.65667	20312
4.65733	20257
4.65800	20201
4.65867	20145
4.65933	20088
4.66000	20031
4.66067	19974
4.66133	19917
4.66200	19860
4.66267	19802
4.66333	19744
4.66400	19686
4.66467	19628
4.66533	19570
4.66600	19512
4.66667	19454
4.66733	19396
4.66800	19338
4.66867	19280
4.66933	19222
4.67000	19164
4.67067	19106
4.67133	19049
4.67200	18991
4.67267	18934
4.67333	18877
4.67400	18820
4.67467	18763
4.67533	18706
4.67600	18649
4.67667	18592
4.67733	18536
4.67800	18479
4.67867	18423
4.67933	18367
4.68000	18311
4.68067	18256
4.68133	18201
4.68200	18146
4.68267	18091
4.68333	18037
4.68400	17983
4.68467	17930
4.68533	17877
4.68600	17824
4.68667	17772
4.68733	17721
4.68800	17670
4.68867	17619
4.68933	17569
4.69000	17519
4.69067	17470
4.69133	17421
4.69200	17373
4.69267	17325
4.69333	17278
4.69400	17231
4.69467	17184
4.69533	17138
4.69600	17093
4.69667	17047
4.69733	17003
4.69800	16958
4.69867	16914
4.69933	16871
4.70000	16827
4.70067	16785
4.70133	16742
4.70200	16700
4.70267	16658
4.70333	16617
4.70400	16576
4.70467	16535
4.70533	16495
4.70600	16455
4.70667	16415
4.70733	16376
4.70800	16337
4.70867	16298
4.70933	16260
4.71000	16221
4.71067	16184
4.71133	16146
4.71200	16109
4.71267	16073
4.71333	16036
4.71400	16001
4.71467	15965
4.71533	15930
4.71600	15895
4.71667	15861
4.71733	15827
4.71800	15793
4.71867	15760
4.71933	15727
4.72000	15694
4.72067	15661
4.72133	15629
4.72200	15597
4.72267	15566
4.72333	15534
4.72400	15503
4.72467	15473
4.72533	15442
4.72600	15412
4.72667	15383
4.72733	15354
4.72800	15325
4.72867	15296
4.72933	15268
4.73000	15240
4.73067	15212
4.73133	15185
4.73200	15158
4.73267	15131
4.73333	15104
4.73400	15078
4.73467	15051
4.73533	15025
4.73600	15000
4.73667	14974
4.73733	14949
4.73800	14924
4.73867	14899
4.73933	14874
4.74000	14849
4.74067	14825
4.74133	14801
4.74200	14777
4.74267	14754
4.74333	14731
4.74400	14708
4.74467	14685
4.74533	14662
4.74600	14640
4.74667	14618
4.74733	14596
4.74800	14575
4.74867	14553
4.74933	14532
4.75000	14511
4.75067	14490
4.75133	14469
4.75200	14448
4.75267	14427
4.75333	14407
4.75400	14386
4.75467	14366
4.75533	14346
4.75600	14326
4.75667	14306
4.75733	14286
4.75800	14266
4.75867	14246
4.75933	14226
4.76000	14206
4.76067	14187
4.76133	14168
4.76200	14148
4.76267	14129
4.76333	14110
4.76400	14091
4.76467	14073
4.76533	14054
4.76600	14036
4.76667	14017
4.76733	13999
4.76800	13981
4.76867	13963
4.76933	13945
4.77000	13928
4.77067	13910
4.77133	13892
4.77200	13875
4.77267	13858
4.77333	13840
4.77400	13823
4.77467	13806
4.77533	13789
4.77600	13772
4.77667	13755
4.77733	13738
4.77800	13722
4.77867	13705
4.77933	13688
4.78000	13672
4.78067	13656
4.78133	13639
4.78200	13623
4.78267	13607
4.78333	13591
4.78400	13574
4.78467	13558
4.78533	13542
4.78600	13526
4.78667	13509
4.78733	13493
4.78800	13477
4.78867	13461
4.78933	13445
4.79000	13428
4.79067	13412
4.79133	13396
4.79200	13379
4.79267	13363
4.79333	13347
4.79400	13330
4.79467	13314
4.79533	13298
4.79600	13282
4.79667	13265
4.79733	13249
4.79800	13233
4.79867	13218
4.79933	13202
4.80000	13186
4.80067	13171
4.80133	13155
4.80200	13140
4.80267	13125
4.80333	13110
4.80400	13095
4.80467	13080
4.80533	13066
4.80600	13051
4.80667	13037
4.80733	13023
4.80800	13008
4.80867	12994
4.80933	12980
4.81000	12966
4.81067	12952
4.81133	12938
4.81200	12924
4.81267	12910
4.81333	12896
4.81400	12882
4.81467	12869
4.81533	12855
4.81600	12842
4.81667	12829
4.81733	12815
4.81800	12802
4.81867	12789
4.81933	12776
4.82000	12764
4.82067	12751
4.82133	12738
4.82200	12726
4.82267	12713
4.82333	12701
4.82400	12688
4.82467	12676
4.82533	12663
4.82600	12651
4.82667	12639
4.82733	12627
4.82800	12614
4.82867	12602
4.82933	12590
4.83000	12578
4.83067	12566
4.83133	12554
4.83200	12542
4.83267	12530
4.83333	12518
4.83400	12507
4.83467	12495
4.83533	12483
4.83600	12471
4.83667	12459
4.83733	12448
4.83800	12436
4.83867	12424
4.83933	12412
4.84000	12401
4.84067	12389
4.84133	12377
4.84200	12365
4.84267	12354
4.84333	12342
4.84400	12330
4.84467	12319
4.84533	12307
4.84600	12296
4.84667	12284
4.84733	12273
4.84800	12261
4.84867	12250
4.84933	12239
4.85000	12227
4.85067	12216
4.85133	12205
4.85200	12194
4.85267	12183
4.85333	12172
4.85400	12161
4.85467	12150
4.85533	12139
4.85600	12128
4.85667	12117
4.85733	12106
4.85800	12095
4.85867	12084
4.85933	12073
4.86000	12062
4.86067	12051
4.86133	12040
4.86200	12029
4.86267	12018
4.86333	12007
4.86400	11996
4.86467	11985
4.86533	11974
4.86600	11963
4.86667	11952
4.86733	11942
4.86800	11931
4.86867	11921
4.86933	11910
4.87000	11899
4.87067	11889
4.87133	11878
4.87200	11868
4.87267	11858
4.87333	11847
4.87400	11837
4.87467	11827
4.87533	11817
4.87600	11807
4.87667	11797
4.87733	11787
4.87800	11777
4.87867	11767
4.87933	11757
4.88000	11748
4.88067	11738
4.88133	11728
4.88200	11719
4.88267	11709
4.88333	11699
4.88400	11690
4.88467	11680
4.88533	11670
4.88600	11661
4.88667	11651
4.88733	11641
4.88800	11631
4.88867	11621
4.88933	11611
4.89000	11601
4.89067	11591
4.89133	11581
4.89200	11571
4.89267	11561
4.89333	11551
4.89400	11541
4.89467	11531
4.89533	11521
4.89600	11511
4.89667	11502
4.89733	11492
4.89800	11482
4.89867	11472
4.89933	11462
4.90000	11452
4.90067	11442
4.90133	11433
4.90200	11423
4.90267	11413
4.90333	11403
4.90400	11393
4.90467	11383
4.90533	11373
4.90600	11363
4.90667	11354
4.90733	11344
4.90800	11334
4.90867	11324
4.90933	11314
4.91000	11304
4.91067	11294
4.91133	11283
4.91200	11273
4.91267	11263
4.91333	11253
4.91400	11242
4.91467	11232
4.91533	11222
4.91600	11211
4.91667	11201
4.91733	11191
4.91800	11181
4.91867	11170
4.91933	11160
4.92000	11150
4.92067	11140
4.92133	11130
4.92200	11120
4.92267	11110
4.92333	11100
4.92400	11090
4.92467	11080
4.92533	11070
4.92600	11060
4.92667	11050
4.92733	11040
4.92800	11030
4.92867	11020
4.92933	11011
4.93000	11001
4.93067	10991
4.93133	10982
4.93200	10972
4.93267	10963
4.93333	10954
4.93400	10944
4.93467	10935
4.93533	10926
4.93600	10917
4.93667	10908
4.93733	10899
4.93800	10890
4.93867	10881
4.93933	10872
4.94000	10863
4.94067	10855
4.94133	10846
4.94200	10838
4.94267	10829
4.94333	10821
4.94400	10813
4.94467	10805
4.94533	10797
4.94600	10789
4.94667	10781
4.94733	10773
4.94800	10765
4.94867	10757
4.94933	10749
4.95000	10741
4.95067	10734
4.95133	10726
4.95200	10719
4.95267	10711
4.95333	10704
4.95400	10696
4.95467	10689
4.95533	10682
4.95600	10674
4.95667	10667
4.95733	10659
4.95800	10652
4.95867	10645
4.95933	10637
4.96000	10630
4.96067	10623
4.96133	10615
4.96200	10608
4.96267	10601
4.96333	10593
4.96400	10586
4.96467	10579
4.96533	10572
4.96600	10565
4.96667	10558
4.96733	10551
4.96800	10544
4.96867	10537
4.96933	10530
4.97000	10524
4.97067	10517
4.97133	10509
4.97200	10502
4.97267	10495
4.97333	10488
4.97400	10481
4.97467	10473
4.97533	10466
4.97600	10458
4.97667	10451
4.97733	10443
4.97800	10436
4.97867	10428
4.97933	10420
4.98000	10413
4.98067	10405
4.98133	10397
4.98200	10389
4.98267	10381
4.98333	10373
4.98400	10365
4.98467	10358
4.98533	10350
4.98600	10342
4.98667	10334
4.98733	10326
4.98800	10318
4.98867	10310
4.98933	10302
4.99000	10294
4.99067	10286
4.99133	10278
4.99200	10270
4.99267	10262
4.99333	10254
4.99400	10246
4.99467	10238
4.99533	10230
4.99600	10222
4.99667	10214
4.99733	10205
4.99800	10197
4.99867	10189
4.99933	10181
5.00000	10173
5.00067	10165
5.00133	10157
5.00200	10149
5.00267	10141
5.00333	10133
5.00400	10125
5.00467	10117
5.00533	10109
5.00600	10101
5.00667	10093
5.00733	10086
5.00800	10078
5.00867	10070
5.00933	10062
5.01000	10054
5.01067	10047
5.01133	10039
5.01200	10031
5.01267	10023
5.01333	10015
5.01400	10008
5.01467	10000
5.01533	9992
5.01600	9984
5.01667	9977
5.01733	9969
5.01800	9961
5.01867	9954
5.01933	9946
5.02000	9939
5.02067	9931
5.02133	9924
5.02200	9917
5.02267	9910
5.02333	9903
5.02400	9896
5.02467	9889
5.02533	9883
5.02600	9876
5.02667	9869
5.02733	9863
5.02800	9856
5.02867	9850
5.02933	9844
5.03000	9838
5.03067	9832
5.03133	9826
5.03200	9820
5.03267	9815
5.03333	9809
5.03400	9803
5.03467	9798
5.03533	9793
5.03600	9787
5.03667	9782
5.03733	9777
5.03800	9772
5.03867	9766
5.03933	9761
5.04000	9756
5.04067	9751
5.04133	9746
5.04200	9742
5.04267	9737
5.04333	9732
5.04400	9727
5.04467	9722
5.04533	9717
5.04600	9713
5.04667	9708
5.04733	9703
5.04800	9698
5.04867	9694
5.04933	9689
5.05000	9684
5.05067	9680
5.05133	9675
5.05200	9671
5.05267	9666
5.05333	9661
5.05400	9657
5.05467	9652
5.05533	9648
5.05600	9643
5.05667	9638
5.05733	9634
5.05800	9629
5.05867	9625
5.05933	9620
5.06000	9615
5.06067	9611
5.06133	9606
5.06200	9602
5.06267	9597
5.06333	9593
5.06400	9588
5.06467	9584
5.06533	9579
5.06600	9574
5.06667	9570
5.06733	9565
5.06800	9561
5.06867	9556
5.06933	9551
5.07000	9547
5.07067	9542
5.07133	9537
5.07200	9533
5.07267	9528
5.07333	9523
5.07400	9518
5.07467	9513
5.07533	9509
5.07600	9504
5.07667	9499
5.07733	9494
5.07800	9489
5.07867	9484
5.07933	9479
5.08000	9474
5.08067	9469
5.08133	9464
5.08200	9459
5.08267	9454
5.08333	9449
5.08400	9444
5.08467	9438
5.08533	9433
5.08600	9428
5.08667	9422
5.08733	9417
5.08800	9412
5.08867	9406
5.08933	9401
5.09000	9396
5.09067	9390
5.09133	9385
5.09200	9380
5.09267	9375
5.09333	9370
5.09400	9365
5.09467	9360
5.09533	9355
5.09600	9350
5.09667	9345
5.09733	9340
5.09800	9335
5.09867	9330
5.09933	9325
5.10000	9321
5.10067	9316
5.10133	9311
5.10200	9307
5.10267	9302
5.10333	9298
5.10400	9293
5.10467	9289
5.10533	9285
5.10600	9280
5.10667	9276
5.10733	9272
5.10800	9269
5.10867	9265
5.10933	9261
5.11000	9258
5.11067	9255
5.11133	9251
5.11200	9248
5.11267	9246
5.11333	9243
5.11400	9240
5.11467	9238
5.11533	9235
5.11600	9233
5.11667	9231
5.11733	9229
5.11800	9227
5.11867	9225
5.11933	9223
5.12000	9221
5.12067	9220
5.12133	9218
5.12200	9217
5.12267	9216
5.12333	9214
5.12400	9213
5.12467	9212
5.12533	9212
5.12600	9211
5.12667	9210
5.12733	9209
5.12800	9209
5.12867	9208
5.12933	9208
5.13000	9208
5.13067	9208
5.13133	9208
5.13200	9208
5.13267	9208
5.13333	9208
5.13400	9209
5.13467	9209
5.13533	9210
5.13600	9210
5.13667	9211
5.13733	9212
5.13800	9213
5.13867	9214
5.13933	9215
5.14000	9217
5.14067	9218
5.14133	9219
5.14200	9221
5.14267	9223
5.14333	9224
5.14400	9226
5.14467	9228
5.14533	9230
5.14600	9232
5.14667	9234
5.14733	9237
5.14800	9239
5.14867	9241
5.14933	9244
5.15000	9247
5.15067	9250
5.15133	9253
5.15200	9256
5.15267	9259
5.15333	9262
5.15400	9266
5.15467	9269
5.15533	9273
5.15600	9277
5.15667	9280
5.15733	9285
5.15800	9289
5.15867	9293
5.15933	9298
5.16000	9302
5.16067	9307
5.16133	9312
5.16200	9317
5.16267	9322
5.16333	9327
5.16400	9333
5.16467	9339
5.16533	9344
5.16600	9350
5.16667	9357
5.16733	9363
5.16800	9369
5.16867	9376
5.16933	9383
5.17000	9389
5.17067	9396
5.17133	9403
5.17200	9411
5.17267	9418
5.17333	9425
5.17400	9433
5.17467	9441
5.17533	9449
5.17600	9457
5.17667	9465
5.17733	9474
5.17800	9482
5.17867	9491
5.17933	9500
5.18000	9509
5.18067	9518
5.18133	9527
5.18200	9536
5.18267	9546
5.18333	9556
5.18400	9565
5.18467	9575
5.18533	9585
5.18600	9595
5.18667	9606
5.18733	9616
5.18800	9626
5.18867	9637
5.18933	9647
5.19000	9658
5.19067	9668
5.19133	9679
5.19200	9690
5.19267	9700
5.19333	9711
5.19400	9721
5.19467	9732
5.19533	9743
5.19600	9754
5.19667	9764
5.19733	9775
5.19800	9786
5.19867	9797
5.19933	9807
5.20000	9818
5.20067	9829
5.20133	9839
5.20200	9850
5.20267	9860
5.20333	9871
5.20400	9881
5.20467	9891
5.20533	9901
5.20600	9911
5.20667	9920
5.20733	9930
5.20800	9939
5.20867	9948
5.20933	9957
5.21000	9966
5.21067	9975
5.21133	9984
5.21200	9992
5.21267	10001
5.21333	10009
5.21400	10017
5.21467	10024
5.21533	10032
5.21600	10039
5.21667	10046
5.21733	10053
5.21800	10060
5.21867	10067
5.21933	10073
5.22000	10079
5.22067	10085
5.22133	10090
5.22200	10095
5.22267	10100
5.22333	10105
5.22400	10109
5.22467	10114
5.22533	10118
5.22600	10121
5.22667	10125
5.22733	10128
5.22800	10131
5.22867	10133
5.22933	10136
5.23000	10138
5.23067	10139
5.23133	10141
5.23200	10142
5.23267	10143
5.23333	10144
5.23400	10144
5.23467	10144
5.23533	10144
5.23600	10144
5.23667	10143
5.23733	10142
5.23800	10141
5.23867	10139
5.23933	10138
5.24000	10135
5.24067	10133
5.24133	10130
5.24200	10127
5.24267	10124
5.24333	10120
5.24400	10116
5.24467	10112
5.24533	10107
5.24600	10103
5.24667	10097
5.24733	10092
5.24800	10086
5.24867	10080
5.24933	10074
5.25000	10068
5.25067	10061
5.25133	10054
5.25200	10046
5.25267	10039
5.25333	10031
5.25400	10023
5.25467	10015
5.25533	10006
5.25600	9997
5.25667	9988
5.25733	9979
5.25800	9969
5.25867	9959
5.25933	9949
5.26000	9939
5.26067	9929
5.26133	9919
5.26200	9908
5.26267	9898
5.26333	9887
5.26400	9876
5.26467	9865
5.26533	9854
5.26600	9843
5.26667	9832
5.26733	9820
5.26800	9809
5.26867	9797
5.26933	9786
5.27000	9774
5.27067	9762
5.27133	9751
5.27200	9739
5.27267	9727
5.27333	9715
5.27400	9703
5.27467	9691
5.27533	9678
5.27600	9666
5.27667	9653
5.27733	9641
5.27800	9628
5.27867	9616
5.27933	9603
5.28000	9590
5.28067	9578
5.28133	9565
5.28200	9552
5.28267	9539
5.28333	9527
5.28400	9514
5.28467	9501
5.28533	9488
5.28600	9475
5.28667	9462
5.28733	9449
5.28800	9436
5.28867	9422
5.28933	9409
5.29000	9396
5.29067	9383
5.29133	9370
5.29200	9357
5.29267	9343
5.29333	9330
5.29400	9317
5.29467	9304
5.29533	9291
5.29600	9278
5.29667	9265
5.29733	9252
5.29800	9239
5.29867	9226
5.29933	9212
5.30000	9200
5.30067	9187
5.30133	9174
5.30200	9161
5.30267	9148
5.30333	9135
5.30400	9123
5.30467	9110
5.30533	9098
5.30600	9085
5.30667	9073
5.30733	9061
5.30800	9049
5.30867	9037
5.30933	9025
5.31000	9013
5.31067	9001
5.31133	8989
5.31200	8977
5.31267	8966
5.31333	8954
5.31400	8942
5.31467	8931
5.31533	8919
5.31600	8908
5.31667	8896
5.31733	8885
5.31800	8874
5.31867	8862
5.31933	8851
5.32000	8840
5.32067	8829
5.32133	8817
5.32200	8806
5.32267	8795
5.32333	8784
5.32400	8773
5.32467	8762
5.32533	8752
5.32600	8741
5.32667	8730
5.32733	8720
5.32800	8709
5.32867	8699
5.32933	8689
5.33000	8679
5.33067	8669
5.33133	8659
5.33200	8649
5.33267	8639
5.33333	8629
5.33400	8620
5.33467	8610
5.33533	8601
5.33600	8591
5.33667	8582
5.33733	8573
5.33800	8563
5.33867	8554
5.33933	8545
5.34000	8537
5.34067	8528
5.34133	8519
5.34200	8511
5.34267	8503
5.34333	8494
5.34400	8486
5.34467	8478
5.34533	8470
5.34600	8463
5.34667	8455
5.34733	8447
5.34800	8440
5.34867	8432
5.34933	8424
5.35000	8417
5.35067	8409
5.35133	8402
5.35200	8395
5.35267	8387
5.35333	8380
5.35400	8373
5.35467	8365
5.35533	8358
5.35600	8351
5.35667	8344
5.35733	8337
5.35800	8329
5.35867	8322
5.35933	8315
5.36000	8308
5.36067	8301
5.36133	8294
5.36200	8287
5.36267	8280
5.36333	8273
5.36400	8266
5.36467	8259
5.36533	8252
5.36600	8245
5.36667	8238
5.36733	8231
5.36800	8224
5.36867	8217
5.36933	8210
5.37000	8204
5.37067	8197
5.37133	8190
5.37200	8183
5.37267	8177
5.37333	8170
5.37400	8163
5.37467	8156
5.37533	8150
5.37600	8143
5.37667	8136
5.37733	8129
5.37800	8122
5.37867	8116
5.37933	8109
5.38000	8102
5.38067	8095
5.38133	8088
5.38200	8082
5.38267	8075
5.38333	8068
5.38400	8062
5.38467	8055
5.38533	8048
5.38600	8042
5.38667	8035
5.38733	8029
5.38800	8022
5.38867	8016
5.38933	8010
5.39000	8003
5.39067	7997
5.39133	7991
5.39200	7985
5.39267	7979
5.39333	7973
5.39400	7967
5.39467	7961
5.39533	7955
5.39600	7950
5.39667	7944
5.39733	7938
5.39800	7933
5.39867	7927
5.39933	7922
5.40000	7916
5.40067	7911
5.40133	7905
5.40200	7900
5.40267	7895
5.40333	7889
5.40400	7884
5.40467	7879
5.40533	7874
5.40600	7869
5.40667	7864
5.40733	7859
5.40800	7854
5.40867	7849
5.40933	7844
5.41000	7839
5.41067	7834
5.41133	7829
5.41200	7824
5.41267	7819
5.41333	7815
5.41400	7810
5.41467	7805
5.41533	7800
5.41600	7795
5.41667	7791
5.41733	7786
5.41800	7781
5.41867	7777
5.41933	7772
5.42000	7768
5.42067	7763
5.42133	7759
5.42200	7755
5.42267	7750
5.42333	7746
5.42400	7742
5.42467	7737
5.42533	7733
5.42600	7729
5.42667	7724
5.42733	7720
5.42800	7715
5.42867	7711
5.42933	7706
5.43000	7702
5.43067	7697
5.43133	7693
5.43200	7688
5.43267	7684
5.43333	7679
5.43400	7675
5.43467	7670
5.43533	7666
5.43600	7661
5.43667	7657
5.43733	7652
5.43800	7648
5.43867	7643
5.43933	7639
5.44000	7634
5.44067	7630
5.44133	7625
5.44200	7621
5.44267	7616
5.44333	7612
5.44400	7607
5.44467	7603
5.44533	7599
5.44600	7594
5.44667	7590
5.44733	7586
5.44800	7581
5.44867	7577
5.44933	7573
5.45000	7568
5.45067	7564
5.45133	7560
5.45200	7556
5.45267	7551
5.45333	7547
5.45400	7543
5.45467	7538
5.45533	7534
5.45600	7529
5.45667	7525
5.45733	7520
5.45800	7516
5.45867	7511
5.45933	7507
5.46000	7502
5.46067	7498
5.46133	7493
5.46200	7489
5.46267	7484
5.46333	7479
5.46400	7475
5.46467	7470
5.46533	7465
5.46600	7461
5.46667	7456
5.46733	7451
5.46800	7447
5.46867	7442
5.46933	7438
5.47000	7433
5.47067	7428
5.47133	7424
5.47200	7419
5.47267	7414
5.47333	7410
5.47400	7405
5.47467	7400
5.47533	7396
5.47600	7391
5.47667	7386
5.47733	7382
5.47800	7377
5.47867	7372
5.47933	7368
5.48000	7363
5.48067	7359
5.48133	7354
5.48200	7350
5.48267	7345
5.48333	7341
5.48400	7336
5.48467	7332
5.48533	7328
5.48600	7324
5.48667	7319
5.48733	7315
5.48800	7311
5.48867	7307
5.48933	7303
5.49000	7299
5.49067	7295
5.49133	7291
5.49200	7287
5.49267	7284
5.49333	7280
5.49400	7276
5.49467	7272
5.49533	7268
5.49600	7265
5.49667	7261
5.49733	7257
5.49800	7254
5.49867	7250
5.49933	7247
5.50000	7243
5.50067	7240
5.50133	7237
5.50200	7233
5.50267	7230
5.50333	7227
5.50400	7223
5.50467	7220
5.50533	7217
5.50600	7214
5.50667	7210
5.50733	7207
5.50800	7204
5.50867	7201
5.50933	7197
5.51000	7194
5.51067	7191
5.51133	7188
5.51200	7185
5.51267	7182
5.51333	7179
5.51400	7176
5.51467	7173
5.51533	7170
5.51600	7167
5.51667	7164
5.51733	7161
5.51800	7158
5.51867	7155
5.51933	7152
5.52000	7149
5.52067	7146
5.52133	7143
5.52200	7139
5.52267	7136
5.52333	7133
5.52400	7130
5.52467	7127
5.52533	7123
5.52600	7120
5.52667	7117
5.52733	7114
5.52800	7111
5.52867	7107
5.52933	7104
5.53000	7101
5.53067	7097
5.53133	7094
5.53200	7091
5.53267	7087
5.53333	7084
5.53400	7080
5.53467	7077
5.53533	7074
5.53600	7070
5.53667	7067
5.53733	7064
5.53800	7060
5.53867	7057
5.53933	7054
5.54000	7051
5.54067	7047
5.54133	7044
5.54200	7041
5.54267	7038
5.54333	7035
5.54400	7032
5.54467	7029
5.54533	7025
5.54600	7022
5.54667	7019
5.54733	7016
5.54800	7013
5.54867	7010
5.54933	7007
5.55000	7005
5.55067	7002
5.55133	6999
5.55200	6996
5.55267	6994
5.55333	6991
5.55400	6988
5.55467	6985
5.55533	6983
5.55600	6980
5.55667	6977
5.55733	6975
5.55800	6972
5.55867	6970
5.55933	6967
5.56000	6965
5.56067	6962
5.56133	6959
5.56200	6957
5.56267	6954
5.56333	6951
5.56400	6949
5.56467	6946
5.56533	6944
5.56600	6941
5.56667	6938
5.56733	6936
5.56800	6933
5.56867	6930
5.56933	6928
5.57000	6925
5.57067	6922
5.57133	6920
5.57200	6917
5.57267	6915
5.57333	6912
5.57400	6909
5.57467	6907
5.57533	6904
5.57600	6902
5.57667	6899
5.57733	6897
5.57800	6895
5.57867	6892
5.57933	6890
5.58000	6887
5.58067	6885
5.58133	6882
5.58200	6880
5.58267	6877
5.58333	6875
5.58400	6872
5.58467	6870
5.58533	6867
5.58600	6865
5.58667	6863
5.58733	6860
5.58800	6858
5.58867	6855
5.58933	6853
5.59000	6850
5.59067	6848
5.59133	6845
5.59200	6843
5.59267	6840
5.59333	6838
5.59400	6835
5.59467	6833
5.59533	6830
5.59600	6828
5.59667	6825
5.59733	6823
5.59800	6820
5.59867	6818
5.59933	6815
5.60000	6813
5.60067	6810
5.60133	6808
5.60200	6805
5.60267	6803
5.60333	6800
5.60400	6797
5.60467	6795
5.60533	6792
5.60600	6790
5.60667	6787
5.60733	6785
5.60800	6782
5.60867	6780
5.60933	6777
5.61000	6775
5.61067	6772
5.61133	6770
5.61200	6767
5.61267	6765
5.61333	6762
5.61400	6759
5.61467	6757
5.61533	6754
5.61600	6752
5.61667	6749
5.61733	6747
5.61800	6745
5.61867	6742
5.61933	6740
5.62000	6737
5.62067	6735
5.62133	6733
5.62200	6730
5.62267	6728
5.62333	6726
5.62400	6724
5.62467	6721
5.62533	6719
5.62600	6717
5.62667	6715
5.62733	6712
5.62800	6710
5.62867	6708
5.62933	6706
5.63000	6703
5.63067	6701
5.63133	6699
5.63200	6696
5.63267	6694
5.63333	6692
5.63400	6689
5.63467	6687
5.63533	6685
5.63600	6682
5.63667	6680
5.63733	6678
5.63800	6676
5.63867	6674
5.63933	6671
5.64000	6669
5.64067	6667
5.64133	6665
5.64200	6662
5.64267	6660
5.64333	6658
5.64400	6655
5.64467	6653
5.64533	6651
5.64600	6649
5.64667	6646
5.64733	6644
5.64800	6642
5.64867	6639
5.64933	6637
5.65000	6635
5.65067	6632
5.65133	6630
5.65200	6628
5.65267	6625
5.65333	6623
5.65400	6620
5.65467	6618
5.65533	6616
5.65600	6613
5.65667	6611
5.65733	6608
5.65800	6606
5.65867	6604
5.65933	6601
5.66000	6599
5.66067	6596
5.66133	6594
5.66200	6592
5.66267	6589
5.66333	6587
5.66400	6584
5.66467	6582
5.66533	6580
5.66600	6577
5.66667	6575
5.66733	6573
5.66800	6571
5.66867	6568
5.66933	6566
5.67000	6564
5.67067	6561
5.67133	6559
5.67200	6556
5.67267	6554
5.67333	6552
5.67400	6549
5.67467	6547
5.67533	6545
5.67600	6542
5.67667	6540
5.67733	6538
5.67800	6536
5.67867	6533
5.67933	6531
5.68000	6529
5.68067	6526
5.68133	6524
5.68200	6522
5.68267	6520
5.68333	6517
5.68400	6515
5.68467	6513
5.68533	6511
5.68600	6508
5.68667	6506
5.68733	6504
5.68800	6502
5.68867	6499
5.68933	6497
5.69000	6495
5.69067	6493
5.69133	6491
5.69200	6489
5.69267	6487
5.69333	6485
5.69400	6483
5.69467	6480
5.69533	6478
5.69600	6476
5.69667	6474
5.69733	6472
5.69800	6470
5.69867	6468
5.69933	6466
5.70000	6464
5.70067	6462
5.70133	6460
5.70200	6459
5.70267	6457
5.70333	6455
5.70400	6453
5.70467	6451
5.70533	6449
5.70600	6447
5.70667	6445
5.70733	6444
5.70800	6442
5.70867	6440
5.70933	6438
5.71000	6436
5.71067	6434
5.71133	6433
5.71200	6431
5.71267	6429
5.71333	6427
5.71400	6425
5.71467	6423
5.71533	6421
5.71600	6420
5.71667	6418
5.71733	6416
5.71800	6414
5.71867	6413
5.71933	6411
5.72000	6409
5.72067	6407
5.72133	6405
5.72200	6404
5.72267	6402
5.72333	6400
5.72400	6398
5.72467	6396
5.72533	6395
5.72600	6393
5.72667	6391
5.72733	6389
5.72800	6388
5.72867	6386
5.72933	6384
5.73000	6383
5.73067	6381
5.73133	6379
5.73200	6377
5.73267	6376
5.73333	6374
5.73400	6372
5.73467	6371
5.73533	6369
5.73600	6368
5.73667	6366
5.73733	6364
5.73800	6363
5.73867	6361
5.73933	6360
5.74000	6358
5.74067	6357
5.74133	6355
5.74200	6354
5.74267	6352
5.74333	6351
5.74400	6350
5.74467	6348
5.74533	6347
5.74600	6346
5.74667	6344
5.74733	6343
5.74800	6341
5.74867	6340
5.74933	6339
5.75000	6337
5.75067	6336
5.75133	6335
5.75200	6333
5.75267	6332
5.75333	6331
5.75400	6329
5.75467	6328
5.75533	6327
5.75600	6326
5.75667	6324
5.75733	6323
5.75800	6322
5.75867	6321
5.75933	6319
5.76000	6318
5.76067	6317
5.76133	6316
5.76200	6315
5.76267	6313
5.76333	6312
5.76400	6311
5.76467	6310
5.76533	6308
5.76600	6307
5.76667	6306
5.76733	6305
5.76800	6304
5.76867	6303
5.76933	6302
5.77000	6301
5.77067	6300
5.77133	6299
5.77200	6298
5.77267	6297
5.77333	6296
5.77400	6295
5.77467	6294
5.77533	6293
5.77600	6292
5.77667	6291
5.77733	6290
5.77800	6290
5.77867	6289
5.77933	6288
5.78000	6287
5.78067	6287
5.78133	6286
5.78200	6285
5.78267	6284
5.78333	6284
5.78400	6283
5.78467	6282
5.78533	6282
5.78600	6281
5.78667	6280
5.78733	6280
5.78800	6279
5.78867	6278
5.78933	6278
5.79000	6277
5.79067	6276
5.79133	6276
5.79200	6275
5.79267	6275
5.79333	6274
5.79400	6274
5.79467	6273
5.79533	6273
5.79600	6272
5.79667	6272
5.79733	6271
5.79800	6270
5.79867	6270
5.79933	6269
5.80000	6269
5.80067	6268
5.80133	6268
5.80200	6267
5.80267	6266
5.80333	6266
5.80400	6265
5.80467	6264
5.80533	6264
5.80600	6263
5.80667	6262
5.80733	6262
5.80800	6261
5.80867	6260
5.80933	6260
5.81000	6259
5.81067	6259
5.81133	6258
5.81200	6258
5.81267	6257
5.81333	6257
5.81400	6256
5.81467	6256
5.81533	6255
5.81600	6255
5.81667	6255
5.81733	6254
5.81800	6254
5.81867	6254
5.81933	6253
5.82000	6253
5.82067	6253
5.82133	6252
5.82200	6252
5.82267	6252
5.82333	6251
5.82400	6251
5.82467	6250
5.82533	6250
5.82600	6250
5.82667	6249
5.82733	6249
5.82800	6248
5.82867	6248
5.82933	6247
5.83000	6247
5.83067	6246
5.83133	6246
5.83200	6245
5.83267	6245
5.83333	6244
5.83400	6244
5.83467	6243
5.83533	6242
5.83600	6242
5.83667	6241
5.83733	6240
5.83800	6240
5.83867	6239
5.83933	6238
5.84000	6238
5.84067	6237
5.84133	6236
5.84200	6235
5.84267	6234
5.84333	6233
5.84400	6232
5.84467	6231
5.84533	6230
5.84600	6229
5.84667	6228
5.84733	6228
5.84800	6227
5.84867	6226
5.84933	6225
5.85000	6224
5.85067	6223
5.85133	6222
5.85200	6221
5.85267	6220
5.85333	6219
5.85400	6218
5.85467	6217
5.85533	6216
5.85600	6215
5.85667	6214
5.85733	6213
5.85800	6211
5.85867	6210
5.85933	6209
5.86000	6208
5.86067	6207
5.86133	6206
5.86200	6205
5.86267	6203
5.86333	6202
5.86400	6201
5.86467	6199
5.86533	6198
5.86600	6197
5.86667	6195
5.86733	6194
5.86800	6193
5.86867	6191
5.86933	6190
5.87000	6188
5.87067	6187
5.87133	6185
5.87200	6184
5.87267	6183
5.87333	6181
5.87400	6180
5.87467	6178
5.87533	6176
5.87600	6175
5.87667	6173
5.87733	6172
5.87800	6170
5.87867	6169
5.87933	6167
5.88000	6165
5.88067	6164
5.88133	6162
5.88200	6161
5.88267	6159
5.88333	6157
5.88400	6156
5.88467	6154
5.88533	6153
5.88600	6151
5.88667	6150
5.88733	6148
5.88800	6146
5.88867	6145
5.88933	6143
5.89000	6142
5.89067	6140
5.89133	6138
5.89200	6137
5.89267	6135
5.89333	6133
5.89400	6131
5.89467	6130
5.89533	6128
5.89600	6126
5.89667	6125
5.89733	6123
5.89800	6121
5.89867	6119
5.89933	6117
5.90000	6116
5.90067	6114
5.90133	6112
5.90200	6110
5.90267	6108
5.90333	6107
5.90400	6105
5.90467	6103
5.90533	6101
5.90600	6099
5.90667	6097
5.90733	6095
5.90800	6093
5.90867	6091
5.90933	6089
5.91000	6088
5.91067	6086
5.91133	6084
5.91200	6082
5.91267	6080
5.91333	6078
5.91400	6076
5.91467	6074
5.91533	6072
5.91600	6071
5.91667	6069
5.91733	6067
5.91800	6065
5.91867	6063
5.91933	6062
5.92000	6060
5.92067	6058
5.92133	6056
5.92200	6055
5.92267	6053
5.92333	6051
5.92400	6049
5.92467	6048
5.92533	6046
5.92600	6044
5.92667	6042
5.92733	6040
5.92800	6039
5.92867	6037
5.92933	6035
5.93000	6034
5.93067	6032
5.93133	6030
5.93200	6029
5.93267	6027
5.93333	6025
5.93400	6024
5.93467	6022
5.93533	6020
5.93600	6019
5.93667	6017
5.93733	6016
5.93800	6014
5.93867	6012
5.93933	6011
5.94000	6009
5.94067	6008
5.94133	6006
5.94200	6004
5.94267	6003
5.94333	6001
5.94400	6000
5.94467	5998
5.94533	5997
5.94600	5995
5.94667	5994
5.94733	5992
5.94800	5991
5.94867	5989
5.94933	5988
5.95000	5986
5.95067	5985
5.95133	5984
5.95200	5982
5.95267	5981
5.95333	5979
5.95400	5978
5.95467	5977
5.95533	5975
5.95600	5974
5.95667	5973
5.95733	5971
5.95800	5970
5.95867	5969
5.95933	5967
5.96000	5966
5.96067	5965
5.96133	5964
5.96200	5962
5.96267	5961
5.96333	5960
5.96400	5959
5.96467	5958
5.96533	5956
5.96600	5955
5.96667	5954
5.96733	5953
5.96800	5952
5.96867	5951
5.96933	5950
5.97000	5950
5.97067	5949
5.97133	5948
5.97200	5947
5.97267	5946
5.97333	5946
5.97400	5945
5.97467	5944
5.97533	5943
5.97600	5943
5.97667	5942
5.97733	5941
5.97800	5940
5.97867	5940
5.97933	5939
5.98000	5938
5.98067	5937
5.98133	5937
5.98200	5936
5.98267	5935
5.98333	5934
5.98400	5933
5.98467	5933
5.98533	5932
5.98600	5931
5.98667	5930
5.98733	5929
5.98800	5929
5.98867	5928
5.98933	5927
5.99000	5926
5.99067	5925
5.99133	5924
5.99200	5923
5.99267	5922
5.99333	5921
5.99400	5920
5.99467	5919
5.99533	5919
5.99600	5918
5.99667	5917
5.99733	5916
5.99800	5915
5.99867	5914
5.99933	5914
6.00000	5913
6.00067	5912
6.00133	5912
6.00200	5911
6.00267	5910
6.00333	5909
6.00400	5909
6.00467	5908
6.00533	5908
6.00600	5907
6.00667	5906
6.00733	5906
6.00800	5905
6.00867	5904
6.00933	5904
6.01000	5903
6.01067	5902
6.01133	5902
6.01200	5901
6.01267	5900
6.01333	5900
6.01400	5899
6.01467	5898
6.01533	5897
6.01600	5897
6.01667	5896
6.01733	5895
6.01800	5894
6.01867	5893
6.01933	5893
6.02000	5892
6.02067	5891
6.02133	5890
6.02200	5890
6.02267	5889
6.02333	5888
6.02400	5887
6.02467	5887
6.02533	5886
6.02600	5885
6.02667	5885
6.02733	5884
6.02800	5883
6.02867	5883
6.02933	5882
6.03000	5881
6.03067	5880
6.03133	5880
6.03200	5879
6.03267	5878
6.03333	5878
6.03400	5877
6.03467	5876
6.03533	5875
6.03600	5875
6.03667	5874
6.03733	5873
6.03800	5873
6.03867	5872
6.03933	5871
6.04000	5870
6.04067	5870
6.04133	5869
6.04200	5869
6.04267	5868
6.04333	5867
6.04400	5867
6.04467	5866
6.04533	5866
6.04600	5865
6.04667	5865
6.04733	5864
6.04800	5864
6.04867	5863
6.04933	5863
6.05000	5862
6.05067	5862
6.05133	5861
6.05200	5860
6.05267	5860
6.05333	5859
6.05400	5859
6.05467	5858
6.05533	5857
6.05600	5857
6.05667	5856
6.05733	5856
6.05800	5855
6.05867	5855
6.05933	5854
6.06000	5853
6.06067	5853
6.06133	5852
6.06200	5851
6.06267	5851
6.06333	5850
6.06400	5849
6.06467	5849
6.06533	5848
6.06600	5847
6.06667	5847
6.06733	5846
6.06800	5845
6.06867	5844
6.06933	5844
6.07000	5843
6.07067	5842
6.07133	5841
6.07200	5840
6.07267	5839
6.07333	5839
6.07400	5838
6.07467	5837
6.07533	5836
6.07600	5835
6.07667	5834
6.07733	5833
6.07800	5832
6.07867	5831
6.07933	5830
6.08000	5829
6.08067	5828
6.08133	5827
6.08200	5826
6.08267	5825
6.08333	5824
6.08400	5823
6.08467	5822
6.08533	5821
6.08600	5820
6.08667	5819
6.08733	5817
6.08800	5816
6.08867	5815
6.08933	5814
6.09000	5813
6.09067	5812
6.09133	5811
6.09200	5810
6.09267	5809
6.09333	5808
6.09400	5807
6.09467	5806
6.09533	5805
6.09600	5804
6.09667	5803
6.09733	5802
6.09800	5801
6.09867	5800
6.09933	5799
6.10000	5798
6.10067	5797
6.10133	5796
6.10200	5795
6.10267	5794
6.10333	5793
6.10400	5792
6.10467	5791
6.10533	5790
6.10600	5790
6.10667	5789
6.10733	5788
6.10800	5787
6.10867	5786
6.10933	5785
6.11000	5785
6.11067	5784
6.11133	5783
6.11200	5782
6.11267	5781
6.11333	5780
6.11400	5780
6.11467	5779
6.11533	5778
6.11600	5777
6.11667	5776
6.11733	5776
6.11800	5775
6.11867	5774
6.11933	5773
6.12000	5772
6.12067	5772
6.12133	5771
6.12200	5770
6.12267	5769
6.12333	5769
6.12400	5768
6.12467	5767
6.12533	5766
6.12600	5765
6.12667	5765
6.12733	5764
6.12800	5763
6.12867	5763
6.12933	5762
6.13000	5761
6.13067	5761
6.13133	5760
6.13200	5759
6.13267	5759
6.13333	5758
6.13400	5757
6.13467	5757
6.13533	5756
6.13600	5756
6.13667	5755
6.13733	5755
6.13800	5754
6.13867	5753
6.13933	5753
6.14000	5752
6.14067	5752
6.14133	5751
6.14200	5750
6.14267	5749
6.14333	5749
6.14400	5748
6.14467	5747
6.14533	5747
6.14600	5746
6.14667	5745
6.14733	5744
6.14800	5743
6.14867	5743
6.14933	5742
6.15000	5741
6.15067	5740
6.15133	5739
6.15200	5738
6.15267	5738
6.15333	5737
6.15400	5736
6.15467	5735
6.15533	5734
6.15600	5733
6.15667	5732
6.15733	5732
6.15800	5731
6.15867	5730
6.15933	5729
6.16000	5728
6.16067	5727
6.16133	5727
6.16200	5726
6.16267	5725
6.16333	5724
6.16400	5723
6.16467	5723
6.16533	5722
6.16600	5721
6.16667	5720
6.16733	5719
6.16800	5719
6.16867	5718
6.16933	5717
6.17000	5716
6.17067	5716
6.17133	5715
6.17200	5714
6.17267	5713
6.17333	5713
6.17400	5712
6.17467	5711
6.17533	5710
6.17600	5710
6.17667	5709
6.17733	5708
6.17800	5708
6.17867	5707
6.17933	5706
6.18000	5706
6.18067	5705
6.18133	5705
6.18200	5705
6.18267	5704
6.18333	5704
6.18400	5703
6.18467	5703
6.18533	5702
6.18600	5702
6.18667	5702
6.18733	5701
6.18800	5701
6.18867	5700
6.18933	5700
6.19000	5700
6.19067	5699
6.19133	5699
6.19200	5698
6.19267	5698
6.19333	5697
6.19400	5697
6.19467	5697
6.19533	5696
6.19600	5696
6.19667	5696
6.19733	5695
6.19800	5695
6.19867	5694
6.19933	5694
6.20000	5694
6.20067	5693
6.20133	5693
6.20200	5693
6.20267	5692
6.20333	5692
6.20400	5692
6.20467	5691
6.20533	5691
6.20600	5691
6.20667	5691
6.20733	5690
6.20800	5690
6.20867	5690
6.20933	5690
6.21000	5690
6.21067	5689
6.21133	5689
6.21200	5689
6.21267	5689
6.21333	5688
6.21400	5688
6.21467	5688
6.21533	5688
6.21600	5688
6.21667	5687
6.21733	5687
6.21800	5687
6.21867	5687
6.21933	5687
6.22000	5687
6.22067	5687
6.22133	5687
6.22200	5686
6.22267	5686
6.22333	5686
6.22400	5686
6.22467	5686
6.22533	5686
6.22600	5685
6.22667	5685
6.22733	5685
6.22800	5685
6.22867	5684
6.22933	5684
6.23000	5684
6.23067	5684
6.23133	5683
6.23200	5683
6.23267	5683
6.23333	5683
6.23400	5683
6.23467	5682
6.23533	5682
6.23600	5683
6.23667	5683
6.23733	5683
6.23800	5683
6.23867	5683
6.23933	5684
6.24000	5684
6.24067	5684
6.24133	5685
6.24200	5685
6.24267	5685
6.24333	5686
6.24400	5686
6.24467	5686
6.24533	5687
6.24600	5687
6.24667	5688
6.24733	5688
6.24800	5688
6.24867	5689
6.24933	5689
6.25000	5690
6.25067	5690
6.25133	5691
6.25200	5691
6.25267	5692
6.25333	5692
6.25400	5693
6.25467	5693
6.25533	5694
6.25600	5694
6.25667	5695
6.25733	5695
6.25800	5696
6.25867	5696
6.25933	5696
6.26000	5697
6.26067	5697
6.26133	5698
6.26200	5698
6.26267	5698
6.26333	5699
6.26400	5699
6.26467	5699
6.26533	5700
6.26600	5700
6.26667	5700
6.26733	5701
6.26800	5701
6.26867	5701
6.26933	5701
6.27000	5701
6.27067	5702
6.27133	5702
6.27200	5702
6.27267	5702
6.27333	5702
6.27400	5702
6.27467	5703
6.27533	5703
6.27600	5703
6.27667	5703
6.27733	5703
6.27800	5703
6.27867	5703
6.27933	5703
6.28000	5703
6.28067	5703
6.28133	5703
6.28200	5703
6.28267	5702
6.28333	5702
6.28400	5702
6.28467	5702
6.28533	5702
6.28600	5702
6.28667	5702
6.28733	5701
6.28800	5701
6.28867	5701
6.28933	5701
6.29000	5700
6.29067	5700
6.29133	5700
6.29200	5700
6.29267	5700
6.29333	5699
6.29400	5699
6.29467	5699
6.29533	5699
6.29600	5698
6.29667	5698
6.29733	5698
6.29800	5697
6.29867	5697
6.29933	5697
6.30000	5696
6.30067	5696
6.30133	5696
6.30200	5695
6.30267	5695
6.30333	5695
6.30400	5694
6.30467	5694
6.30533	5694
6.30600	5693
6.30667	5693
6.30733	5693
6.30800	5692
6.30867	5692
6.30933	5692
6.31000	5692
6.31067	5691
6.31133	5691
6.31200	5691
6.31267	5690
6.31333	5690
6.31400	5689
6.31467	5689
6.31533	5689
6.31600	5688
6.31667	5688
6.31733	5687
6.31800	5687
6.31867	5686
6.31933	5686
6.32000	5686
6.32067	5685
6.32133	5685
6.32200	5684
6.32267	5684
6.32333	5683
6.32400	5683
6.32467	5682
6.32533	5682
6.32600	5681
6.32667	5680
6.32733	5680
6.32800	5679
6.32867	5678
6.32933	5678
6.33000	5677
6.33067	5676
6.33133	5676
6.33200	5675
6.33267	5674
6.33333	5674
6.33400	5673
6.33467	5672
6.33533	5672
6.33600	5671
6.33667	5670
6.33733	5669
6.33800	5669
6.33867	5668
6.33933	5667
6.34000	5667
6.34067	5666
6.34133	5665
6.34200	5665
6.34267	5664
6.34333	5664
6.34400	5663
6.34467	5662
6.34533	5661
6.34600	5661
6.34667	5660
6.34733	5659
6.34800	5658
6.34867	5657
6.34933	5657
6.35000	5656
6.35067	5655
6.35133	5654
6.35200	5653
6.35267	5652
6.35333	5651
6.35400	5650
6.35467	5649
6.35533	5649
6.35600	5648
6.35667	5647
6.35733	5646
6.35800	5645
6.35867	5644
6.35933	5643
6.36000	5642
6.36067	5641
6.36133	5640
6.36200	5639
6.36267	5638
6.36333	5637
6.36400	5636
6.36467	5635
6.36533	5634
6.36600	5634
6.36667	5633
6.36733	5632
6.36800	5631
6.36867	5630
6.36933	5630
6.37000	5629
6.37067	5628
6.37133	5627
6.37200	5627
6.37267	5626
6.37333	5625
6.37400	5624
6.37467	5624
6.37533	5623
6.37600	5622
6.37667	5622
6.37733	5621
6.37800	5620
6.37867	5620
6.37933	5619
6.38000	5618
6.38067	5618
6.38133	5617
6.38200	5617
6.38267	5616
6.38333	5616
6.38400	5615
6.38467	5615
6.38533	5614
6.38600	5614
6.38667	5613
6.38733	5613
6.38800	5612
6.38867	5612
6.38933	5611
6.39000	5611
6.39067	5610
6.39133	5610
6.39200	5609
6.39267	5609
6.39333	5608
6.39400	5607
6.39467	5607
6.39533	5606
6.39600	5605
6.39667	5605
6.39733	5604
6.39800	5603
6.39867	5603
6.39933	5603

