[Header]
Application Name	LabSolutions
Version	5.73
Data File Name	C:\LabSolutions\Data\Project1\stephen\2016-01-06\5.gcd
Output Date	1/11/2016
Output Time	1:19:39 PM

[Configuration]
Instrument Name	WEISSTA-PC-Instrument1
Instrument #	1
Line #	1
# of Detectors	1
Detector ID	DET#2
Detector Name	DFID1
# of Channels	1

[Chromatogram (Ch1)]
Interval(msec)	40
# of Points	9600
Start Time(min)	0.000
End Time(min)	6.399
R.Time (min)	Intensity
0.00000	10
0.00067	10
0.00133	10
0.00200	10
0.00267	10
0.00333	10
0.00400	10
0.00467	10
0.00533	10
0.00600	10
0.00667	10
0.00733	9
0.00800	9
0.00867	8
0.00933	7
0.01000	6
0.01067	5
0.01133	3
0.01200	1
0.01267	-2
0.01333	-5
0.01400	-9
0.01467	-13
0.01533	-17
0.01600	-22
0.01667	-26
0.01733	-31
0.01800	-37
0.01867	-42
0.01933	-48
0.02000	-53
0.02067	-59
0.02133	-64
0.02200	-69
0.02267	-75
0.02333	-80
0.02400	-85
0.02467	-90
0.02533	-95
0.02600	-99
0.02667	-104
0.02733	-108
0.02800	-112
0.02867	-116
0.02933	-120
0.03000	-123
0.03067	-126
0.03133	-129
0.03200	-132
0.03267	-135
0.03333	-138
0.03400	-140
0.03467	-142
0.03533	-144
0.03600	-146
0.03667	-148
0.03733	-149
0.03800	-151
0.03867	-152
0.03933	-153
0.04000	-154
0.04067	-155
0.04133	-156
0.04200	-156
0.04267	-157
0.04333	-157
0.04400	-158
0.04467	-158
0.04533	-158
0.04600	-159
0.04667	-159
0.04733	-159
0.04800	-159
0.04867	-159
0.04933	-159
0.05000	-159
0.05067	-159
0.05133	-159
0.05200	-159
0.05267	-159
0.05333	-159
0.05400	-159
0.05467	-159
0.05533	-158
0.05600	-158
0.05667	-158
0.05733	-158
0.05800	-158
0.05867	-158
0.05933	-158
0.06000	-158
0.06067	-157
0.06133	-157
0.06200	-157
0.06267	-157
0.06333	-157
0.06400	-157
0.06467	-156
0.06533	-156
0.06600	-156
0.06667	-156
0.06733	-155
0.06800	-155
0.06867	-155
0.06933	-155
0.07000	-154
0.07067	-154
0.07133	-153
0.07200	-153
0.07267	-153
0.07333	-152
0.07400	-152
0.07467	-152
0.07533	-151
0.07600	-151
0.07667	-150
0.07733	-150
0.07800	-149
0.07867	-149
0.07933	-148
0.08000	-148
0.08067	-147
0.08133	-146
0.08200	-146
0.08267	-145
0.08333	-145
0.08400	-145
0.08467	-144
0.08533	-144
0.08600	-143
0.08667	-141
0.08733	-136
0.08800	-127
0.08867	-110
0.08933	-84
0.09000	-33
0.09067	54
0.09133	171
0.09200	325
0.09267	508
0.09333	702
0.09400	926
0.09467	1195
0.09533	1524
0.09600	1940
0.09667	2470
0.09733	3079
0.09800	3741
0.09867	4447
0.09933	5211
0.10000	6038
0.10067	6888
0.10133	7816
0.10200	8775
0.10267	9780
0.10333	10823
0.10400	11873
0.10467	12958
0.10533	14110
0.10600	15277
0.10667	16489
0.10733	17779
0.10800	19098
0.10867	20420
0.10933	21795
0.11000	23226
0.11067	24646
0.11133	26000
0.11200	27298
0.11267	28547
0.11333	29772
0.11400	30958
0.11467	32123
0.11533	33266
0.11600	34393
0.11667	35476
0.11733	36566
0.11800	37674
0.11867	38755
0.11933	39804
0.12000	40782
0.12067	41667
0.12133	42480
0.12200	43238
0.12267	43936
0.12333	44571
0.12400	45126
0.12467	45596
0.12533	45979
0.12600	46287
0.12667	46528
0.12733	46707
0.12800	46889
0.12867	47053
0.12933	47158
0.13000	47202
0.13067	47185
0.13133	47121
0.13200	47022
0.13267	46911
0.13333	46793
0.13400	46733
0.13467	47019
0.13533	48617
0.13600	54125
0.13667	69135
0.13733	104683
0.13800	179615
0.13867	322293
0.13933	566775
0.14000	949048
0.14067	1501952
0.14133	2254579
0.14200	3229064
0.14267	4442585
0.14333	5906179
0.14400	7625631
0.14467	9602078
0.14533	11831562
0.14600	14300545
0.14667	17004760
0.14733	19963753
0.14800	23196422
0.14867	26701553
0.14933	30463178
0.15000	34455834
0.15067	38650833
0.15133	43019389
0.15200	47534774
0.15267	52172113
0.15333	56908643
0.15400	61723147
0.15467	66596095
0.15533	71509458
0.15600	76446468
0.15667	81391636
0.15733	86330345
0.15800	91248259
0.15867	96131635
0.15933	100966744
0.16000	105740376
0.16067	110439387
0.16133	115051637
0.16200	119565107
0.16267	123968564
0.16333	128250829
0.16400	132401491
0.16467	136410772
0.16533	140270058
0.16600	143971527
0.16667	147508423
0.16733	150875137
0.16800	154067030
0.16867	157080302
0.16933	159912046
0.17000	162560026
0.17067	165022709
0.17133	167300075
0.17200	169392593
0.17267	171301461
0.17333	173028177
0.17400	174574903
0.17467	175943897
0.17533	177137991
0.17600	178160252
0.17667	179014299
0.17733	179703847
0.17800	180232952
0.17867	180605771
0.17933	180826845
0.18000	180900770
0.18067	180832397
0.18133	180626724
0.18200	180288848
0.18267	179823847
0.18333	179237195
0.18400	178534911
0.18467	177723916
0.18533	176811759
0.18600	175805337
0.18667	174709854
0.18733	173528822
0.18800	172265034
0.18867	170921029
0.18933	169499622
0.19000	168003834
0.19067	166437107
0.19133	164803034
0.19200	163105544
0.19267	161348587
0.19333	159536277
0.19400	157672695
0.19467	155761910
0.19533	153807907
0.19600	151814627
0.19667	149785904
0.19733	147725478
0.19800	145636969
0.19867	143523857
0.19933	141389474
0.20000	139237034
0.20067	137069631
0.20133	134890212
0.20200	132701598
0.20267	130506457
0.20333	128307362
0.20400	126106745
0.20467	123906958
0.20533	121710194
0.20600	119518537
0.20667	117333940
0.20733	115158260
0.20800	112993226
0.20867	110840478
0.20933	108701544
0.21000	106577864
0.21067	104470771
0.21133	102381512
0.21200	100311240
0.21267	98261033
0.21333	96231883
0.21400	94224699
0.21467	92240322
0.21533	90279520
0.21600	88342996
0.21667	86431382
0.21733	84545256
0.21800	82685140
0.21867	80851513
0.21933	79044822
0.22000	77265511
0.22067	75514001
0.22133	73790626
0.22200	72095589
0.22267	70428967
0.22333	68790732
0.22400	67180805
0.22467	65599071
0.22533	64045405
0.22600	62519675
0.22667	61021748
0.22733	59551483
0.22800	58108734
0.22867	56693346
0.22933	55305154
0.23000	53943983
0.23067	52609644
0.23133	51301936
0.23200	50020641
0.23267	48765534
0.23333	47536370
0.23400	46332896
0.23467	45154845
0.23533	44001942
0.23600	42873898
0.23667	41770418
0.23733	40691193
0.23800	39635909
0.23867	38604243
0.23933	37595866
0.24000	36610445
0.24067	35647641
0.24133	34707111
0.24200	33788509
0.24267	32891486
0.24333	32015693
0.24400	31160778
0.24467	30326392
0.24533	29512181
0.24600	28717793
0.24667	27942876
0.24733	27187077
0.24800	26450042
0.24867	25731419
0.24933	25030856
0.25000	24348002
0.25067	23682506
0.25133	23034020
0.25200	22402196
0.25267	21786692
0.25333	21187165
0.25400	20603275
0.25467	20034686
0.25533	19481063
0.25600	18942077
0.25667	18417402
0.25733	17906717
0.25800	17409702
0.25867	16926044
0.25933	16455434
0.26000	15997565
0.26067	15552134
0.26133	15118845
0.26200	14697402
0.26267	14287517
0.26333	13888906
0.26400	13501287
0.26467	13124386
0.26533	12757932
0.26600	12401659
0.26667	12055306
0.26733	11718617
0.26800	11391343
0.26867	11073241
0.26933	10764069
0.27000	10463595
0.27067	10171590
0.27133	9887832
0.27200	9612103
0.27267	9344190
0.27333	9083888
0.27400	8830993
0.27467	8585309
0.27533	8346643
0.27600	8114806
0.27667	7889614
0.27733	7670887
0.27800	7458452
0.27867	7252140
0.27933	7051783
0.28000	6857221
0.28067	6668294
0.28133	6484848
0.28200	6306732
0.28267	6133798
0.28333	5965904
0.28400	5802909
0.28467	5644676
0.28533	5491073
0.28600	5341969
0.28667	5197236
0.28733	5056751
0.28800	4920394
0.28867	4788047
0.28933	4659598
0.29000	4534934
0.29067	4413949
0.29133	4296537
0.29200	4182595
0.29267	4072022
0.29333	3964721
0.29400	3860597
0.29467	3759558
0.29533	3661513
0.29600	3566376
0.29667	3474063
0.29733	3384491
0.29800	3297581
0.29867	3213253
0.29933	3131431
0.30000	3052043
0.30067	2975016
0.30133	2900281
0.30200	2827769
0.30267	2757414
0.30333	2689153
0.30400	2622921
0.30467	2558659
0.30533	2496308
0.30600	2435809
0.30667	2377107
0.30733	2320148
0.30800	2264879
0.30867	2211250
0.30933	2159210
0.31000	2108712
0.31067	2059709
0.31133	2012156
0.31200	1966009
0.31267	1921226
0.31333	1877765
0.31400	1835588
0.31467	1794657
0.31533	1754936
0.31600	1716387
0.31667	1678977
0.31733	1642672
0.31800	1607441
0.31867	1573252
0.31933	1540076
0.32000	1507885
0.32067	1476651
0.32133	1446349
0.32200	1416955
0.32267	1388446
0.32333	1360801
0.32400	1333999
0.32467	1308022
0.32533	1282852
0.32600	1258478
0.32667	1234887
0.32733	1212075
0.32800	1190041
0.32867	1168790
0.32933	1148336
0.33000	1128697
0.33067	1109900
0.33133	1091974
0.33200	1074956
0.33267	1058880
0.33333	1043787
0.33400	1029714
0.33467	1016700
0.33533	1004776
0.33600	993970
0.33667	984306
0.33733	975799
0.33800	968460
0.33867	962294
0.33933	957297
0.34000	953457
0.34067	950759
0.34133	949182
0.34200	948700
0.34267	949281
0.34333	950889
0.34400	953483
0.34467	957019
0.34533	961452
0.34600	966733
0.34667	972813
0.34733	979642
0.34800	987173
0.34867	995356
0.34933	1004144
0.35000	1013492
0.35067	1023354
0.35133	1033690
0.35200	1044455
0.35267	1055612
0.35333	1067124
0.35400	1078956
0.35467	1091074
0.35533	1103444
0.35600	1116035
0.35667	1128817
0.35733	1141764
0.35800	1154851
0.35867	1168055
0.35933	1181355
0.36000	1194734
0.36067	1208176
0.36133	1221670
0.36200	1235209
0.36267	1248790
0.36333	1262413
0.36400	1276080
0.36467	1289793
0.36533	1303556
0.36600	1317373
0.36667	1331248
0.36733	1345182
0.36800	1359175
0.36867	1373223
0.36933	1387318
0.37000	1401451
0.37067	1415610
0.37133	1429782
0.37200	1443949
0.37267	1458096
0.37333	1472210
0.37400	1486276
0.37467	1500284
0.37533	1514221
0.37600	1528079
0.37667	1541852
0.37733	1555537
0.37800	1569135
0.37867	1582647
0.37933	1596072
0.38000	1609409
0.38067	1622651
0.38133	1635784
0.38200	1648790
0.38267	1661643
0.38333	1674314
0.38400	1686771
0.38467	1698976
0.38533	1710889
0.38600	1722470
0.38667	1733673
0.38733	1744454
0.38800	1754758
0.38867	1764530
0.38933	1773707
0.39000	1782228
0.39067	1790025
0.39133	1797034
0.39200	1803187
0.39267	1808420
0.39333	1812665
0.39400	1815855
0.39467	1817932
0.39533	1818841
0.39600	1818533
0.39667	1816968
0.39733	1814118
0.39800	1809964
0.39867	1804500
0.39933	1797732
0.40000	1789678
0.40067	1780364
0.40133	1769829
0.40200	1758116
0.40267	1745278
0.40333	1731370
0.40400	1716450
0.40467	1700580
0.40533	1683823
0.40600	1666243
0.40667	1647902
0.40733	1628863
0.40800	1609188
0.40867	1588937
0.40933	1568168
0.41000	1546938
0.41067	1525300
0.41133	1503308
0.41200	1481010
0.41267	1458453
0.41333	1435684
0.41400	1412744
0.41467	1389674
0.41533	1366511
0.41600	1343291
0.41667	1320047
0.41733	1296811
0.41800	1273612
0.41867	1250477
0.41933	1227432
0.42000	1204500
0.42067	1181704
0.42133	1159062
0.42200	1136595
0.42267	1114319
0.42333	1092249
0.42400	1070401
0.42467	1048786
0.42533	1027418
0.42600	1006306
0.42667	985459
0.42733	964887
0.42800	944597
0.42867	924595
0.42933	904887
0.43000	885480
0.43067	866377
0.43133	847582
0.43200	829098
0.43267	810928
0.43333	793073
0.43400	775533
0.43467	758311
0.43533	741405
0.43600	724815
0.43667	708541
0.43733	692581
0.43800	676933
0.43867	661597
0.43933	646568
0.44000	631845
0.44067	617426
0.44133	603307
0.44200	589486
0.44267	575961
0.44333	562729
0.44400	549787
0.44467	537133
0.44533	524762
0.44600	512673
0.44667	500860
0.44733	489322
0.44800	478054
0.44867	467052
0.44933	456313
0.45000	445834
0.45067	435609
0.45133	425635
0.45200	415909
0.45267	406427
0.45333	397185
0.45400	388178
0.45467	379405
0.45533	370860
0.45600	362541
0.45667	354444
0.45733	346567
0.45800	338906
0.45867	331458
0.45933	324222
0.46000	317193
0.46067	310369
0.46133	303747
0.46200	297322
0.46267	291089
0.46333	285044
0.46400	279181
0.46467	273494
0.46533	267978
0.46600	262629
0.46667	257443
0.46733	252415
0.46800	247539
0.46867	242812
0.46933	238228
0.47000	233782
0.47067	229471
0.47133	225290
0.47200	221236
0.47267	217303
0.47333	213488
0.47400	209787
0.47467	206196
0.47533	202712
0.47600	199332
0.47667	196052
0.47733	192868
0.47800	189778
0.47867	186778
0.47933	183866
0.48000	181039
0.48067	178293
0.48133	175627
0.48200	173037
0.48267	170520
0.48333	168075
0.48400	165699
0.48467	163389
0.48533	161143
0.48600	158958
0.48667	156832
0.48733	154764
0.48800	152752
0.48867	150792
0.48933	148884
0.49000	147025
0.49067	145214
0.49133	143449
0.49200	141728
0.49267	140051
0.49333	138414
0.49400	136818
0.49467	135261
0.49533	133741
0.49600	132257
0.49667	130807
0.49733	129392
0.49800	128008
0.49867	126656
0.49933	125335
0.50000	124042
0.50067	122777
0.50133	121540
0.50200	120329
0.50267	119143
0.50333	117982
0.50400	116844
0.50467	115729
0.50533	114636
0.50600	113565
0.50667	112514
0.50733	111483
0.50800	110471
0.50867	109479
0.50933	108504
0.51000	107546
0.51067	106606
0.51133	105682
0.51200	104774
0.51267	103882
0.51333	103004
0.51400	102141
0.51467	101292
0.51533	100456
0.51600	99634
0.51667	98825
0.51733	98028
0.51800	97243
0.51867	96469
0.51933	95707
0.52000	94957
0.52067	94216
0.52133	93487
0.52200	92767
0.52267	92057
0.52333	91357
0.52400	90666
0.52467	89985
0.52533	89312
0.52600	88648
0.52667	87992
0.52733	87345
0.52800	86705
0.52867	86074
0.52933	85450
0.53000	84834
0.53067	84226
0.53133	83624
0.53200	83029
0.53267	82441
0.53333	81860
0.53400	81286
0.53467	80717
0.53533	80155
0.53600	79599
0.53667	79050
0.53733	78506
0.53800	77968
0.53867	77435
0.53933	76908
0.54000	76387
0.54067	75871
0.54133	75360
0.54200	74855
0.54267	74354
0.54333	73859
0.54400	73368
0.54467	72882
0.54533	72401
0.54600	71925
0.54667	71453
0.54733	70986
0.54800	70524
0.54867	70066
0.54933	69612
0.55000	69163
0.55067	68718
0.55133	68278
0.55200	67841
0.55267	67409
0.55333	66981
0.55400	66558
0.55467	66138
0.55533	65723
0.55600	65312
0.55667	64904
0.55733	64501
0.55800	64102
0.55867	63706
0.55933	63315
0.56000	62928
0.56067	62544
0.56133	62164
0.56200	61788
0.56267	61415
0.56333	61046
0.56400	60681
0.56467	60319
0.56533	59961
0.56600	59605
0.56667	59254
0.56733	58905
0.56800	58560
0.56867	58219
0.56933	57880
0.57000	57545
0.57067	57212
0.57133	56883
0.57200	56557
0.57267	56233
0.57333	55912
0.57400	55594
0.57467	55279
0.57533	54967
0.57600	54657
0.57667	54349
0.57733	54044
0.57800	53742
0.57867	53441
0.57933	53144
0.58000	52848
0.58067	52555
0.58133	52264
0.58200	51976
0.58267	51689
0.58333	51405
0.58400	51124
0.58467	50844
0.58533	50567
0.58600	50292
0.58667	50018
0.58733	49748
0.58800	49479
0.58867	49212
0.58933	48948
0.59000	48686
0.59067	48426
0.59133	48168
0.59200	47912
0.59267	47658
0.59333	47407
0.59400	47157
0.59467	46910
0.59533	46664
0.59600	46421
0.59667	46180
0.59733	45941
0.59800	45703
0.59867	45468
0.59933	45235
0.60000	45005
0.60067	44776
0.60133	44549
0.60200	44325
0.60267	44102
0.60333	43882
0.60400	43664
0.60467	43448
0.60533	43235
0.60600	43024
0.60667	42816
0.60733	42610
0.60800	42406
0.60867	42206
0.60933	42009
0.61000	41814
0.61067	41623
0.61133	41435
0.61200	41251
0.61267	41070
0.61333	40894
0.61400	40721
0.61467	40553
0.61533	40389
0.61600	40230
0.61667	40074
0.61733	39923
0.61800	39777
0.61867	39634
0.61933	39496
0.62000	39361
0.62067	39230
0.62133	39102
0.62200	38978
0.62267	38856
0.62333	38736
0.62400	38618
0.62467	38502
0.62533	38387
0.62600	38273
0.62667	38159
0.62733	38045
0.62800	37931
0.62867	37817
0.62933	37702
0.63000	37586
0.63067	37469
0.63133	37351
0.63200	37231
0.63267	37111
0.63333	36989
0.63400	36865
0.63467	36740
0.63533	36614
0.63600	36486
0.63667	36358
0.63733	36228
0.63800	36097
0.63867	35965
0.63933	35832
0.64000	35698
0.64067	35564
0.64133	35429
0.64200	35293
0.64267	35157
0.64333	35021
0.64400	34884
0.64467	34748
0.64533	34611
0.64600	34474
0.64667	34337
0.64733	34201
0.64800	34064
0.64867	33928
0.64933	33792
0.65000	33656
0.65067	33521
0.65133	33386
0.65200	33251
0.65267	33116
0.65333	32981
0.65400	32847
0.65467	32713
0.65533	32579
0.65600	32446
0.65667	32313
0.65733	32180
0.65800	32047
0.65867	31915
0.65933	31783
0.66000	31651
0.66067	31519
0.66133	31388
0.66200	31257
0.66267	31126
0.66333	30995
0.66400	30865
0.66467	30735
0.66533	30606
0.66600	30477
0.66667	30348
0.66733	30220
0.66800	30092
0.66867	29965
0.66933	29838
0.67000	29711
0.67067	29585
0.67133	29460
0.67200	29335
0.67267	29211
0.67333	29087
0.67400	28964
0.67467	28842
0.67533	28721
0.67600	28600
0.67667	28480
0.67733	28361
0.67800	28243
0.67867	28125
0.67933	28009
0.68000	27893
0.68067	27779
0.68133	27666
0.68200	27553
0.68267	27442
0.68333	27332
0.68400	27224
0.68467	27117
0.68533	27012
0.68600	26908
0.68667	26806
0.68733	26705
0.68800	26607
0.68867	26511
0.68933	26417
0.69000	26325
0.69067	26236
0.69133	26150
0.69200	26067
0.69267	25986
0.69333	25909
0.69400	25836
0.69467	25766
0.69533	25699
0.69600	25636
0.69667	25578
0.69733	25522
0.69800	25471
0.69867	25424
0.69933	25380
0.70000	25340
0.70067	25304
0.70133	25271
0.70200	25241
0.70267	25214
0.70333	25189
0.70400	25166
0.70467	25145
0.70533	25125
0.70600	25105
0.70667	25087
0.70733	25068
0.70800	25049
0.70867	25029
0.70933	25007
0.71000	24985
0.71067	24961
0.71133	24935
0.71200	24907
0.71267	24876
0.71333	24843
0.71400	24807
0.71467	24769
0.71533	24728
0.71600	24684
0.71667	24638
0.71733	24588
0.71800	24537
0.71867	24482
0.71933	24425
0.72000	24366
0.72067	24305
0.72133	24241
0.72200	24175
0.72267	24108
0.72333	24039
0.72400	23968
0.72467	23895
0.72533	23822
0.72600	23747
0.72667	23670
0.72733	23593
0.72800	23515
0.72867	23436
0.72933	23356
0.73000	23275
0.73067	23195
0.73133	23113
0.73200	23031
0.73267	22949
0.73333	22867
0.73400	22785
0.73467	22702
0.73533	22620
0.73600	22538
0.73667	22455
0.73733	22373
0.73800	22291
0.73867	22209
0.73933	22127
0.74000	22045
0.74067	21964
0.74133	21883
0.74200	21803
0.74267	21722
0.74333	21643
0.74400	21563
0.74467	21484
0.74533	21405
0.74600	21327
0.74667	21250
0.74733	21172
0.74800	21096
0.74867	21020
0.74933	20944
0.75000	20869
0.75067	20794
0.75133	20720
0.75200	20646
0.75267	20573
0.75333	20501
0.75400	20429
0.75467	20358
0.75533	20287
0.75600	20217
0.75667	20147
0.75733	20078
0.75800	20009
0.75867	19941
0.75933	19874
0.76000	19807
0.76067	19740
0.76133	19675
0.76200	19610
0.76267	19545
0.76333	19481
0.76400	19417
0.76467	19355
0.76533	19292
0.76600	19231
0.76667	19170
0.76733	19110
0.76800	19050
0.76867	18990
0.76933	18932
0.77000	18874
0.77067	18816
0.77133	18759
0.77200	18702
0.77267	18646
0.77333	18591
0.77400	18536
0.77467	18482
0.77533	18428
0.77600	18374
0.77667	18321
0.77733	18269
0.77800	18217
0.77867	18165
0.77933	18114
0.78000	18064
0.78067	18013
0.78133	17964
0.78200	17914
0.78267	17865
0.78333	17817
0.78400	17769
0.78467	17721
0.78533	17674
0.78600	17627
0.78667	17581
0.78733	17535
0.78800	17489
0.78867	17444
0.78933	17399
0.79000	17354
0.79067	17310
0.79133	17266
0.79200	17223
0.79267	17179
0.79333	17137
0.79400	17094
0.79467	17052
0.79533	17011
0.79600	16969
0.79667	16928
0.79733	16888
0.79800	16848
0.79867	16808
0.79933	16768
0.80000	16729
0.80067	16690
0.80133	16651
0.80200	16613
0.80267	16575
0.80333	16537
0.80400	16499
0.80467	16462
0.80533	16425
0.80600	16388
0.80667	16352
0.80733	16316
0.80800	16280
0.80867	16244
0.80933	16209
0.81000	16174
0.81067	16139
0.81133	16105
0.81200	16071
0.81267	16037
0.81333	16003
0.81400	15970
0.81467	15937
0.81533	15905
0.81600	15873
0.81667	15841
0.81733	15810
0.81800	15779
0.81867	15748
0.81933	15718
0.82000	15688
0.82067	15658
0.82133	15629
0.82200	15600
0.82267	15571
0.82333	15542
0.82400	15514
0.82467	15486
0.82533	15458
0.82600	15430
0.82667	15403
0.82733	15376
0.82800	15349
0.82867	15322
0.82933	15295
0.83000	15269
0.83067	15243
0.83133	15216
0.83200	15190
0.83267	15165
0.83333	15139
0.83400	15113
0.83467	15088
0.83533	15063
0.83600	15038
0.83667	15013
0.83733	14988
0.83800	14963
0.83867	14938
0.83933	14914
0.84000	14889
0.84067	14865
0.84133	14840
0.84200	14816
0.84267	14792
0.84333	14768
0.84400	14744
0.84467	14720
0.84533	14696
0.84600	14673
0.84667	14649
0.84733	14625
0.84800	14602
0.84867	14578
0.84933	14555
0.85000	14532
0.85067	14509
0.85133	14485
0.85200	14462
0.85267	14439
0.85333	14416
0.85400	14393
0.85467	14370
0.85533	14347
0.85600	14324
0.85667	14301
0.85733	14279
0.85800	14256
0.85867	14233
0.85933	14210
0.86000	14188
0.86067	14165
0.86133	14142
0.86200	14120
0.86267	14097
0.86333	14075
0.86400	14053
0.86467	14030
0.86533	14008
0.86600	13986
0.86667	13963
0.86733	13941
0.86800	13919
0.86867	13897
0.86933	13875
0.87000	13853
0.87067	13831
0.87133	13809
0.87200	13787
0.87267	13766
0.87333	13744
0.87400	13722
0.87467	13701
0.87533	13679
0.87600	13658
0.87667	13636
0.87733	13615
0.87800	13594
0.87867	13573
0.87933	13552
0.88000	13531
0.88067	13510
0.88133	13490
0.88200	13469
0.88267	13449
0.88333	13428
0.88400	13408
0.88467	13388
0.88533	13367
0.88600	13347
0.88667	13328
0.88733	13308
0.88800	13288
0.88867	13269
0.88933	13249
0.89000	13230
0.89067	13211
0.89133	13192
0.89200	13173
0.89267	13154
0.89333	13135
0.89400	13117
0.89467	13098
0.89533	13080
0.89600	13062
0.89667	13043
0.89733	13025
0.89800	13007
0.89867	12989
0.89933	12972
0.90000	12954
0.90067	12936
0.90133	12919
0.90200	12902
0.90267	12884
0.90333	12867
0.90400	12850
0.90467	12833
0.90533	12816
0.90600	12799
0.90667	12782
0.90733	12766
0.90800	12749
0.90867	12732
0.90933	12716
0.91000	12700
0.91067	12683
0.91133	12667
0.91200	12651
0.91267	12634
0.91333	12618
0.91400	12602
0.91467	12586
0.91533	12571
0.91600	12555
0.91667	12539
0.91733	12523
0.91800	12508
0.91867	12492
0.91933	12477
0.92000	12461
0.92067	12446
0.92133	12430
0.92200	12415
0.92267	12400
0.92333	12384
0.92400	12369
0.92467	12354
0.92533	12339
0.92600	12324
0.92667	12309
0.92733	12294
0.92800	12279
0.92867	12265
0.92933	12250
0.93000	12235
0.93067	12221
0.93133	12206
0.93200	12192
0.93267	12177
0.93333	12163
0.93400	12149
0.93467	12135
0.93533	12120
0.93600	12106
0.93667	12092
0.93733	12078
0.93800	12064
0.93867	12050
0.93933	12036
0.94000	12022
0.94067	12008
0.94133	11994
0.94200	11980
0.94267	11967
0.94333	11953
0.94400	11939
0.94467	11925
0.94533	11911
0.94600	11898
0.94667	11884
0.94733	11870
0.94800	11856
0.94867	11843
0.94933	11829
0.95000	11815
0.95067	11802
0.95133	11788
0.95200	11774
0.95267	11761
0.95333	11748
0.95400	11734
0.95467	11721
0.95533	11708
0.95600	11694
0.95667	11681
0.95733	11668
0.95800	11655
0.95867	11642
0.95933	11630
0.96000	11617
0.96067	11605
0.96133	11592
0.96200	11580
0.96267	11568
0.96333	11556
0.96400	11544
0.96467	11533
0.96533	11521
0.96600	11510
0.96667	11498
0.96733	11487
0.96800	11476
0.96867	11465
0.96933	11454
0.97000	11443
0.97067	11432
0.97133	11421
0.97200	11411
0.97267	11400
0.97333	11389
0.97400	11378
0.97467	11367
0.97533	11356
0.97600	11345
0.97667	11333
0.97733	11322
0.97800	11311
0.97867	11299
0.97933	11287
0.98000	11276
0.98067	11264
0.98133	11252
0.98200	11240
0.98267	11228
0.98333	11215
0.98400	11203
0.98467	11190
0.98533	11178
0.98600	11165
0.98667	11152
0.98733	11140
0.98800	11127
0.98867	11114
0.98933	11101
0.99000	11087
0.99067	11074
0.99133	11061
0.99200	11048
0.99267	11035
0.99333	11022
0.99400	11008
0.99467	10995
0.99533	10982
0.99600	10969
0.99667	10955
0.99733	10942
0.99800	10929
0.99867	10916
0.99933	10902
1.00000	10889
1.00067	10876
1.00133	10863
1.00200	10850
1.00267	10837
1.00333	10824
1.00400	10811
1.00467	10797
1.00533	10784
1.00600	10771
1.00667	10758
1.00733	10745
1.00800	10732
1.00867	10719
1.00933	10707
1.01000	10694
1.01067	10681
1.01133	10669
1.01200	10656
1.01267	10644
1.01333	10631
1.01400	10619
1.01467	10607
1.01533	10595
1.01600	10583
1.01667	10571
1.01733	10559
1.01800	10547
1.01867	10535
1.01933	10524
1.02000	10512
1.02067	10501
1.02133	10489
1.02200	10478
1.02267	10467
1.02333	10456
1.02400	10445
1.02467	10434
1.02533	10423
1.02600	10413
1.02667	10403
1.02733	10392
1.02800	10382
1.02867	10372
1.02933	10362
1.03000	10352
1.03067	10342
1.03133	10332
1.03200	10323
1.03267	10313
1.03333	10303
1.03400	10294
1.03467	10284
1.03533	10275
1.03600	10265
1.03667	10255
1.03733	10246
1.03800	10236
1.03867	10227
1.03933	10217
1.04000	10208
1.04067	10198
1.04133	10189
1.04200	10180
1.04267	10170
1.04333	10161
1.04400	10151
1.04467	10142
1.04533	10133
1.04600	10123
1.04667	10114
1.04733	10105
1.04800	10095
1.04867	10086
1.04933	10077
1.05000	10067
1.05067	10058
1.05133	10049
1.05200	10040
1.05267	10031
1.05333	10022
1.05400	10012
1.05467	10003
1.05533	9994
1.05600	9985
1.05667	9976
1.05733	9967
1.05800	9959
1.05867	9950
1.05933	9941
1.06000	9932
1.06067	9924
1.06133	9915
1.06200	9906
1.06267	9898
1.06333	9889
1.06400	9881
1.06467	9872
1.06533	9864
1.06600	9856
1.06667	9847
1.06733	9839
1.06800	9831
1.06867	9822
1.06933	9814
1.07000	9806
1.07067	9798
1.07133	9790
1.07200	9782
1.07267	9773
1.07333	9765
1.07400	9757
1.07467	9749
1.07533	9741
1.07600	9733
1.07667	9724
1.07733	9716
1.07800	9708
1.07867	9700
1.07933	9692
1.08000	9684
1.08067	9675
1.08133	9667
1.08200	9659
1.08267	9651
1.08333	9643
1.08400	9635
1.08467	9627
1.08533	9619
1.08600	9611
1.08667	9603
1.08733	9595
1.08800	9587
1.08867	9579
1.08933	9571
1.09000	9563
1.09067	9555
1.09133	9547
1.09200	9539
1.09267	9531
1.09333	9524
1.09400	9516
1.09467	9508
1.09533	9500
1.09600	9492
1.09667	9484
1.09733	9477
1.09800	9469
1.09867	9461
1.09933	9453
1.10000	9446
1.10067	9438
1.10133	9430
1.10200	9422
1.10267	9415
1.10333	9407
1.10400	9399
1.10467	9392
1.10533	9384
1.10600	9376
1.10667	9369
1.10733	9361
1.10800	9353
1.10867	9346
1.10933	9338
1.11000	9330
1.11067	9323
1.11133	9315
1.11200	9308
1.11267	9301
1.11333	9293
1.11400	9286
1.11467	9279
1.11533	9271
1.11600	9264
1.11667	9257
1.11733	9250
1.11800	9243
1.11867	9237
1.11933	9230
1.12000	9224
1.12067	9217
1.12133	9211
1.12200	9205
1.12267	9199
1.12333	9193
1.12400	9187
1.12467	9182
1.12533	9177
1.12600	9172
1.12667	9167
1.12733	9162
1.12800	9157
1.12867	9153
1.12933	9149
1.13000	9145
1.13067	9141
1.13133	9137
1.13200	9134
1.13267	9131
1.13333	9127
1.13400	9125
1.13467	9122
1.13533	9119
1.13600	9117
1.13667	9115
1.13733	9112
1.13800	9110
1.13867	9108
1.13933	9106
1.14000	9104
1.14067	9102
1.14133	9100
1.14200	9099
1.14267	9097
1.14333	9095
1.14400	9093
1.14467	9091
1.14533	9089
1.14600	9087
1.14667	9085
1.14733	9083
1.14800	9081
1.14867	9078
1.14933	9076
1.15000	9073
1.15067	9070
1.15133	9067
1.15200	9064
1.15267	9061
1.15333	9058
1.15400	9054
1.15467	9051
1.15533	9047
1.15600	9043
1.15667	9039
1.15733	9035
1.15800	9030
1.15867	9026
1.15933	9021
1.16000	9016
1.16067	9011
1.16133	9006
1.16200	9001
1.16267	8996
1.16333	8990
1.16400	8985
1.16467	8979
1.16533	8973
1.16600	8968
1.16667	8962
1.16733	8956
1.16800	8950
1.16867	8943
1.16933	8937
1.17000	8931
1.17067	8925
1.17133	8918
1.17200	8912
1.17267	8905
1.17333	8899
1.17400	8892
1.17467	8885
1.17533	8879
1.17600	8872
1.17667	8865
1.17733	8858
1.17800	8852
1.17867	8845
1.17933	8838
1.18000	8832
1.18067	8825
1.18133	8819
1.18200	8812
1.18267	8805
1.18333	8799
1.18400	8792
1.18467	8786
1.18533	8779
1.18600	8773
1.18667	8767
1.18733	8760
1.18800	8754
1.18867	8748
1.18933	8741
1.19000	8735
1.19067	8729
1.19133	8723
1.19200	8717
1.19267	8711
1.19333	8705
1.19400	8699
1.19467	8693
1.19533	8687
1.19600	8681
1.19667	8676
1.19733	8670
1.19800	8665
1.19867	8659
1.19933	8654
1.20000	8648
1.20067	8643
1.20133	8638
1.20200	8633
1.20267	8628
1.20333	8623
1.20400	8618
1.20467	8613
1.20533	8608
1.20600	8604
1.20667	8599
1.20733	8594
1.20800	8590
1.20867	8585
1.20933	8581
1.21000	8577
1.21067	8572
1.21133	8568
1.21200	8564
1.21267	8560
1.21333	8556
1.21400	8552
1.21467	8548
1.21533	8544
1.21600	8541
1.21667	8537
1.21733	8534
1.21800	8530
1.21867	8527
1.21933	8524
1.22000	8520
1.22067	8517
1.22133	8514
1.22200	8511
1.22267	8508
1.22333	8506
1.22400	8503
1.22467	8500
1.22533	8498
1.22600	8495
1.22667	8493
1.22733	8491
1.22800	8489
1.22867	8486
1.22933	8484
1.23000	8482
1.23067	8480
1.23133	8478
1.23200	8476
1.23267	8475
1.23333	8473
1.23400	8471
1.23467	8469
1.23533	8468
1.23600	8466
1.23667	8465
1.23733	8463
1.23800	8462
1.23867	8460
1.23933	8459
1.24000	8458
1.24067	8456
1.24133	8455
1.24200	8453
1.24267	8452
1.24333	8451
1.24400	8450
1.24467	8448
1.24533	8447
1.24600	8446
1.24667	8445
1.24733	8444
1.24800	8443
1.24867	8442
1.24933	8441
1.25000	8440
1.25067	8440
1.25133	8439
1.25200	8438
1.25267	8438
1.25333	8437
1.25400	8437
1.25467	8437
1.25533	8437
1.25600	8436
1.25667	8436
1.25733	8436
1.25800	8437
1.25867	8437
1.25933	8437
1.26000	8437
1.26067	8437
1.26133	8437
1.26200	8438
1.26267	8438
1.26333	8438
1.26400	8439
1.26467	8439
1.26533	8440
1.26600	8441
1.26667	8441
1.26733	8442
1.26800	8443
1.26867	8444
1.26933	8445
1.27000	8446
1.27067	8448
1.27133	8449
1.27200	8451
1.27267	8453
1.27333	8455
1.27400	8457
1.27467	8460
1.27533	8462
1.27600	8466
1.27667	8469
1.27733	8473
1.27800	8477
1.27867	8481
1.27933	8486
1.28000	8491
1.28067	8496
1.28133	8501
1.28200	8507
1.28267	8513
1.28333	8520
1.28400	8526
1.28467	8533
1.28533	8540
1.28600	8547
1.28667	8554
1.28733	8562
1.28800	8569
1.28867	8576
1.28933	8583
1.29000	8590
1.29067	8598
1.29133	8605
1.29200	8611
1.29267	8618
1.29333	8624
1.29400	8631
1.29467	8637
1.29533	8642
1.29600	8648
1.29667	8653
1.29733	8658
1.29800	8662
1.29867	8667
1.29933	8670
1.30000	8674
1.30067	8677
1.30133	8680
1.30200	8683
1.30267	8685
1.30333	8686
1.30400	8688
1.30467	8689
1.30533	8690
1.30600	8690
1.30667	8691
1.30733	8690
1.30800	8690
1.30867	8689
1.30933	8688
1.31000	8687
1.31067	8685
1.31133	8684
1.31200	8682
1.31267	8679
1.31333	8677
1.31400	8674
1.31467	8671
1.31533	8668
1.31600	8664
1.31667	8661
1.31733	8657
1.31800	8653
1.31867	8649
1.31933	8644
1.32000	8640
1.32067	8635
1.32133	8630
1.32200	8625
1.32267	8620
1.32333	8615
1.32400	8609
1.32467	8604
1.32533	8598
1.32600	8592
1.32667	8586
1.32733	8580
1.32800	8574
1.32867	8568
1.32933	8561
1.33000	8555
1.33067	8548
1.33133	8542
1.33200	8535
1.33267	8528
1.33333	8521
1.33400	8514
1.33467	8507
1.33533	8500
1.33600	8492
1.33667	8485
1.33733	8478
1.33800	8470
1.33867	8463
1.33933	8455
1.34000	8447
1.34067	8439
1.34133	8432
1.34200	8424
1.34267	8416
1.34333	8408
1.34400	8400
1.34467	8392
1.34533	8384
1.34600	8376
1.34667	8368
1.34733	8360
1.34800	8352
1.34867	8343
1.34933	8335
1.35000	8327
1.35067	8319
1.35133	8311
1.35200	8303
1.35267	8295
1.35333	8287
1.35400	8279
1.35467	8272
1.35533	8264
1.35600	8256
1.35667	8249
1.35733	8242
1.35800	8234
1.35867	8227
1.35933	8220
1.36000	8212
1.36067	8205
1.36133	8198
1.36200	8191
1.36267	8184
1.36333	8177
1.36400	8170
1.36467	8164
1.36533	8157
1.36600	8150
1.36667	8144
1.36733	8137
1.36800	8131
1.36867	8125
1.36933	8118
1.37000	8112
1.37067	8106
1.37133	8100
1.37200	8095
1.37267	8089
1.37333	8083
1.37400	8078
1.37467	8072
1.37533	8067
1.37600	8062
1.37667	8057
1.37733	8052
1.37800	8047
1.37867	8042
1.37933	8037
1.38000	8032
1.38067	8027
1.38133	8022
1.38200	8017
1.38267	8013
1.38333	8008
1.38400	8003
1.38467	7998
1.38533	7994
1.38600	7989
1.38667	7985
1.38733	7980
1.38800	7975
1.38867	7971
1.38933	7966
1.39000	7962
1.39067	7958
1.39133	7953
1.39200	7949
1.39267	7944
1.39333	7940
1.39400	7935
1.39467	7930
1.39533	7926
1.39600	7921
1.39667	7917
1.39733	7912
1.39800	7908
1.39867	7904
1.39933	7899
1.40000	7895
1.40067	7890
1.40133	7886
1.40200	7881
1.40267	7877
1.40333	7872
1.40400	7868
1.40467	7864
1.40533	7859
1.40600	7855
1.40667	7850
1.40733	7846
1.40800	7842
1.40867	7837
1.40933	7833
1.41000	7828
1.41067	7824
1.41133	7820
1.41200	7815
1.41267	7811
1.41333	7807
1.41400	7802
1.41467	7798
1.41533	7794
1.41600	7789
1.41667	7785
1.41733	7781
1.41800	7777
1.41867	7773
1.41933	7768
1.42000	7764
1.42067	7760
1.42133	7756
1.42200	7752
1.42267	7748
1.42333	7744
1.42400	7739
1.42467	7736
1.42533	7732
1.42600	7728
1.42667	7724
1.42733	7720
1.42800	7716
1.42867	7712
1.42933	7708
1.43000	7704
1.43067	7701
1.43133	7697
1.43200	7693
1.43267	7689
1.43333	7686
1.43400	7682
1.43467	7678
1.43533	7675
1.43600	7671
1.43667	7667
1.43733	7664
1.43800	7660
1.43867	7656
1.43933	7653
1.44000	7649
1.44067	7645
1.44133	7642
1.44200	7638
1.44267	7634
1.44333	7630
1.44400	7627
1.44467	7623
1.44533	7619
1.44600	7616
1.44667	7612
1.44733	7608
1.44800	7605
1.44867	7601
1.44933	7597
1.45000	7594
1.45067	7590
1.45133	7586
1.45200	7583
1.45267	7579
1.45333	7576
1.45400	7572
1.45467	7569
1.45533	7565
1.45600	7562
1.45667	7558
1.45733	7555
1.45800	7552
1.45867	7549
1.45933	7545
1.46000	7542
1.46067	7539
1.46133	7536
1.46200	7533
1.46267	7530
1.46333	7527
1.46400	7524
1.46467	7521
1.46533	7518
1.46600	7516
1.46667	7513
1.46733	7510
1.46800	7507
1.46867	7505
1.46933	7502
1.47000	7499
1.47067	7497
1.47133	7494
1.47200	7492
1.47267	7489
1.47333	7487
1.47400	7484
1.47467	7482
1.47533	7479
1.47600	7477
1.47667	7474
1.47733	7472
1.47800	7469
1.47867	7467
1.47933	7465
1.48000	7462
1.48067	7460
1.48133	7457
1.48200	7455
1.48267	7453
1.48333	7451
1.48400	7448
1.48467	7446
1.48533	7443
1.48600	7441
1.48667	7439
1.48733	7436
1.48800	7434
1.48867	7431
1.48933	7429
1.49000	7427
1.49067	7424
1.49133	7422
1.49200	7419
1.49267	7417
1.49333	7414
1.49400	7412
1.49467	7409
1.49533	7407
1.49600	7404
1.49667	7402
1.49733	7399
1.49800	7397
1.49867	7394
1.49933	7392
1.50000	7389
1.50067	7387
1.50133	7384
1.50200	7381
1.50267	7379
1.50333	7376
1.50400	7374
1.50467	7371
1.50533	7369
1.50600	7366
1.50667	7364
1.50733	7361
1.50800	7359
1.50867	7356
1.50933	7354
1.51000	7351
1.51067	7349
1.51133	7346
1.51200	7344
1.51267	7341
1.51333	7339
1.51400	7337
1.51467	7334
1.51533	7332
1.51600	7330
1.51667	7328
1.51733	7326
1.51800	7324
1.51867	7322
1.51933	7320
1.52000	7318
1.52067	7316
1.52133	7313
1.52200	7311
1.52267	7309
1.52333	7307
1.52400	7305
1.52467	7303
1.52533	7301
1.52600	7299
1.52667	7296
1.52733	7294
1.52800	7292
1.52867	7290
1.52933	7288
1.53000	7285
1.53067	7283
1.53133	7281
1.53200	7279
1.53267	7276
1.53333	7274
1.53400	7272
1.53467	7269
1.53533	7267
1.53600	7265
1.53667	7262
1.53733	7260
1.53800	7258
1.53867	7255
1.53933	7253
1.54000	7251
1.54067	7248
1.54133	7246
1.54200	7244
1.54267	7242
1.54333	7239
1.54400	7237
1.54467	7235
1.54533	7233
1.54600	7231
1.54667	7229
1.54733	7226
1.54800	7224
1.54867	7222
1.54933	7220
1.55000	7218
1.55067	7216
1.55133	7214
1.55200	7212
1.55267	7210
1.55333	7209
1.55400	7207
1.55467	7205
1.55533	7203
1.55600	7201
1.55667	7199
1.55733	7198
1.55800	7196
1.55867	7194
1.55933	7192
1.56000	7190
1.56067	7189
1.56133	7187
1.56200	7185
1.56267	7183
1.56333	7182
1.56400	7180
1.56467	7178
1.56533	7176
1.56600	7175
1.56667	7173
1.56733	7171
1.56800	7169
1.56867	7167
1.56933	7165
1.57000	7163
1.57067	7161
1.57133	7159
1.57200	7157
1.57267	7155
1.57333	7153
1.57400	7152
1.57467	7150
1.57533	7148
1.57600	7146
1.57667	7144
1.57733	7142
1.57800	7140
1.57867	7138
1.57933	7137
1.58000	7135
1.58067	7133
1.58133	7131
1.58200	7129
1.58267	7128
1.58333	7126
1.58400	7124
1.58467	7123
1.58533	7121
1.58600	7119
1.58667	7118
1.58733	7116
1.58800	7114
1.58867	7113
1.58933	7111
1.59000	7110
1.59067	7108
1.59133	7107
1.59200	7105
1.59267	7104
1.59333	7102
1.59400	7101
1.59467	7099
1.59533	7098
1.59600	7096
1.59667	7095
1.59733	7093
1.59800	7092
1.59867	7090
1.59933	7089
1.60000	7088
1.60067	7086
1.60133	7085
1.60200	7084
1.60267	7082
1.60333	7081
1.60400	7080
1.60467	7078
1.60533	7077
1.60600	7075
1.60667	7074
1.60733	7073
1.60800	7071
1.60867	7070
1.60933	7069
1.61000	7067
1.61067	7066
1.61133	7064
1.61200	7063
1.61267	7061
1.61333	7060
1.61400	7058
1.61467	7057
1.61533	7055
1.61600	7054
1.61667	7052
1.61733	7051
1.61800	7049
1.61867	7048
1.61933	7046
1.62000	7044
1.62067	7043
1.62133	7041
1.62200	7039
1.62267	7038
1.62333	7036
1.62400	7034
1.62467	7032
1.62533	7031
1.62600	7029
1.62667	7027
1.62733	7025
1.62800	7024
1.62867	7022
1.62933	7020
1.63000	7019
1.63067	7017
1.63133	7015
1.63200	7013
1.63267	7012
1.63333	7010
1.63400	7009
1.63467	7007
1.63533	7005
1.63600	7004
1.63667	7002
1.63733	7001
1.63800	7000
1.63867	6998
1.63933	6997
1.64000	6996
1.64067	6994
1.64133	6993
1.64200	6992
1.64267	6991
1.64333	6990
1.64400	6989
1.64467	6988
1.64533	6986
1.64600	6985
1.64667	6984
1.64733	6983
1.64800	6982
1.64867	6981
1.64933	6980
1.65000	6979
1.65067	6978
1.65133	6977
1.65200	6976
1.65267	6975
1.65333	6974
1.65400	6973
1.65467	6972
1.65533	6971
1.65600	6970
1.65667	6970
1.65733	6969
1.65800	6968
1.65867	6966
1.65933	6965
1.66000	6964
1.66067	6963
1.66133	6962
1.66200	6961
1.66267	6960
1.66333	6959
1.66400	6958
1.66467	6957
1.66533	6955
1.66600	6954
1.66667	6953
1.66733	6951
1.66800	6950
1.66867	6949
1.66933	6947
1.67000	6946
1.67067	6944
1.67133	6943
1.67200	6941
1.67267	6940
1.67333	6938
1.67400	6937
1.67467	6935
1.67533	6934
1.67600	6932
1.67667	6931
1.67733	6929
1.67800	6928
1.67867	6926
1.67933	6925
1.68000	6924
1.68067	6922
1.68133	6921
1.68200	6919
1.68267	6917
1.68333	6916
1.68400	6914
1.68467	6913
1.68533	6912
1.68600	6910
1.68667	6909
1.68733	6908
1.68800	6906
1.68867	6905
1.68933	6904
1.69000	6903
1.69067	6902
1.69133	6900
1.69200	6899
1.69267	6898
1.69333	6897
1.69400	6896
1.69467	6894
1.69533	6893
1.69600	6892
1.69667	6890
1.69733	6889
1.69800	6888
1.69867	6886
1.69933	6885
1.70000	6883
1.70067	6882
1.70133	6880
1.70200	6879
1.70267	6877
1.70333	6876
1.70400	6874
1.70467	6872
1.70533	6871
1.70600	6869
1.70667	6868
1.70733	6866
1.70800	6864
1.70867	6863
1.70933	6861
1.71000	6860
1.71067	6858
1.71133	6857
1.71200	6856
1.71267	6854
1.71333	6853
1.71400	6852
1.71467	6852
1.71533	6851
1.71600	6851
1.71667	6851
1.71733	6851
1.71800	6852
1.71867	6854
1.71933	6856
1.72000	6860
1.72067	6865
1.72133	6871
1.72200	6879
1.72267	6890
1.72333	6904
1.72400	6921
1.72467	6942
1.72533	6968
1.72600	7000
1.72667	7039
1.72733	7086
1.72800	7142
1.72867	7211
1.72933	7292
1.73000	7390
1.73067	7506
1.73133	7643
1.73200	7805
1.73267	7995
1.73333	8218
1.73400	8478
1.73467	8780
1.73533	9130
1.73600	9533
1.73667	9997
1.73733	10528
1.73800	11134
1.73867	11824
1.73933	12605
1.74000	13488
1.74067	14481
1.74133	15595
1.74200	16842
1.74267	18230
1.74333	19772
1.74400	21478
1.74467	23359
1.74533	25425
1.74600	27687
1.74667	30157
1.74733	32846
1.74800	35766
1.74867	38930
1.74933	42348
1.75000	46029
1.75067	49983
1.75133	54218
1.75200	58740
1.75267	63553
1.75333	68661
1.75400	74063
1.75467	79755
1.75533	85736
1.75600	91998
1.75667	98535
1.75733	105338
1.75800	112396
1.75867	119695
1.75933	127218
1.76000	134946
1.76067	142858
1.76133	150932
1.76200	159143
1.76267	167464
1.76333	175867
1.76400	184324
1.76467	192801
1.76533	201265
1.76600	209682
1.76667	218015
1.76733	226231
1.76800	234294
1.76867	242168
1.76933	249820
1.77000	257217
1.77067	264328
1.77133	271123
1.77200	277579
1.77267	283673
1.77333	289385
1.77400	294699
1.77467	299602
1.77533	304080
1.77600	308129
1.77667	311741
1.77733	314915
1.77800	317654
1.77867	319960
1.77933	321841
1.78000	323305
1.78067	324363
1.78133	325026
1.78200	325309
1.78267	325225
1.78333	324791
1.78400	324022
1.78467	322935
1.78533	321547
1.78600	319876
1.78667	317939
1.78733	315753
1.78800	313334
1.78867	310700
1.78933	307865
1.79000	304847
1.79067	301660
1.79133	298318
1.79200	294835
1.79267	291226
1.79333	287502
1.79400	283677
1.79467	279761
1.79533	275766
1.79600	271702
1.79667	267578
1.79733	263405
1.79800	259190
1.79867	254943
1.79933	250670
1.80000	246379
1.80067	242077
1.80133	237771
1.80200	233465
1.80267	229165
1.80333	224877
1.80400	220606
1.80467	216355
1.80533	212129
1.80600	207931
1.80667	203765
1.80733	199635
1.80800	195542
1.80867	191491
1.80933	187482
1.81000	183518
1.81067	179602
1.81133	175735
1.81200	171919
1.81267	168154
1.81333	164444
1.81400	160787
1.81467	157186
1.81533	153641
1.81600	150153
1.81667	146723
1.81733	143350
1.81800	140036
1.81867	136780
1.81933	133583
1.82000	130444
1.82067	127364
1.82133	124343
1.82200	121381
1.82267	118476
1.82333	115630
1.82400	112841
1.82467	110110
1.82533	107435
1.82600	104817
1.82667	102254
1.82733	99747
1.82800	97295
1.82867	94896
1.82933	92551
1.83000	90259
1.83067	88019
1.83133	85830
1.83200	83692
1.83267	81603
1.83333	79564
1.83400	77573
1.83467	75629
1.83533	73732
1.83600	71882
1.83667	70076
1.83733	68315
1.83800	66597
1.83867	64922
1.83933	63289
1.84000	61697
1.84067	60146
1.84133	58634
1.84200	57161
1.84267	55725
1.84333	54327
1.84400	52965
1.84467	51639
1.84533	50348
1.84600	49090
1.84667	47866
1.84733	46675
1.84800	45515
1.84867	44387
1.84933	43289
1.85000	42220
1.85067	41181
1.85133	40170
1.85200	39187
1.85267	38230
1.85333	37300
1.85400	36396
1.85467	35517
1.85533	34662
1.85600	33831
1.85667	33023
1.85733	32238
1.85800	31475
1.85867	30734
1.85933	30013
1.86000	29313
1.86067	28633
1.86133	27972
1.86200	27330
1.86267	26706
1.86333	26101
1.86400	25512
1.86467	24941
1.86533	24386
1.86600	23847
1.86667	23324
1.86733	22816
1.86800	22322
1.86867	21843
1.86933	21378
1.87000	20926
1.87067	20488
1.87133	20063
1.87200	19649
1.87267	19248
1.87333	18859
1.87400	18481
1.87467	18114
1.87533	17758
1.87600	17413
1.87667	17078
1.87733	16752
1.87800	16436
1.87867	16130
1.87933	15832
1.88000	15543
1.88067	15263
1.88133	14991
1.88200	14728
1.88267	14472
1.88333	14223
1.88400	13982
1.88467	13749
1.88533	13522
1.88600	13302
1.88667	13089
1.88733	12882
1.88800	12681
1.88867	12486
1.88933	12297
1.89000	12114
1.89067	11937
1.89133	11764
1.89200	11597
1.89267	11435
1.89333	11278
1.89400	11126
1.89467	10979
1.89533	10835
1.89600	10697
1.89667	10562
1.89733	10432
1.89800	10305
1.89867	10183
1.89933	10064
1.90000	9948
1.90067	9837
1.90133	9728
1.90200	9623
1.90267	9521
1.90333	9422
1.90400	9327
1.90467	9234
1.90533	9144
1.90600	9057
1.90667	8972
1.90733	8891
1.90800	8811
1.90867	8734
1.90933	8659
1.91000	8587
1.91067	8517
1.91133	8448
1.91200	8382
1.91267	8318
1.91333	8256
1.91400	8196
1.91467	8137
1.91533	8080
1.91600	8025
1.91667	7972
1.91733	7920
1.91800	7869
1.91867	7820
1.91933	7773
1.92000	7726
1.92067	7681
1.92133	7638
1.92200	7595
1.92267	7554
1.92333	7514
1.92400	7474
1.92467	7436
1.92533	7399
1.92600	7363
1.92667	7328
1.92733	7294
1.92800	7261
1.92867	7229
1.92933	7198
1.93000	7167
1.93067	7137
1.93133	7108
1.93200	7079
1.93267	7051
1.93333	7024
1.93400	6998
1.93467	6972
1.93533	6947
1.93600	6922
1.93667	6898
1.93733	6874
1.93800	6851
1.93867	6829
1.93933	6807
1.94000	6786
1.94067	6765
1.94133	6744
1.94200	6724
1.94267	6705
1.94333	6686
1.94400	6667
1.94467	6649
1.94533	6631
1.94600	6614
1.94667	6597
1.94733	6580
1.94800	6564
1.94867	6548
1.94933	6532
1.95000	6517
1.95067	6502
1.95133	6488
1.95200	6473
1.95267	6459
1.95333	6446
1.95400	6433
1.95467	6420
1.95533	6407
1.95600	6394
1.95667	6382
1.95733	6371
1.95800	6359
1.95867	6348
1.95933	6337
1.96000	6326
1.96067	6315
1.96133	6305
1.96200	6295
1.96267	6285
1.96333	6275
1.96400	6266
1.96467	6257
1.96533	6248
1.96600	6239
1.96667	6230
1.96733	6222
1.96800	6213
1.96867	6205
1.96933	6197
1.97000	6189
1.97067	6181
1.97133	6174
1.97200	6166
1.97267	6159
1.97333	6152
1.97400	6145
1.97467	6138
1.97533	6132
1.97600	6125
1.97667	6119
1.97733	6112
1.97800	6106
1.97867	6100
1.97933	6095
1.98000	6089
1.98067	6083
1.98133	6078
1.98200	6072
1.98267	6067
1.98333	6062
1.98400	6057
1.98467	6052
1.98533	6047
1.98600	6042
1.98667	6038
1.98733	6033
1.98800	6029
1.98867	6024
1.98933	6020
1.99000	6016
1.99067	6011
1.99133	6007
1.99200	6003
1.99267	5999
1.99333	5995
1.99400	5991
1.99467	5987
1.99533	5984
1.99600	5980
1.99667	5976
1.99733	5973
1.99800	5969
1.99867	5966
1.99933	5962
2.00000	5959
2.00067	5955
2.00133	5952
2.00200	5948
2.00267	5945
2.00333	5942
2.00400	5938
2.00467	5935
2.00533	5931
2.00600	5928
2.00667	5925
2.00733	5921
2.00800	5918
2.00867	5914
2.00933	5911
2.01000	5907
2.01067	5904
2.01133	5900
2.01200	5896
2.01267	5893
2.01333	5889
2.01400	5885
2.01467	5882
2.01533	5878
2.01600	5874
2.01667	5870
2.01733	5867
2.01800	5863
2.01867	5859
2.01933	5855
2.02000	5852
2.02067	5848
2.02133	5845
2.02200	5841
2.02267	5837
2.02333	5834
2.02400	5830
2.02467	5826
2.02533	5823
2.02600	5819
2.02667	5815
2.02733	5812
2.02800	5808
2.02867	5805
2.02933	5801
2.03000	5797
2.03067	5794
2.03133	5790
2.03200	5787
2.03267	5783
2.03333	5780
2.03400	5776
2.03467	5773
2.03533	5769
2.03600	5766
2.03667	5763
2.03733	5760
2.03800	5756
2.03867	5753
2.03933	5750
2.04000	5747
2.04067	5744
2.04133	5741
2.04200	5738
2.04267	5735
2.04333	5732
2.04400	5729
2.04467	5726
2.04533	5723
2.04600	5720
2.04667	5717
2.04733	5714
2.04800	5711
2.04867	5708
2.04933	5705
2.05000	5702
2.05067	5700
2.05133	5697
2.05200	5694
2.05267	5691
2.05333	5688
2.05400	5686
2.05467	5683
2.05533	5680
2.05600	5677
2.05667	5674
2.05733	5672
2.05800	5669
2.05867	5666
2.05933	5663
2.06000	5660
2.06067	5658
2.06133	5655
2.06200	5652
2.06267	5650
2.06333	5647
2.06400	5645
2.06467	5642
2.06533	5639
2.06600	5637
2.06667	5634
2.06733	5632
2.06800	5629
2.06867	5627
2.06933	5624
2.07000	5622
2.07067	5619
2.07133	5616
2.07200	5614
2.07267	5611
2.07333	5609
2.07400	5606
2.07467	5604
2.07533	5601
2.07600	5599
2.07667	5596
2.07733	5594
2.07800	5591
2.07867	5589
2.07933	5586
2.08000	5584
2.08067	5581
2.08133	5579
2.08200	5577
2.08267	5574
2.08333	5572
2.08400	5570
2.08467	5567
2.08533	5565
2.08600	5563
2.08667	5561
2.08733	5558
2.08800	5556
2.08867	5554
2.08933	5552
2.09000	5549
2.09067	5547
2.09133	5545
2.09200	5543
2.09267	5541
2.09333	5539
2.09400	5537
2.09467	5535
2.09533	5532
2.09600	5530
2.09667	5528
2.09733	5526
2.09800	5524
2.09867	5522
2.09933	5520
2.10000	5518
2.10067	5516
2.10133	5514
2.10200	5512
2.10267	5510
2.10333	5508
2.10400	5506
2.10467	5504
2.10533	5502
2.10600	5500
2.10667	5498
2.10733	5496
2.10800	5494
2.10867	5492
2.10933	5490
2.11000	5488
2.11067	5486
2.11133	5484
2.11200	5482
2.11267	5480
2.11333	5478
2.11400	5476
2.11467	5474
2.11533	5473
2.11600	5471
2.11667	5469
2.11733	5467
2.11800	5465
2.11867	5464
2.11933	5462
2.12000	5460
2.12067	5458
2.12133	5457
2.12200	5455
2.12267	5453
2.12333	5451
2.12400	5449
2.12467	5448
2.12533	5446
2.12600	5444
2.12667	5443
2.12733	5441
2.12800	5439
2.12867	5438
2.12933	5436
2.13000	5434
2.13067	5433
2.13133	5431
2.13200	5430
2.13267	5428
2.13333	5426
2.13400	5425
2.13467	5423
2.13533	5422
2.13600	5420
2.13667	5419
2.13733	5418
2.13800	5416
2.13867	5415
2.13933	5414
2.14000	5412
2.14067	5411
2.14133	5410
2.14200	5408
2.14267	5407
2.14333	5406
2.14400	5404
2.14467	5403
2.14533	5402
2.14600	5400
2.14667	5399
2.14733	5398
2.14800	5396
2.14867	5395
2.14933	5394
2.15000	5393
2.15067	5391
2.15133	5390
2.15200	5389
2.15267	5387
2.15333	5386
2.15400	5385
2.15467	5383
2.15533	5382
2.15600	5381
2.15667	5379
2.15733	5378
2.15800	5377
2.15867	5375
2.15933	5374
2.16000	5372
2.16067	5371
2.16133	5370
2.16200	5368
2.16267	5367
2.16333	5366
2.16400	5364
2.16467	5363
2.16533	5362
2.16600	5360
2.16667	5359
2.16733	5358
2.16800	5357
2.16867	5355
2.16933	5354
2.17000	5353
2.17067	5351
2.17133	5350
2.17200	5349
2.17267	5347
2.17333	5346
2.17400	5345
2.17467	5343
2.17533	5342
2.17600	5341
2.17667	5339
2.17733	5338
2.17800	5337
2.17867	5336
2.17933	5334
2.18000	5333
2.18067	5332
2.18133	5331
2.18200	5329
2.18267	5328
2.18333	5327
2.18400	5326
2.18467	5325
2.18533	5323
2.18600	5322
2.18667	5321
2.18733	5320
2.18800	5319
2.18867	5318
2.18933	5317
2.19000	5316
2.19067	5314
2.19133	5313
2.19200	5312
2.19267	5311
2.19333	5310
2.19400	5309
2.19467	5308
2.19533	5307
2.19600	5306
2.19667	5305
2.19733	5304
2.19800	5303
2.19867	5303
2.19933	5302
2.20000	5301
2.20067	5300
2.20133	5299
2.20200	5298
2.20267	5298
2.20333	5297
2.20400	5296
2.20467	5296
2.20533	5296
2.20600	5295
2.20667	5295
2.20733	5295
2.20800	5295
2.20867	5295
2.20933	5295
2.21000	5295
2.21067	5295
2.21133	5295
2.21200	5295
2.21267	5295
2.21333	5296
2.21400	5296
2.21467	5296
2.21533	5297
2.21600	5297
2.21667	5298
2.21733	5299
2.21800	5299
2.21867	5300
2.21933	5300
2.22000	5301
2.22067	5302
2.22133	5303
2.22200	5303
2.22267	5304
2.22333	5305
2.22400	5306
2.22467	5306
2.22533	5307
2.22600	5308
2.22667	5309
2.22733	5309
2.22800	5310
2.22867	5311
2.22933	5311
2.23000	5312
2.23067	5312
2.23133	5313
2.23200	5313
2.23267	5314
2.23333	5314
2.23400	5315
2.23467	5315
2.23533	5316
2.23600	5316
2.23667	5316
2.23733	5317
2.23800	5317
2.23867	5317
2.23933	5318
2.24000	5318
2.24067	5318
2.24133	5319
2.24200	5319
2.24267	5319
2.24333	5320
2.24400	5320
2.24467	5320
2.24533	5321
2.24600	5321
2.24667	5321
2.24733	5321
2.24800	5321
2.24867	5321
2.24933	5322
2.25000	5322
2.25067	5322
2.25133	5322
2.25200	5322
2.25267	5322
2.25333	5322
2.25400	5322
2.25467	5322
2.25533	5322
2.25600	5322
2.25667	5322
2.25733	5322
2.25800	5322
2.25867	5321
2.25933	5321
2.26000	5321
2.26067	5320
2.26133	5320
2.26200	5320
2.26267	5319
2.26333	5318
2.26400	5318
2.26467	5317
2.26533	5316
2.26600	5315
2.26667	5314
2.26733	5313
2.26800	5312
2.26867	5311
2.26933	5309
2.27000	5308
2.27067	5307
2.27133	5305
2.27200	5304
2.27267	5302
2.27333	5300
2.27400	5299
2.27467	5297
2.27533	5295
2.27600	5293
2.27667	5291
2.27733	5289
2.27800	5287
2.27867	5285
2.27933	5283
2.28000	5280
2.28067	5278
2.28133	5276
2.28200	5274
2.28267	5271
2.28333	5269
2.28400	5267
2.28467	5264
2.28533	5262
2.28600	5260
2.28667	5257
2.28733	5255
2.28800	5253
2.28867	5250
2.28933	5248
2.29000	5246
2.29067	5243
2.29133	5241
2.29200	5239
2.29267	5237
2.29333	5234
2.29400	5232
2.29467	5230
2.29533	5228
2.29600	5225
2.29667	5223
2.29733	5221
2.29800	5219
2.29867	5217
2.29933	5215
2.30000	5213
2.30067	5211
2.30133	5209
2.30200	5207
2.30267	5205
2.30333	5204
2.30400	5202
2.30467	5200
2.30533	5198
2.30600	5197
2.30667	5195
2.30733	5194
2.30800	5192
2.30867	5191
2.30933	5190
2.31000	5188
2.31067	5187
2.31133	5186
2.31200	5185
2.31267	5184
2.31333	5182
2.31400	5181
2.31467	5180
2.31533	5179
2.31600	5178
2.31667	5178
2.31733	5177
2.31800	5176
2.31867	5175
2.31933	5174
2.32000	5174
2.32067	5173
2.32133	5172
2.32200	5172
2.32267	5171
2.32333	5171
2.32400	5170
2.32467	5170
2.32533	5169
2.32600	5169
2.32667	5169
2.32733	5169
2.32800	5168
2.32867	5168
2.32933	5168
2.33000	5168
2.33067	5168
2.33133	5168
2.33200	5168
2.33267	5168
2.33333	5168
2.33400	5168
2.33467	5168
2.33533	5168
2.33600	5168
2.33667	5168
2.33733	5168
2.33800	5168
2.33867	5168
2.33933	5168
2.34000	5168
2.34067	5169
2.34133	5169
2.34200	5169
2.34267	5169
2.34333	5170
2.34400	5170
2.34467	5170
2.34533	5171
2.34600	5171
2.34667	5172
2.34733	5172
2.34800	5173
2.34867	5173
2.34933	5174
2.35000	5175
2.35067	5175
2.35133	5176
2.35200	5177
2.35267	5177
2.35333	5178
2.35400	5179
2.35467	5180
2.35533	5180
2.35600	5181
2.35667	5182
2.35733	5183
2.35800	5184
2.35867	5184
2.35933	5185
2.36000	5186
2.36067	5187
2.36133	5187
2.36200	5188
2.36267	5189
2.36333	5189
2.36400	5190
2.36467	5190
2.36533	5191
2.36600	5192
2.36667	5192
2.36733	5193
2.36800	5194
2.36867	5194
2.36933	5195
2.37000	5196
2.37067	5196
2.37133	5197
2.37200	5198
2.37267	5199
2.37333	5200
2.37400	5200
2.37467	5201
2.37533	5202
2.37600	5203
2.37667	5204
2.37733	5205
2.37800	5206
2.37867	5207
2.37933	5208
2.38000	5209
2.38067	5210
2.38133	5211
2.38200	5212
2.38267	5213
2.38333	5214
2.38400	5214
2.38467	5215
2.38533	5216
2.38600	5217
2.38667	5218
2.38733	5219
2.38800	5220
2.38867	5221
2.38933	5222
2.39000	5222
2.39067	5223
2.39133	5224
2.39200	5225
2.39267	5225
2.39333	5226
2.39400	5226
2.39467	5227
2.39533	5227
2.39600	5228
2.39667	5228
2.39733	5229
2.39800	5229
2.39867	5229
2.39933	5229
2.40000	5229
2.40067	5229
2.40133	5229
2.40200	5229
2.40267	5229
2.40333	5229
2.40400	5229
2.40467	5228
2.40533	5228
2.40600	5228
2.40667	5227
2.40733	5227
2.40800	5226
2.40867	5226
2.40933	5225
2.41000	5224
2.41067	5223
2.41133	5223
2.41200	5222
2.41267	5221
2.41333	5220
2.41400	5219
2.41467	5218
2.41533	5217
2.41600	5216
2.41667	5215
2.41733	5214
2.41800	5213
2.41867	5212
2.41933	5211
2.42000	5209
2.42067	5208
2.42133	5207
2.42200	5205
2.42267	5204
2.42333	5203
2.42400	5201
2.42467	5200
2.42533	5198
2.42600	5197
2.42667	5195
2.42733	5193
2.42800	5192
2.42867	5190
2.42933	5188
2.43000	5187
2.43067	5185
2.43133	5183
2.43200	5181
2.43267	5179
2.43333	5178
2.43400	5176
2.43467	5174
2.43533	5171
2.43600	5169
2.43667	5167
2.43733	5165
2.43800	5163
2.43867	5160
2.43933	5158
2.44000	5156
2.44067	5153
2.44133	5151
2.44200	5149
2.44267	5146
2.44333	5144
2.44400	5141
2.44467	5138
2.44533	5136
2.44600	5133
2.44667	5130
2.44733	5127
2.44800	5125
2.44867	5122
2.44933	5119
2.45000	5116
2.45067	5114
2.45133	5111
2.45200	5108
2.45267	5106
2.45333	5103
2.45400	5100
2.45467	5098
2.45533	5095
2.45600	5093
2.45667	5090
2.45733	5088
2.45800	5085
2.45867	5082
2.45933	5080
2.46000	5078
2.46067	5075
2.46133	5073
2.46200	5070
2.46267	5068
2.46333	5065
2.46400	5063
2.46467	5060
2.46533	5058
2.46600	5055
2.46667	5053
2.46733	5050
2.46800	5048
2.46867	5046
2.46933	5043
2.47000	5041
2.47067	5039
2.47133	5036
2.47200	5034
2.47267	5031
2.47333	5029
2.47400	5027
2.47467	5024
2.47533	5022
2.47600	5020
2.47667	5017
2.47733	5015
2.47800	5013
2.47867	5011
2.47933	5008
2.48000	5006
2.48067	5004
2.48133	5002
2.48200	4999
2.48267	4997
2.48333	4995
2.48400	4993
2.48467	4991
2.48533	4989
2.48600	4987
2.48667	4985
2.48733	4983
2.48800	4981
2.48867	4979
2.48933	4977
2.49000	4976
2.49067	4974
2.49133	4972
2.49200	4970
2.49267	4969
2.49333	4967
2.49400	4965
2.49467	4964
2.49533	4962
2.49600	4960
2.49667	4958
2.49733	4957
2.49800	4955
2.49867	4953
2.49933	4952
2.50000	4950
2.50067	4948
2.50133	4947
2.50200	4945
2.50267	4944
2.50333	4942
2.50400	4941
2.50467	4939
2.50533	4937
2.50600	4936
2.50667	4934
2.50733	4933
2.50800	4931
2.50867	4930
2.50933	4928
2.51000	4927
2.51067	4925
2.51133	4924
2.51200	4922
2.51267	4921
2.51333	4919
2.51400	4918
2.51467	4916
2.51533	4915
2.51600	4913
2.51667	4912
2.51733	4910
2.51800	4909
2.51867	4907
2.51933	4906
2.52000	4904
2.52067	4902
2.52133	4901
2.52200	4899
2.52267	4897
2.52333	4896
2.52400	4894
2.52467	4892
2.52533	4891
2.52600	4889
2.52667	4887
2.52733	4886
2.52800	4884
2.52867	4882
2.52933	4881
2.53000	4879
2.53067	4877
2.53133	4876
2.53200	4874
2.53267	4873
2.53333	4871
2.53400	4869
2.53467	4868
2.53533	4866
2.53600	4865
2.53667	4863
2.53733	4862
2.53800	4860
2.53867	4859
2.53933	4857
2.54000	4856
2.54067	4854
2.54133	4852
2.54200	4851
2.54267	4849
2.54333	4848
2.54400	4846
2.54467	4844
2.54533	4843
2.54600	4841
2.54667	4840
2.54733	4838
2.54800	4836
2.54867	4835
2.54933	4833
2.55000	4831
2.55067	4830
2.55133	4828
2.55200	4827
2.55267	4825
2.55333	4823
2.55400	4822
2.55467	4820
2.55533	4818
2.55600	4817
2.55667	4815
2.55733	4813
2.55800	4812
2.55867	4810
2.55933	4808
2.56000	4807
2.56067	4805
2.56133	4804
2.56200	4802
2.56267	4801
2.56333	4799
2.56400	4798
2.56467	4796
2.56533	4795
2.56600	4793
2.56667	4792
2.56733	4790
2.56800	4789
2.56867	4788
2.56933	4786
2.57000	4785
2.57067	4784
2.57133	4783
2.57200	4781
2.57267	4780
2.57333	4779
2.57400	4778
2.57467	4777
2.57533	4775
2.57600	4774
2.57667	4773
2.57733	4772
2.57800	4771
2.57867	4770
2.57933	4768
2.58000	4767
2.58067	4766
2.58133	4765
2.58200	4763
2.58267	4762
2.58333	4761
2.58400	4759
2.58467	4758
2.58533	4757
2.58600	4755
2.58667	4754
2.58733	4753
2.58800	4751
2.58867	4750
2.58933	4749
2.59000	4747
2.59067	4746
2.59133	4745
2.59200	4743
2.59267	4742
2.59333	4741
2.59400	4740
2.59467	4738
2.59533	4737
2.59600	4736
2.59667	4735
2.59733	4734
2.59800	4732
2.59867	4731
2.59933	4730
2.60000	4729
2.60067	4728
2.60133	4727
2.60200	4726
2.60267	4724
2.60333	4723
2.60400	4722
2.60467	4721
2.60533	4720
2.60600	4719
2.60667	4718
2.60733	4716
2.60800	4715
2.60867	4714
2.60933	4713
2.61000	4712
2.61067	4711
2.61133	4709
2.61200	4708
2.61267	4707
2.61333	4706
2.61400	4705
2.61467	4704
2.61533	4702
2.61600	4701
2.61667	4700
2.61733	4699
2.61800	4698
2.61867	4697
2.61933	4696
2.62000	4695
2.62067	4694
2.62133	4693
2.62200	4692
2.62267	4691
2.62333	4690
2.62400	4689
2.62467	4688
2.62533	4687
2.62600	4686
2.62667	4685
2.62733	4683
2.62800	4682
2.62867	4681
2.62933	4680
2.63000	4679
2.63067	4678
2.63133	4677
2.63200	4675
2.63267	4674
2.63333	4673
2.63400	4672
2.63467	4671
2.63533	4669
2.63600	4668
2.63667	4667
2.63733	4666
2.63800	4664
2.63867	4663
2.63933	4662
2.64000	4661
2.64067	4660
2.64133	4659
2.64200	4658
2.64267	4656
2.64333	4655
2.64400	4654
2.64467	4653
2.64533	4652
2.64600	4651
2.64667	4650
2.64733	4649
2.64800	4647
2.64867	4646
2.64933	4645
2.65000	4644
2.65067	4643
2.65133	4642
2.65200	4641
2.65267	4640
2.65333	4639
2.65400	4638
2.65467	4637
2.65533	4636
2.65600	4635
2.65667	4634
2.65733	4633
2.65800	4631
2.65867	4630
2.65933	4629
2.66000	4628
2.66067	4627
2.66133	4626
2.66200	4624
2.66267	4623
2.66333	4622
2.66400	4621
2.66467	4619
2.66533	4618
2.66600	4617
2.66667	4616
2.66733	4614
2.66800	4613
2.66867	4612
2.66933	4610
2.67000	4609
2.67067	4608
2.67133	4607
2.67200	4606
2.67267	4605
2.67333	4603
2.67400	4602
2.67467	4601
2.67533	4600
2.67600	4599
2.67667	4598
2.67733	4597
2.67800	4596
2.67867	4595
2.67933	4594
2.68000	4593
2.68067	4592
2.68133	4591
2.68200	4589
2.68267	4588
2.68333	4587
2.68400	4586
2.68467	4585
2.68533	4584
2.68600	4583
2.68667	4582
2.68733	4581
2.68800	4580
2.68867	4579
2.68933	4577
2.69000	4576
2.69067	4575
2.69133	4574
2.69200	4573
2.69267	4572
2.69333	4571
2.69400	4570
2.69467	4569
2.69533	4568
2.69600	4567
2.69667	4566
2.69733	4565
2.69800	4564
2.69867	4563
2.69933	4562
2.70000	4561
2.70067	4560
2.70133	4559
2.70200	4558
2.70267	4557
2.70333	4556
2.70400	4555
2.70467	4554
2.70533	4553
2.70600	4552
2.70667	4551
2.70733	4550
2.70800	4549
2.70867	4548
2.70933	4547
2.71000	4546
2.71067	4545
2.71133	4544
2.71200	4543
2.71267	4542
2.71333	4541
2.71400	4540
2.71467	4539
2.71533	4538
2.71600	4537
2.71667	4536
2.71733	4535
2.71800	4534
2.71867	4533
2.71933	4532
2.72000	4531
2.72067	4530
2.72133	4529
2.72200	4528
2.72267	4527
2.72333	4526
2.72400	4525
2.72467	4524
2.72533	4523
2.72600	4522
2.72667	4521
2.72733	4520
2.72800	4519
2.72867	4518
2.72933	4517
2.73000	4516
2.73067	4515
2.73133	4514
2.73200	4513
2.73267	4512
2.73333	4511
2.73400	4510
2.73467	4510
2.73533	4509
2.73600	4508
2.73667	4507
2.73733	4507
2.73800	4506
2.73867	4505
2.73933	4504
2.74000	4504
2.74067	4503
2.74133	4502
2.74200	4502
2.74267	4501
2.74333	4500
2.74400	4500
2.74467	4499
2.74533	4498
2.74600	4498
2.74667	4497
2.74733	4497
2.74800	4496
2.74867	4495
2.74933	4495
2.75000	4494
2.75067	4494
2.75133	4493
2.75200	4493
2.75267	4492
2.75333	4492
2.75400	4492
2.75467	4491
2.75533	4491
2.75600	4490
2.75667	4490
2.75733	4490
2.75800	4490
2.75867	4489
2.75933	4489
2.76000	4489
2.76067	4489
2.76133	4489
2.76200	4489
2.76267	4489
2.76333	4489
2.76400	4490
2.76467	4490
2.76533	4490
2.76600	4490
2.76667	4490
2.76733	4491
2.76800	4491
2.76867	4491
2.76933	4492
2.77000	4492
2.77067	4493
2.77133	4493
2.77200	4494
2.77267	4495
2.77333	4495
2.77400	4496
2.77467	4497
2.77533	4498
2.77600	4498
2.77667	4499
2.77733	4500
2.77800	4502
2.77867	4503
2.77933	4504
2.78000	4506
2.78067	4507
2.78133	4509
2.78200	4511
2.78267	4513
2.78333	4515
2.78400	4517
2.78467	4519
2.78533	4522
2.78600	4524
2.78667	4527
2.78733	4530
2.78800	4532
2.78867	4535
2.78933	4538
2.79000	4542
2.79067	4545
2.79133	4548
2.79200	4552
2.79267	4556
2.79333	4559
2.79400	4563
2.79467	4567
2.79533	4572
2.79600	4576
2.79667	4580
2.79733	4585
2.79800	4590
2.79867	4595
2.79933	4600
2.80000	4605
2.80067	4610
2.80133	4615
2.80200	4621
2.80267	4626
2.80333	4632
2.80400	4637
2.80467	4643
2.80533	4649
2.80600	4655
2.80667	4661
2.80733	4667
2.80800	4673
2.80867	4679
2.80933	4685
2.81000	4691
2.81067	4697
2.81133	4703
2.81200	4710
2.81267	4716
2.81333	4722
2.81400	4728
2.81467	4734
2.81533	4740
2.81600	4746
2.81667	4751
2.81733	4757
2.81800	4763
2.81867	4768
2.81933	4773
2.82000	4779
2.82067	4784
2.82133	4789
2.82200	4793
2.82267	4798
2.82333	4803
2.82400	4807
2.82467	4811
2.82533	4815
2.82600	4819
2.82667	4822
2.82733	4826
2.82800	4829
2.82867	4832
2.82933	4834
2.83000	4837
2.83067	4839
2.83133	4841
2.83200	4843
2.83267	4845
2.83333	4846
2.83400	4848
2.83467	4849
2.83533	4850
2.83600	4850
2.83667	4851
2.83733	4851
2.83800	4852
2.83867	4852
2.83933	4852
2.84000	4851
2.84067	4851
2.84133	4850
2.84200	4849
2.84267	4848
2.84333	4847
2.84400	4846
2.84467	4845
2.84533	4843
2.84600	4842
2.84667	4840
2.84733	4838
2.84800	4837
2.84867	4835
2.84933	4833
2.85000	4831
2.85067	4828
2.85133	4826
2.85200	4824
2.85267	4821
2.85333	4819
2.85400	4816
2.85467	4814
2.85533	4811
2.85600	4809
2.85667	4806
2.85733	4804
2.85800	4801
2.85867	4799
2.85933	4796
2.86000	4794
2.86067	4791
2.86133	4789
2.86200	4786
2.86267	4784
2.86333	4782
2.86400	4780
2.86467	4777
2.86533	4775
2.86600	4773
2.86667	4771
2.86733	4769
2.86800	4767
2.86867	4766
2.86933	4764
2.87000	4763
2.87067	4761
2.87133	4760
2.87200	4759
2.87267	4758
2.87333	4757
2.87400	4756
2.87467	4756
2.87533	4755
2.87600	4755
2.87667	4755
2.87733	4755
2.87800	4755
2.87867	4756
2.87933	4756
2.88000	4757
2.88067	4758
2.88133	4760
2.88200	4762
2.88267	4763
2.88333	4766
2.88400	4768
2.88467	4771
2.88533	4774
2.88600	4777
2.88667	4780
2.88733	4784
2.88800	4788
2.88867	4792
2.88933	4797
2.89000	4802
2.89067	4807
2.89133	4812
2.89200	4818
2.89267	4823
2.89333	4830
2.89400	4836
2.89467	4842
2.89533	4849
2.89600	4856
2.89667	4863
2.89733	4870
2.89800	4878
2.89867	4885
2.89933	4893
2.90000	4900
2.90067	4908
2.90133	4916
2.90200	4923
2.90267	4931
2.90333	4939
2.90400	4947
2.90467	4954
2.90533	4962
2.90600	4969
2.90667	4976
2.90733	4984
2.90800	4991
2.90867	4997
2.90933	5004
2.91000	5010
2.91067	5016
2.91133	5022
2.91200	5028
2.91267	5033
2.91333	5038
2.91400	5042
2.91467	5046
2.91533	5050
2.91600	5053
2.91667	5056
2.91733	5059
2.91800	5061
2.91867	5063
2.91933	5064
2.92000	5065
2.92067	5065
2.92133	5065
2.92200	5064
2.92267	5064
2.92333	5062
2.92400	5060
2.92467	5058
2.92533	5055
2.92600	5052
2.92667	5049
2.92733	5045
2.92800	5041
2.92867	5036
2.92933	5032
2.93000	5026
2.93067	5021
2.93133	5015
2.93200	5009
2.93267	5002
2.93333	4996
2.93400	4989
2.93467	4981
2.93533	4974
2.93600	4966
2.93667	4958
2.93733	4950
2.93800	4942
2.93867	4934
2.93933	4925
2.94000	4917
2.94067	4908
2.94133	4899
2.94200	4890
2.94267	4880
2.94333	4871
2.94400	4862
2.94467	4852
2.94533	4843
2.94600	4833
2.94667	4824
2.94733	4814
2.94800	4804
2.94867	4795
2.94933	4785
2.95000	4775
2.95067	4766
2.95133	4756
2.95200	4747
2.95267	4737
2.95333	4728
2.95400	4718
2.95467	4709
2.95533	4700
2.95600	4691
2.95667	4682
2.95733	4673
2.95800	4664
2.95867	4655
2.95933	4646
2.96000	4637
2.96067	4629
2.96133	4620
2.96200	4612
2.96267	4604
2.96333	4595
2.96400	4587
2.96467	4579
2.96533	4571
2.96600	4563
2.96667	4555
2.96733	4548
2.96800	4540
2.96867	4533
2.96933	4525
2.97000	4518
2.97067	4511
2.97133	4504
2.97200	4497
2.97267	4491
2.97333	4484
2.97400	4477
2.97467	4471
2.97533	4465
2.97600	4458
2.97667	4452
2.97733	4446
2.97800	4440
2.97867	4434
2.97933	4429
2.98000	4423
2.98067	4417
2.98133	4412
2.98200	4406
2.98267	4401
2.98333	4396
2.98400	4390
2.98467	4385
2.98533	4380
2.98600	4375
2.98667	4370
2.98733	4366
2.98800	4361
2.98867	4356
2.98933	4351
2.99000	4347
2.99067	4342
2.99133	4337
2.99200	4333
2.99267	4328
2.99333	4324
2.99400	4320
2.99467	4315
2.99533	4311
2.99600	4307
2.99667	4303
2.99733	4299
2.99800	4294
2.99867	4291
2.99933	4287
3.00000	4283
3.00067	4279
3.00133	4275
3.00200	4272
3.00267	4268
3.00333	4265
3.00400	4261
3.00467	4258
3.00533	4254
3.00600	4251
3.00667	4248
3.00733	4244
3.00800	4241
3.00867	4238
3.00933	4235
3.01000	4232
3.01067	4229
3.01133	4226
3.01200	4223
3.01267	4220
3.01333	4217
3.01400	4214
3.01467	4212
3.01533	4209
3.01600	4206
3.01667	4204
3.01733	4201
3.01800	4198
3.01867	4196
3.01933	4193
3.02000	4191
3.02067	4189
3.02133	4186
3.02200	4184
3.02267	4181
3.02333	4179
3.02400	4177
3.02467	4174
3.02533	4172
3.02600	4170
3.02667	4167
3.02733	4165
3.02800	4163
3.02867	4161
3.02933	4159
3.03000	4156
3.03067	4154
3.03133	4152
3.03200	4150
3.03267	4148
3.03333	4146
3.03400	4144
3.03467	4142
3.03533	4140
3.03600	4138
3.03667	4136
3.03733	4134
3.03800	4132
3.03867	4130
3.03933	4128
3.04000	4126
3.04067	4124
3.04133	4123
3.04200	4121
3.04267	4119
3.04333	4117
3.04400	4115
3.04467	4114
3.04533	4112
3.04600	4110
3.04667	4109
3.04733	4107
3.04800	4105
3.04867	4104
3.04933	4102
3.05000	4101
3.05067	4100
3.05133	4098
3.05200	4097
3.05267	4096
3.05333	4094
3.05400	4093
3.05467	4092
3.05533	4091
3.05600	4090
3.05667	4088
3.05733	4087
3.05800	4086
3.05867	4085
3.05933	4084
3.06000	4083
3.06067	4082
3.06133	4081
3.06200	4080
3.06267	4079
3.06333	4078
3.06400	4077
3.06467	4076
3.06533	4075
3.06600	4075
3.06667	4074
3.06733	4073
3.06800	4072
3.06867	4071
3.06933	4070
3.07000	4069
3.07067	4068
3.07133	4067
3.07200	4066
3.07267	4065
3.07333	4064
3.07400	4063
3.07467	4063
3.07533	4062
3.07600	4061
3.07667	4060
3.07733	4059
3.07800	4059
3.07867	4058
3.07933	4057
3.08000	4056
3.08067	4055
3.08133	4055
3.08200	4054
3.08267	4053
3.08333	4052
3.08400	4051
3.08467	4050
3.08533	4050
3.08600	4049
3.08667	4048
3.08733	4047
3.08800	4046
3.08867	4045
3.08933	4044
3.09000	4043
3.09067	4043
3.09133	4042
3.09200	4041
3.09267	4040
3.09333	4039
3.09400	4038
3.09467	4037
3.09533	4036
3.09600	4035
3.09667	4034
3.09733	4033
3.09800	4032
3.09867	4031
3.09933	4029
3.10000	4028
3.10067	4027
3.10133	4026
3.10200	4025
3.10267	4024
3.10333	4022
3.10400	4021
3.10467	4020
3.10533	4019
3.10600	4018
3.10667	4016
3.10733	4015
3.10800	4014
3.10867	4012
3.10933	4011
3.11000	4010
3.11067	4008
3.11133	4007
3.11200	4005
3.11267	4004
3.11333	4003
3.11400	4001
3.11467	4000
3.11533	3998
3.11600	3997
3.11667	3996
3.11733	3994
3.11800	3993
3.11867	3992
3.11933	3990
3.12000	3989
3.12067	3988
3.12133	3986
3.12200	3985
3.12267	3983
3.12333	3982
3.12400	3981
3.12467	3979
3.12533	3978
3.12600	3977
3.12667	3976
3.12733	3974
3.12800	3973
3.12867	3972
3.12933	3971
3.13000	3969
3.13067	3968
3.13133	3967
3.13200	3965
3.13267	3964
3.13333	3963
3.13400	3962
3.13467	3960
3.13533	3959
3.13600	3958
3.13667	3957
3.13733	3955
3.13800	3954
3.13867	3953
3.13933	3952
3.14000	3951
3.14067	3949
3.14133	3948
3.14200	3947
3.14267	3946
3.14333	3945
3.14400	3944
3.14467	3942
3.14533	3941
3.14600	3940
3.14667	3939
3.14733	3938
3.14800	3936
3.14867	3935
3.14933	3934
3.15000	3933
3.15067	3932
3.15133	3931
3.15200	3929
3.15267	3928
3.15333	3927
3.15400	3926
3.15467	3925
3.15533	3924
3.15600	3923
3.15667	3922
3.15733	3921
3.15800	3920
3.15867	3919
3.15933	3918
3.16000	3917
3.16067	3916
3.16133	3915
3.16200	3914
3.16267	3913
3.16333	3911
3.16400	3910
3.16467	3909
3.16533	3908
3.16600	3907
3.16667	3906
3.16733	3905
3.16800	3904
3.16867	3903
3.16933	3902
3.17000	3901
3.17067	3899
3.17133	3898
3.17200	3897
3.17267	3896
3.17333	3895
3.17400	3894
3.17467	3893
3.17533	3892
3.17600	3891
3.17667	3890
3.17733	3889
3.17800	3888
3.17867	3887
3.17933	3886
3.18000	3885
3.18067	3884
3.18133	3884
3.18200	3883
3.18267	3882
3.18333	3881
3.18400	3880
3.18467	3879
3.18533	3878
3.18600	3877
3.18667	3876
3.18733	3875
3.18800	3875
3.18867	3874
3.18933	3873
3.19000	3872
3.19067	3871
3.19133	3869
3.19200	3868
3.19267	3867
3.19333	3866
3.19400	3865
3.19467	3864
3.19533	3863
3.19600	3862
3.19667	3861
3.19733	3860
3.19800	3859
3.19867	3858
3.19933	3857
3.20000	3856
3.20067	3855
3.20133	3854
3.20200	3853
3.20267	3852
3.20333	3851
3.20400	3850
3.20467	3849
3.20533	3848
3.20600	3847
3.20667	3846
3.20733	3845
3.20800	3844
3.20867	3843
3.20933	3842
3.21000	3841
3.21067	3840
3.21133	3839
3.21200	3838
3.21267	3838
3.21333	3837
3.21400	3836
3.21467	3835
3.21533	3834
3.21600	3833
3.21667	3832
3.21733	3832
3.21800	3831
3.21867	3830
3.21933	3829
3.22000	3828
3.22067	3828
3.22133	3827
3.22200	3826
3.22267	3825
3.22333	3825
3.22400	3824
3.22467	3823
3.22533	3823
3.22600	3822
3.22667	3821
3.22733	3820
3.22800	3820
3.22867	3819
3.22933	3818
3.23000	3817
3.23067	3817
3.23133	3816
3.23200	3815
3.23267	3815
3.23333	3814
3.23400	3813
3.23467	3813
3.23533	3812
3.23600	3811
3.23667	3811
3.23733	3810
3.23800	3810
3.23867	3809
3.23933	3809
3.24000	3808
3.24067	3808
3.24133	3807
3.24200	3807
3.24267	3806
3.24333	3805
3.24400	3805
3.24467	3804
3.24533	3804
3.24600	3803
3.24667	3803
3.24733	3802
3.24800	3801
3.24867	3801
3.24933	3800
3.25000	3800
3.25067	3799
3.25133	3798
3.25200	3798
3.25267	3797
3.25333	3797
3.25400	3796
3.25467	3795
3.25533	3795
3.25600	3794
3.25667	3794
3.25733	3793
3.25800	3792
3.25867	3792
3.25933	3791
3.26000	3791
3.26067	3790
3.26133	3790
3.26200	3789
3.26267	3788
3.26333	3788
3.26400	3787
3.26467	3787
3.26533	3786
3.26600	3786
3.26667	3785
3.26733	3784
3.26800	3784
3.26867	3783
3.26933	3783
3.27000	3782
3.27067	3782
3.27133	3781
3.27200	3781
3.27267	3780
3.27333	3779
3.27400	3779
3.27467	3778
3.27533	3777
3.27600	3777
3.27667	3776
3.27733	3776
3.27800	3775
3.27867	3775
3.27933	3774
3.28000	3774
3.28067	3773
3.28133	3773
3.28200	3772
3.28267	3772
3.28333	3771
3.28400	3771
3.28467	3770
3.28533	3770
3.28600	3769
3.28667	3769
3.28733	3769
3.28800	3768
3.28867	3768
3.28933	3768
3.29000	3767
3.29067	3767
3.29133	3767
3.29200	3766
3.29267	3766
3.29333	3765
3.29400	3765
3.29467	3765
3.29533	3764
3.29600	3764
3.29667	3764
3.29733	3763
3.29800	3763
3.29867	3763
3.29933	3762
3.30000	3762
3.30067	3762
3.30133	3761
3.30200	3761
3.30267	3761
3.30333	3760
3.30400	3760
3.30467	3760
3.30533	3759
3.30600	3759
3.30667	3759
3.30733	3758
3.30800	3758
3.30867	3758
3.30933	3757
3.31000	3757
3.31067	3757
3.31133	3756
3.31200	3756
3.31267	3755
3.31333	3755
3.31400	3755
3.31467	3754
3.31533	3754
3.31600	3753
3.31667	3753
3.31733	3753
3.31800	3752
3.31867	3752
3.31933	3751
3.32000	3751
3.32067	3751
3.32133	3750
3.32200	3750
3.32267	3749
3.32333	3749
3.32400	3748
3.32467	3748
3.32533	3748
3.32600	3747
3.32667	3747
3.32733	3746
3.32800	3746
3.32867	3745
3.32933	3745
3.33000	3744
3.33067	3743
3.33133	3743
3.33200	3742
3.33267	3742
3.33333	3741
3.33400	3741
3.33467	3740
3.33533	3739
3.33600	3739
3.33667	3738
3.33733	3738
3.33800	3737
3.33867	3737
3.33933	3736
3.34000	3736
3.34067	3735
3.34133	3735
3.34200	3734
3.34267	3734
3.34333	3733
3.34400	3733
3.34467	3732
3.34533	3732
3.34600	3731
3.34667	3731
3.34733	3730
3.34800	3730
3.34867	3729
3.34933	3728
3.35000	3728
3.35067	3727
3.35133	3727
3.35200	3726
3.35267	3725
3.35333	3725
3.35400	3724
3.35467	3723
3.35533	3723
3.35600	3722
3.35667	3722
3.35733	3721
3.35800	3720
3.35867	3720
3.35933	3719
3.36000	3718
3.36067	3718
3.36133	3717
3.36200	3716
3.36267	3716
3.36333	3715
3.36400	3715
3.36467	3714
3.36533	3713
3.36600	3713
3.36667	3712
3.36733	3712
3.36800	3711
3.36867	3711
3.36933	3710
3.37000	3710
3.37067	3709
3.37133	3709
3.37200	3708
3.37267	3708
3.37333	3707
3.37400	3707
3.37467	3706
3.37533	3706
3.37600	3705
3.37667	3705
3.37733	3704
3.37800	3704
3.37867	3703
3.37933	3703
3.38000	3703
3.38067	3702
3.38133	3702
3.38200	3702
3.38267	3702
3.38333	3701
3.38400	3701
3.38467	3701
3.38533	3701
3.38600	3700
3.38667	3700
3.38733	3700
3.38800	3700
3.38867	3699
3.38933	3699
3.39000	3699
3.39067	3699
3.39133	3699
3.39200	3698
3.39267	3698
3.39333	3698
3.39400	3698
3.39467	3698
3.39533	3698
3.39600	3698
3.39667	3698
3.39733	3698
3.39800	3698
3.39867	3698
3.39933	3698
3.40000	3698
3.40067	3698
3.40133	3698
3.40200	3698
3.40267	3698
3.40333	3699
3.40400	3699
3.40467	3699
3.40533	3699
3.40600	3699
3.40667	3699
3.40733	3700
3.40800	3700
3.40867	3700
3.40933	3700
3.41000	3701
3.41067	3701
3.41133	3701
3.41200	3702
3.41267	3702
3.41333	3702
3.41400	3703
3.41467	3703
3.41533	3704
3.41600	3704
3.41667	3704
3.41733	3705
3.41800	3705
3.41867	3706
3.41933	3706
3.42000	3707
3.42067	3707
3.42133	3708
3.42200	3708
3.42267	3709
3.42333	3709
3.42400	3710
3.42467	3710
3.42533	3711
3.42600	3711
3.42667	3712
3.42733	3712
3.42800	3713
3.42867	3713
3.42933	3714
3.43000	3714
3.43067	3715
3.43133	3715
3.43200	3716
3.43267	3716
3.43333	3717
3.43400	3717
3.43467	3718
3.43533	3718
3.43600	3719
3.43667	3719
3.43733	3720
3.43800	3720
3.43867	3720
3.43933	3721
3.44000	3721
3.44067	3722
3.44133	3722
3.44200	3723
3.44267	3724
3.44333	3724
3.44400	3725
3.44467	3725
3.44533	3726
3.44600	3727
3.44667	3728
3.44733	3728
3.44800	3729
3.44867	3730
3.44933	3731
3.45000	3732
3.45067	3732
3.45133	3733
3.45200	3734
3.45267	3735
3.45333	3736
3.45400	3737
3.45467	3739
3.45533	3740
3.45600	3741
3.45667	3742
3.45733	3744
3.45800	3745
3.45867	3746
3.45933	3747
3.46000	3749
3.46067	3750
3.46133	3752
3.46200	3753
3.46267	3754
3.46333	3756
3.46400	3757
3.46467	3758
3.46533	3760
3.46600	3761
3.46667	3762
3.46733	3764
3.46800	3765
3.46867	3767
3.46933	3768
3.47000	3769
3.47067	3771
3.47133	3772
3.47200	3774
3.47267	3775
3.47333	3777
3.47400	3778
3.47467	3780
3.47533	3781
3.47600	3783
3.47667	3784
3.47733	3786
3.47800	3787
3.47867	3789
3.47933	3791
3.48000	3792
3.48067	3794
3.48133	3796
3.48200	3798
3.48267	3799
3.48333	3801
3.48400	3803
3.48467	3805
3.48533	3807
3.48600	3809
3.48667	3811
3.48733	3813
3.48800	3815
3.48867	3817
3.48933	3819
3.49000	3822
3.49067	3824
3.49133	3826
3.49200	3829
3.49267	3832
3.49333	3834
3.49400	3837
3.49467	3840
3.49533	3843
3.49600	3847
3.49667	3850
3.49733	3854
3.49800	3858
3.49867	3861
3.49933	3866
3.50000	3870
3.50067	3874
3.50133	3879
3.50200	3884
3.50267	3889
3.50333	3894
3.50400	3900
3.50467	3906
3.50533	3912
3.50600	3918
3.50667	3925
3.50733	3932
3.50800	3939
3.50867	3947
3.50933	3954
3.51000	3963
3.51067	3971
3.51133	3981
3.51200	3990
3.51267	4000
3.51333	4010
3.51400	4021
3.51467	4032
3.51533	4043
3.51600	4056
3.51667	4068
3.51733	4081
3.51800	4094
3.51867	4108
3.51933	4123
3.52000	4137
3.52067	4153
3.52133	4169
3.52200	4185
3.52267	4202
3.52333	4220
3.52400	4238
3.52467	4256
3.52533	4275
3.52600	4295
3.52667	4315
3.52733	4336
3.52800	4357
3.52867	4379
3.52933	4401
3.53000	4424
3.53067	4448
3.53133	4472
3.53200	4496
3.53267	4521
3.53333	4546
3.53400	4572
3.53467	4599
3.53533	4626
3.53600	4653
3.53667	4681
3.53733	4709
3.53800	4738
3.53867	4766
3.53933	4796
3.54000	4825
3.54067	4855
3.54133	4885
3.54200	4916
3.54267	4946
3.54333	4977
3.54400	5008
3.54467	5039
3.54533	5071
3.54600	5102
3.54667	5134
3.54733	5165
3.54800	5197
3.54867	5229
3.54933	5260
3.55000	5292
3.55067	5324
3.55133	5355
3.55200	5387
3.55267	5419
3.55333	5450
3.55400	5482
3.55467	5513
3.55533	5544
3.55600	5575
3.55667	5606
3.55733	5637
3.55800	5668
3.55867	5698
3.55933	5729
3.56000	5759
3.56067	5789
3.56133	5819
3.56200	5849
3.56267	5878
3.56333	5907
3.56400	5937
3.56467	5965
3.56533	5994
3.56600	6023
3.56667	6051
3.56733	6080
3.56800	6108
3.56867	6136
3.56933	6164
3.57000	6191
3.57067	6219
3.57133	6247
3.57200	6275
3.57267	6302
3.57333	6330
3.57400	6358
3.57467	6386
3.57533	6414
3.57600	6442
3.57667	6470
3.57733	6498
3.57800	6527
3.57867	6556
3.57933	6585
3.58000	6614
3.58067	6643
3.58133	6673
3.58200	6703
3.58267	6734
3.58333	6765
3.58400	6796
3.58467	6828
3.58533	6860
3.58600	6892
3.58667	6925
3.58733	6959
3.58800	6993
3.58867	7027
3.58933	7061
3.59000	7096
3.59067	7132
3.59133	7168
3.59200	7204
3.59267	7241
3.59333	7278
3.59400	7315
3.59467	7353
3.59533	7392
3.59600	7430
3.59667	7469
3.59733	7508
3.59800	7547
3.59867	7587
3.59933	7626
3.60000	7666
3.60067	7706
3.60133	7746
3.60200	7786
3.60267	7826
3.60333	7866
3.60400	7906
3.60467	7945
3.60533	7985
3.60600	8024
3.60667	8064
3.60733	8102
3.60800	8141
3.60867	8179
3.60933	8216
3.61000	8253
3.61067	8290
3.61133	8325
3.61200	8360
3.61267	8393
3.61333	8426
3.61400	8458
3.61467	8489
3.61533	8519
3.61600	8547
3.61667	8575
3.61733	8601
3.61800	8626
3.61867	8650
3.61933	8672
3.62000	8693
3.62067	8713
3.62133	8731
3.62200	8748
3.62267	8763
3.62333	8777
3.62400	8789
3.62467	8799
3.62533	8808
3.62600	8816
3.62667	8822
3.62733	8826
3.62800	8829
3.62867	8830
3.62933	8829
3.63000	8827
3.63067	8823
3.63133	8818
3.63200	8811
3.63267	8803
3.63333	8793
3.63400	8781
3.63467	8767
3.63533	8753
3.63600	8736
3.63667	8718
3.63733	8699
3.63800	8678
3.63867	8656
3.63933	8632
3.64000	8607
3.64067	8580
3.64133	8553
3.64200	8524
3.64267	8493
3.64333	8462
3.64400	8429
3.64467	8396
3.64533	8361
3.64600	8325
3.64667	8288
3.64733	8249
3.64800	8210
3.64867	8171
3.64933	8130
3.65000	8088
3.65067	8046
3.65133	8003
3.65200	7959
3.65267	7915
3.65333	7870
3.65400	7825
3.65467	7779
3.65533	7732
3.65600	7686
3.65667	7639
3.65733	7591
3.65800	7544
3.65867	7496
3.65933	7448
3.66000	7399
3.66067	7351
3.66133	7302
3.66200	7254
3.66267	7205
3.66333	7157
3.66400	7108
3.66467	7060
3.66533	7011
3.66600	6963
3.66667	6915
3.66733	6867
3.66800	6819
3.66867	6771
3.66933	6724
3.67000	6677
3.67067	6630
3.67133	6584
3.67200	6537
3.67267	6492
3.67333	6446
3.67400	6401
3.67467	6356
3.67533	6312
3.67600	6268
3.67667	6224
3.67733	6181
3.67800	6139
3.67867	6097
3.67933	6055
3.68000	6014
3.68067	5973
3.68133	5933
3.68200	5893
3.68267	5854
3.68333	5815
3.68400	5777
3.68467	5739
3.68533	5702
3.68600	5665
3.68667	5629
3.68733	5594
3.68800	5559
3.68867	5524
3.68933	5490
3.69000	5457
3.69067	5424
3.69133	5392
3.69200	5360
3.69267	5328
3.69333	5298
3.69400	5267
3.69467	5237
3.69533	5208
3.69600	5180
3.69667	5151
3.69733	5123
3.69800	5096
3.69867	5069
3.69933	5043
3.70000	5017
3.70067	4992
3.70133	4967
3.70200	4942
3.70267	4918
3.70333	4895
3.70400	4872
3.70467	4849
3.70533	4827
3.70600	4805
3.70667	4783
3.70733	4762
3.70800	4742
3.70867	4722
3.70933	4702
3.71000	4682
3.71067	4663
3.71133	4645
3.71200	4626
3.71267	4608
3.71333	4591
3.71400	4573
3.71467	4556
3.71533	4540
3.71600	4524
3.71667	4508
3.71733	4492
3.71800	4477
3.71867	4462
3.71933	4447
3.72000	4432
3.72067	4418
3.72133	4404
3.72200	4391
3.72267	4377
3.72333	4364
3.72400	4351
3.72467	4339
3.72533	4326
3.72600	4314
3.72667	4302
3.72733	4290
3.72800	4279
3.72867	4268
3.72933	4257
3.73000	4246
3.73067	4235
3.73133	4225
3.73200	4214
3.73267	4204
3.73333	4194
3.73400	4185
3.73467	4175
3.73533	4166
3.73600	4157
3.73667	4148
3.73733	4140
3.73800	4131
3.73867	4123
3.73933	4115
3.74000	4107
3.74067	4099
3.74133	4092
3.74200	4084
3.74267	4077
3.74333	4070
3.74400	4063
3.74467	4056
3.74533	4049
3.74600	4042
3.74667	4036
3.74733	4029
3.74800	4023
3.74867	4017
3.74933	4011
3.75000	4005
3.75067	3999
3.75133	3993
3.75200	3987
3.75267	3982
3.75333	3976
3.75400	3971
3.75467	3965
3.75533	3960
3.75600	3955
3.75667	3950
3.75733	3945
3.75800	3940
3.75867	3935
3.75933	3930
3.76000	3925
3.76067	3920
3.76133	3916
3.76200	3911
3.76267	3907
3.76333	3902
3.76400	3898
3.76467	3893
3.76533	3889
3.76600	3885
3.76667	3881
3.76733	3877
3.76800	3873
3.76867	3869
3.76933	3866
3.77000	3862
3.77067	3858
3.77133	3855
3.77200	3851
3.77267	3848
3.77333	3844
3.77400	3841
3.77467	3838
3.77533	3834
3.77600	3831
3.77667	3828
3.77733	3825
3.77800	3822
3.77867	3819
3.77933	3816
3.78000	3813
3.78067	3810
3.78133	3807
3.78200	3805
3.78267	3802
3.78333	3799
3.78400	3796
3.78467	3794
3.78533	3791
3.78600	3789
3.78667	3786
3.78733	3784
3.78800	3781
3.78867	3779
3.78933	3777
3.79000	3775
3.79067	3772
3.79133	3770
3.79200	3768
3.79267	3766
3.79333	3764
3.79400	3762
3.79467	3760
3.79533	3758
3.79600	3756
3.79667	3754
3.79733	3752
3.79800	3750
3.79867	3748
3.79933	3746
3.80000	3745
3.80067	3743
3.80133	3741
3.80200	3739
3.80267	3737
3.80333	3735
3.80400	3734
3.80467	3732
3.80533	3730
3.80600	3729
3.80667	3727
3.80733	3725
3.80800	3724
3.80867	3722
3.80933	3720
3.81000	3719
3.81067	3717
3.81133	3716
3.81200	3714
3.81267	3713
3.81333	3711
3.81400	3710
3.81467	3708
3.81533	3707
3.81600	3705
3.81667	3704
3.81733	3702
3.81800	3701
3.81867	3700
3.81933	3698
3.82000	3697
3.82067	3695
3.82133	3694
3.82200	3692
3.82267	3691
3.82333	3689
3.82400	3688
3.82467	3686
3.82533	3685
3.82600	3683
3.82667	3682
3.82733	3680
3.82800	3679
3.82867	3678
3.82933	3676
3.83000	3675
3.83067	3673
3.83133	3672
3.83200	3671
3.83267	3669
3.83333	3668
3.83400	3667
3.83467	3666
3.83533	3664
3.83600	3663
3.83667	3662
3.83733	3661
3.83800	3659
3.83867	3658
3.83933	3657
3.84000	3655
3.84067	3654
3.84133	3653
3.84200	3652
3.84267	3650
3.84333	3649
3.84400	3648
3.84467	3647
3.84533	3645
3.84600	3644
3.84667	3643
3.84733	3641
3.84800	3640
3.84867	3639
3.84933	3637
3.85000	3636
3.85067	3635
3.85133	3633
3.85200	3632
3.85267	3630
3.85333	3629
3.85400	3628
3.85467	3626
3.85533	3625
3.85600	3624
3.85667	3622
3.85733	3621
3.85800	3620
3.85867	3618
3.85933	3617
3.86000	3616
3.86067	3615
3.86133	3613
3.86200	3612
3.86267	3611
3.86333	3609
3.86400	3608
3.86467	3607
3.86533	3606
3.86600	3604
3.86667	3603
3.86733	3602
3.86800	3600
3.86867	3599
3.86933	3598
3.87000	3597
3.87067	3595
3.87133	3594
3.87200	3593
3.87267	3592
3.87333	3590
3.87400	3589
3.87467	3588
3.87533	3587
3.87600	3586
3.87667	3585
3.87733	3583
3.87800	3582
3.87867	3581
3.87933	3580
3.88000	3579
3.88067	3578
3.88133	3577
3.88200	3576
3.88267	3575
3.88333	3574
3.88400	3573
3.88467	3572
3.88533	3571
3.88600	3570
3.88667	3569
3.88733	3569
3.88800	3568
3.88867	3567
3.88933	3567
3.89000	3566
3.89067	3566
3.89133	3565
3.89200	3564
3.89267	3564
3.89333	3563
3.89400	3563
3.89467	3562
3.89533	3562
3.89600	3561
3.89667	3561
3.89733	3560
3.89800	3560
3.89867	3560
3.89933	3559
3.90000	3559
3.90067	3559
3.90133	3558
3.90200	3558
3.90267	3558
3.90333	3557
3.90400	3557
3.90467	3557
3.90533	3556
3.90600	3556
3.90667	3556
3.90733	3556
3.90800	3555
3.90867	3555
3.90933	3555
3.91000	3554
3.91067	3554
3.91133	3554
3.91200	3554
3.91267	3553
3.91333	3553
3.91400	3553
3.91467	3552
3.91533	3552
3.91600	3552
3.91667	3552
3.91733	3551
3.91800	3551
3.91867	3551
3.91933	3551
3.92000	3550
3.92067	3550
3.92133	3550
3.92200	3550
3.92267	3549
3.92333	3549
3.92400	3549
3.92467	3549
3.92533	3548
3.92600	3548
3.92667	3548
3.92733	3547
3.92800	3547
3.92867	3547
3.92933	3547
3.93000	3547
3.93067	3546
3.93133	3546
3.93200	3546
3.93267	3546
3.93333	3545
3.93400	3545
3.93467	3545
3.93533	3545
3.93600	3544
3.93667	3544
3.93733	3544
3.93800	3543
3.93867	3543
3.93933	3543
3.94000	3542
3.94067	3542
3.94133	3542
3.94200	3541
3.94267	3541
3.94333	3541
3.94400	3540
3.94467	3540
3.94533	3540
3.94600	3539
3.94667	3539
3.94733	3538
3.94800	3538
3.94867	3538
3.94933	3537
3.95000	3537
3.95067	3537
3.95133	3536
3.95200	3536
3.95267	3536
3.95333	3535
3.95400	3535
3.95467	3534
3.95533	3534
3.95600	3533
3.95667	3533
3.95733	3532
3.95800	3532
3.95867	3531
3.95933	3531
3.96000	3530
3.96067	3530
3.96133	3529
3.96200	3529
3.96267	3528
3.96333	3528
3.96400	3527
3.96467	3527
3.96533	3526
3.96600	3526
3.96667	3525
3.96733	3525
3.96800	3524
3.96867	3524
3.96933	3524
3.97000	3523
3.97067	3523
3.97133	3523
3.97200	3522
3.97267	3522
3.97333	3522
3.97400	3521
3.97467	3521
3.97533	3521
3.97600	3521
3.97667	3520
3.97733	3520
3.97800	3520
3.97867	3520
3.97933	3520
3.98000	3520
3.98067	3519
3.98133	3519
3.98200	3519
3.98267	3519
3.98333	3519
3.98400	3519
3.98467	3519
3.98533	3519
3.98600	3519
3.98667	3519
3.98733	3519
3.98800	3519
3.98867	3520
3.98933	3520
3.99000	3520
3.99067	3520
3.99133	3521
3.99200	3521
3.99267	3522
3.99333	3522
3.99400	3523
3.99467	3523
3.99533	3524
3.99600	3525
3.99667	3526
3.99733	3527
3.99800	3528
3.99867	3529
3.99933	3530
4.00000	3531
4.00067	3532
4.00133	3533
4.00200	3535
4.00267	3536
4.00333	3537
4.00400	3539
4.00467	3540
4.00533	3542
4.00600	3544
4.00667	3546
4.00733	3548
4.00800	3550
4.00867	3552
4.00933	3554
4.01000	3556
4.01067	3558
4.01133	3561
4.01200	3563
4.01267	3566
4.01333	3568
4.01400	3571
4.01467	3574
4.01533	3577
4.01600	3580
4.01667	3584
4.01733	3587
4.01800	3591
4.01867	3594
4.01933	3598
4.02000	3602
4.02067	3606
4.02133	3610
4.02200	3614
4.02267	3618
4.02333	3622
4.02400	3627
4.02467	3632
4.02533	3636
4.02600	3641
4.02667	3646
4.02733	3651
4.02800	3657
4.02867	3662
4.02933	3667
4.03000	3673
4.03067	3678
4.03133	3684
4.03200	3690
4.03267	3696
4.03333	3702
4.03400	3708
4.03467	3714
4.03533	3720
4.03600	3726
4.03667	3733
4.03733	3739
4.03800	3746
4.03867	3752
4.03933	3759
4.04000	3766
4.04067	3773
4.04133	3780
4.04200	3787
4.04267	3794
4.04333	3801
4.04400	3809
4.04467	3816
4.04533	3823
4.04600	3831
4.04667	3838
4.04733	3846
4.04800	3853
4.04867	3861
4.04933	3869
4.05000	3877
4.05067	3884
4.05133	3892
4.05200	3900
4.05267	3908
4.05333	3916
4.05400	3924
4.05467	3932
4.05533	3940
4.05600	3947
4.05667	3955
4.05733	3963
4.05800	3971
4.05867	3979
4.05933	3987
4.06000	3995
4.06067	4003
4.06133	4010
4.06200	4018
4.06267	4026
4.06333	4033
4.06400	4041
4.06467	4048
4.06533	4056
4.06600	4063
4.06667	4070
4.06733	4077
4.06800	4084
4.06867	4091
4.06933	4098
4.07000	4105
4.07067	4112
4.07133	4119
4.07200	4126
4.07267	4132
4.07333	4139
4.07400	4145
4.07467	4152
4.07533	4158
4.07600	4164
4.07667	4170
4.07733	4176
4.07800	4182
4.07867	4188
4.07933	4194
4.08000	4199
4.08067	4205
4.08133	4210
4.08200	4215
4.08267	4220
4.08333	4226
4.08400	4230
4.08467	4235
4.08533	4240
4.08600	4245
4.08667	4249
4.08733	4254
4.08800	4258
4.08867	4262
4.08933	4266
4.09000	4270
4.09067	4274
4.09133	4277
4.09200	4281
4.09267	4284
4.09333	4288
4.09400	4291
4.09467	4294
4.09533	4297
4.09600	4300
4.09667	4302
4.09733	4305
4.09800	4308
4.09867	4310
4.09933	4312
4.10000	4315
4.10067	4317
4.10133	4319
4.10200	4321
4.10267	4323
4.10333	4324
4.10400	4326
4.10467	4328
4.10533	4330
4.10600	4331
4.10667	4333
4.10733	4335
4.10800	4336
4.10867	4337
4.10933	4339
4.11000	4340
4.11067	4342
4.11133	4343
4.11200	4345
4.11267	4346
4.11333	4348
4.11400	4349
4.11467	4351
4.11533	4352
4.11600	4354
4.11667	4355
4.11733	4357
4.11800	4358
4.11867	4360
4.11933	4361
4.12000	4363
4.12067	4364
4.12133	4366
4.12200	4368
4.12267	4369
4.12333	4371
4.12400	4373
4.12467	4374
4.12533	4376
4.12600	4378
4.12667	4379
4.12733	4381
4.12800	4383
4.12867	4385
4.12933	4387
4.13000	4389
4.13067	4391
4.13133	4393
4.13200	4395
4.13267	4397
4.13333	4400
4.13400	4402
4.13467	4404
4.13533	4406
4.13600	4409
4.13667	4411
4.13733	4414
4.13800	4416
4.13867	4419
4.13933	4421
4.14000	4424
4.14067	4426
4.14133	4429
4.14200	4431
4.14267	4434
4.14333	4437
4.14400	4439
4.14467	4442
4.14533	4445
4.14600	4448
4.14667	4450
4.14733	4453
4.14800	4456
4.14867	4459
4.14933	4462
4.15000	4464
4.15067	4467
4.15133	4470
4.15200	4473
4.15267	4476
4.15333	4478
4.15400	4481
4.15467	4484
4.15533	4487
4.15600	4490
4.15667	4492
4.15733	4495
4.15800	4498
4.15867	4501
4.15933	4504
4.16000	4506
4.16067	4509
4.16133	4512
4.16200	4515
4.16267	4518
4.16333	4521
4.16400	4523
4.16467	4526
4.16533	4529
4.16600	4532
4.16667	4535
4.16733	4538
4.16800	4540
4.16867	4543
4.16933	4546
4.17000	4549
4.17067	4552
4.17133	4555
4.17200	4557
4.17267	4560
4.17333	4563
4.17400	4566
4.17467	4569
4.17533	4572
4.17600	4575
4.17667	4578
4.17733	4582
4.17800	4585
4.17867	4588
4.17933	4591
4.18000	4594
4.18067	4598
4.18133	4601
4.18200	4605
4.18267	4608
4.18333	4612
4.18400	4616
4.18467	4619
4.18533	4623
4.18600	4627
4.18667	4632
4.18733	4636
4.18800	4640
4.18867	4645
4.18933	4650
4.19000	4655
4.19067	4660
4.19133	4666
4.19200	4671
4.19267	4677
4.19333	4683
4.19400	4689
4.19467	4696
4.19533	4702
4.19600	4709
4.19667	4717
4.19733	4724
4.19800	4732
4.19867	4741
4.19933	4749
4.20000	4758
4.20067	4768
4.20133	4778
4.20200	4788
4.20267	4799
4.20333	4810
4.20400	4821
4.20467	4834
4.20533	4846
4.20600	4860
4.20667	4874
4.20733	4888
4.20800	4904
4.20867	4920
4.20933	4936
4.21000	4954
4.21067	4972
4.21133	4991
4.21200	5011
4.21267	5032
4.21333	5054
4.21400	5076
4.21467	5100
4.21533	5125
4.21600	5150
4.21667	5177
4.21733	5205
4.21800	5234
4.21867	5264
4.21933	5296
4.22000	5329
4.22067	5363
4.22133	5398
4.22200	5435
4.22267	5473
4.22333	5513
4.22400	5554
4.22467	5597
4.22533	5641
4.22600	5687
4.22667	5734
4.22733	5784
4.22800	5834
4.22867	5887
4.22933	5941
4.23000	5998
4.23067	6056
4.23133	6116
4.23200	6178
4.23267	6241
4.23333	6307
4.23400	6375
4.23467	6446
4.23533	6518
4.23600	6593
4.23667	6670
4.23733	6749
4.23800	6830
4.23867	6914
4.23933	7001
4.24000	7089
4.24067	7180
4.24133	7274
4.24200	7370
4.24267	7469
4.24333	7570
4.24400	7674
4.24467	7781
4.24533	7890
4.24600	8002
4.24667	8117
4.24733	8235
4.24800	8356
4.24867	8480
4.24933	8607
4.25000	8737
4.25067	8871
4.25133	9008
4.25200	9148
4.25267	9291
4.25333	9438
4.25400	9589
4.25467	9743
4.25533	9901
4.25600	10063
4.25667	10228
4.25733	10397
4.25800	10570
4.25867	10746
4.25933	10926
4.26000	11110
4.26067	11298
4.26133	11489
4.26200	11684
4.26267	11883
4.26333	12086
4.26400	12292
4.26467	12502
4.26533	12716
4.26600	12933
4.26667	13154
4.26733	13379
4.26800	13608
4.26867	13840
4.26933	14076
4.27000	14316
4.27067	14559
4.27133	14807
4.27200	15058
4.27267	15313
4.27333	15573
4.27400	15836
4.27467	16103
4.27533	16374
4.27600	16650
4.27667	16929
4.27733	17213
4.27800	17500
4.27867	17792
4.27933	18088
4.28000	18388
4.28067	18692
4.28133	19001
4.28200	19314
4.28267	19632
4.28333	19954
4.28400	20281
4.28467	20612
4.28533	20947
4.28600	21286
4.28667	21630
4.28733	21978
4.28800	22329
4.28867	22685
4.28933	23045
4.29000	23409
4.29067	23777
4.29133	24148
4.29200	24524
4.29267	24903
4.29333	25285
4.29400	25672
4.29467	26061
4.29533	26454
4.29600	26851
4.29667	27250
4.29733	27652
4.29800	28057
4.29867	28465
4.29933	28875
4.30000	29287
4.30067	29702
4.30133	30119
4.30200	30538
4.30267	30958
4.30333	31380
4.30400	31803
4.30467	32227
4.30533	32652
4.30600	33079
4.30667	33506
4.30733	33934
4.30800	34362
4.30867	34791
4.30933	35220
4.31000	35649
4.31067	36078
4.31133	36507
4.31200	36936
4.31267	37365
4.31333	37794
4.31400	38222
4.31467	38649
4.31533	39076
4.31600	39501
4.31667	39924
4.31733	40346
4.31800	40765
4.31867	41183
4.31933	41597
4.32000	42009
4.32067	42419
4.32133	42825
4.32200	43228
4.32267	43627
4.32333	44023
4.32400	44415
4.32467	44803
4.32533	45186
4.32600	45565
4.32667	45939
4.32733	46307
4.32800	46670
4.32867	47026
4.32933	47375
4.33000	47718
4.33067	48052
4.33133	48379
4.33200	48699
4.33267	49009
4.33333	49312
4.33400	49605
4.33467	49890
4.33533	50166
4.33600	50433
4.33667	50691
4.33733	50939
4.33800	51178
4.33867	51407
4.33933	51626
4.34000	51835
4.34067	52034
4.34133	52222
4.34200	52399
4.34267	52566
4.34333	52722
4.34400	52867
4.34467	53001
4.34533	53124
4.34600	53236
4.34667	53337
4.34733	53428
4.34800	53507
4.34867	53575
4.34933	53633
4.35000	53679
4.35067	53715
4.35133	53740
4.35200	53755
4.35267	53759
4.35333	53752
4.35400	53735
4.35467	53708
4.35533	53670
4.35600	53622
4.35667	53563
4.35733	53495
4.35800	53416
4.35867	53328
4.35933	53229
4.36000	53121
4.36067	53003
4.36133	52876
4.36200	52740
4.36267	52595
4.36333	52440
4.36400	52278
4.36467	52107
4.36533	51927
4.36600	51740
4.36667	51546
4.36733	51343
4.36800	51134
4.36867	50918
4.36933	50695
4.37000	50466
4.37067	50231
4.37133	49991
4.37200	49745
4.37267	49493
4.37333	49237
4.37400	48976
4.37467	48711
4.37533	48442
4.37600	48169
4.37667	47893
4.37733	47614
4.37800	47332
4.37867	47047
4.37933	46761
4.38000	46472
4.38067	46181
4.38133	45889
4.38200	45595
4.38267	45300
4.38333	45004
4.38400	44708
4.38467	44411
4.38533	44114
4.38600	43818
4.38667	43522
4.38733	43226
4.38800	42931
4.38867	42638
4.38933	42346
4.39000	42055
4.39067	41766
4.39133	41479
4.39200	41195
4.39267	40913
4.39333	40633
4.39400	40356
4.39467	40082
4.39533	39811
4.39600	39543
4.39667	39279
4.39733	39017
4.39800	38760
4.39867	38505
4.39933	38255
4.40000	38008
4.40067	37766
4.40133	37527
4.40200	37292
4.40267	37062
4.40333	36836
4.40400	36614
4.40467	36397
4.40533	36184
4.40600	35975
4.40667	35770
4.40733	35570
4.40800	35375
4.40867	35183
4.40933	34996
4.41000	34813
4.41067	34635
4.41133	34460
4.41200	34291
4.41267	34125
4.41333	33963
4.41400	33806
4.41467	33653
4.41533	33504
4.41600	33359
4.41667	33217
4.41733	33080
4.41800	32947
4.41867	32817
4.41933	32692
4.42000	32569
4.42067	32451
4.42133	32335
4.42200	32223
4.42267	32115
4.42333	32009
4.42400	31907
4.42467	31807
4.42533	31711
4.42600	31617
4.42667	31527
4.42733	31439
4.42800	31354
4.42867	31271
4.42933	31191
4.43000	31113
4.43067	31038
4.43133	30964
4.43200	30893
4.43267	30824
4.43333	30756
4.43400	30690
4.43467	30626
4.43533	30563
4.43600	30502
4.43667	30441
4.43733	30383
4.43800	30325
4.43867	30268
4.43933	30212
4.44000	30157
4.44067	30104
4.44133	30051
4.44200	29998
4.44267	29947
4.44333	29895
4.44400	29845
4.44467	29795
4.44533	29745
4.44600	29695
4.44667	29646
4.44733	29596
4.44800	29547
4.44867	29497
4.44933	29447
4.45000	29397
4.45067	29346
4.45133	29294
4.45200	29242
4.45267	29189
4.45333	29135
4.45400	29081
4.45467	29025
4.45533	28969
4.45600	28912
4.45667	28853
4.45733	28794
4.45800	28733
4.45867	28672
4.45933	28609
4.46000	28545
4.46067	28480
4.46133	28413
4.46200	28346
4.46267	28276
4.46333	28206
4.46400	28134
4.46467	28061
4.46533	27986
4.46600	27910
4.46667	27832
4.46733	27754
4.46800	27673
4.46867	27592
4.46933	27508
4.47000	27424
4.47067	27338
4.47133	27250
4.47200	27162
4.47267	27071
4.47333	26980
4.47400	26887
4.47467	26792
4.47533	26697
4.47600	26600
4.47667	26501
4.47733	26402
4.47800	26301
4.47867	26198
4.47933	26095
4.48000	25990
4.48067	25884
4.48133	25776
4.48200	25668
4.48267	25558
4.48333	25447
4.48400	25335
4.48467	25222
4.48533	25108
4.48600	24993
4.48667	24877
4.48733	24760
4.48800	24641
4.48867	24522
4.48933	24402
4.49000	24282
4.49067	24160
4.49133	24038
4.49200	23915
4.49267	23792
4.49333	23668
4.49400	23543
4.49467	23418
4.49533	23293
4.49600	23167
4.49667	23040
4.49733	22914
4.49800	22787
4.49867	22660
4.49933	22532
4.50000	22405
4.50067	22277
4.50133	22149
4.50200	22021
4.50267	21893
4.50333	21765
4.50400	21637
4.50467	21509
4.50533	21381
4.50600	21254
4.50667	21126
4.50733	20999
4.50800	20871
4.50867	20744
4.50933	20617
4.51000	20491
4.51067	20365
4.51133	20239
4.51200	20114
4.51267	19989
4.51333	19865
4.51400	19742
4.51467	19618
4.51533	19496
4.51600	19374
4.51667	19253
4.51733	19132
4.51800	19012
4.51867	18893
4.51933	18775
4.52000	18657
4.52067	18540
4.52133	18424
4.52200	18309
4.52267	18195
4.52333	18081
4.52400	17969
4.52467	17857
4.52533	17746
4.52600	17636
4.52667	17527
4.52733	17419
4.52800	17312
4.52867	17206
4.52933	17101
4.53000	16997
4.53067	16894
4.53133	16792
4.53200	16692
4.53267	16592
4.53333	16494
4.53400	16397
4.53467	16301
4.53533	16206
4.53600	16112
4.53667	16020
4.53733	15928
4.53800	15838
4.53867	15749
4.53933	15661
4.54000	15575
4.54067	15490
4.54133	15405
4.54200	15322
4.54267	15241
4.54333	15160
4.54400	15081
4.54467	15004
4.54533	14927
4.54600	14852
4.54667	14778
4.54733	14705
4.54800	14634
4.54867	14564
4.54933	14495
4.55000	14428
4.55067	14362
4.55133	14297
4.55200	14233
4.55267	14171
4.55333	14110
4.55400	14050
4.55467	13991
4.55533	13934
4.55600	13878
4.55667	13823
4.55733	13770
4.55800	13718
4.55867	13667
4.55933	13617
4.56000	13568
4.56067	13520
4.56133	13474
4.56200	13428
4.56267	13384
4.56333	13341
4.56400	13299
4.56467	13258
4.56533	13218
4.56600	13179
4.56667	13141
4.56733	13104
4.56800	13068
4.56867	13033
4.56933	12999
4.57000	12966
4.57067	12933
4.57133	12902
4.57200	12871
4.57267	12842
4.57333	12813
4.57400	12785
4.57467	12758
4.57533	12732
4.57600	12706
4.57667	12681
4.57733	12657
4.57800	12633
4.57867	12610
4.57933	12588
4.58000	12566
4.58067	12545
4.58133	12525
4.58200	12505
4.58267	12485
4.58333	12467
4.58400	12448
4.58467	12430
4.58533	12413
4.58600	12396
4.58667	12379
4.58733	12363
4.58800	12347
4.58867	12332
4.58933	12317
4.59000	12302
4.59067	12287
4.59133	12273
4.59200	12259
4.59267	12245
4.59333	12231
4.59400	12217
4.59467	12204
4.59533	12191
4.59600	12178
4.59667	12165
4.59733	12152
4.59800	12139
4.59867	12126
4.59933	12114
4.60000	12101
4.60067	12088
4.60133	12076
4.60200	12063
4.60267	12051
4.60333	12038
4.60400	12025
4.60467	12012
4.60533	11999
4.60600	11986
4.60667	11973
4.60733	11960
4.60800	11947
4.60867	11934
4.60933	11920
4.61000	11907
4.61067	11893
4.61133	11879
4.61200	11865
4.61267	11851
4.61333	11836
4.61400	11822
4.61467	11807
4.61533	11792
4.61600	11777
4.61667	11762
4.61733	11747
4.61800	11731
4.61867	11715
4.61933	11699
4.62000	11683
4.62067	11667
4.62133	11651
4.62200	11634
4.62267	11617
4.62333	11600
4.62400	11583
4.62467	11565
4.62533	11548
4.62600	11530
4.62667	11512
4.62733	11494
4.62800	11475
4.62867	11457
4.62933	11438
4.63000	11419
4.63067	11400
4.63133	11380
4.63200	11361
4.63267	11341
4.63333	11322
4.63400	11302
4.63467	11282
4.63533	11261
4.63600	11241
4.63667	11221
4.63733	11200
4.63800	11179
4.63867	11158
4.63933	11137
4.64000	11116
4.64067	11095
4.64133	11074
4.64200	11053
4.64267	11031
4.64333	11010
4.64400	10989
4.64467	10967
4.64533	10946
4.64600	10924
4.64667	10903
4.64733	10881
4.64800	10860
4.64867	10838
4.64933	10816
4.65000	10795
4.65067	10773
4.65133	10752
4.65200	10730
4.65267	10709
4.65333	10687
4.65400	10666
4.65467	10644
4.65533	10623
4.65600	10601
4.65667	10580
4.65733	10558
4.65800	10537
4.65867	10515
4.65933	10494
4.66000	10472
4.66067	10451
4.66133	10430
4.66200	10408
4.66267	10387
4.66333	10365
4.66400	10344
4.66467	10323
4.66533	10302
4.66600	10281
4.66667	10260
4.66733	10239
4.66800	10218
4.66867	10198
4.66933	10177
4.67000	10157
4.67067	10136
4.67133	10116
4.67200	10095
4.67267	10075
4.67333	10055
4.67400	10035
4.67467	10014
4.67533	9994
4.67600	9975
4.67667	9955
4.67733	9935
4.67800	9915
4.67867	9896
4.67933	9876
4.68000	9857
4.68067	9837
4.68133	9818
4.68200	9799
4.68267	9780
4.68333	9762
4.68400	9743
4.68467	9724
4.68533	9706
4.68600	9687
4.68667	9669
4.68733	9651
4.68800	9633
4.68867	9614
4.68933	9596
4.69000	9579
4.69067	9561
4.69133	9543
4.69200	9525
4.69267	9508
4.69333	9491
4.69400	9473
4.69467	9456
4.69533	9439
4.69600	9423
4.69667	9406
4.69733	9389
4.69800	9373
4.69867	9357
4.69933	9341
4.70000	9325
4.70067	9309
4.70133	9293
4.70200	9277
4.70267	9261
4.70333	9246
4.70400	9230
4.70467	9214
4.70533	9199
4.70600	9184
4.70667	9168
4.70733	9153
4.70800	9138
4.70867	9123
4.70933	9108
4.71000	9094
4.71067	9079
4.71133	9065
4.71200	9051
4.71267	9036
4.71333	9022
4.71400	9008
4.71467	8994
4.71533	8981
4.71600	8967
4.71667	8953
4.71733	8940
4.71800	8926
4.71867	8913
4.71933	8900
4.72000	8886
4.72067	8873
4.72133	8860
4.72200	8847
4.72267	8834
4.72333	8821
4.72400	8809
4.72467	8796
4.72533	8784
4.72600	8771
4.72667	8759
4.72733	8746
4.72800	8734
4.72867	8722
4.72933	8710
4.73000	8698
4.73067	8686
4.73133	8674
4.73200	8663
4.73267	8651
4.73333	8640
4.73400	8629
4.73467	8617
4.73533	8606
4.73600	8595
4.73667	8585
4.73733	8574
4.73800	8564
4.73867	8553
4.73933	8543
4.74000	8533
4.74067	8523
4.74133	8513
4.74200	8503
4.74267	8493
4.74333	8484
4.74400	8474
4.74467	8465
4.74533	8455
4.74600	8446
4.74667	8437
4.74733	8427
4.74800	8418
4.74867	8409
4.74933	8400
4.75000	8391
4.75067	8382
4.75133	8374
4.75200	8365
4.75267	8356
4.75333	8348
4.75400	8339
4.75467	8331
4.75533	8322
4.75600	8314
4.75667	8306
4.75733	8297
4.75800	8289
4.75867	8281
4.75933	8273
4.76000	8265
4.76067	8257
4.76133	8249
4.76200	8241
4.76267	8234
4.76333	8226
4.76400	8218
4.76467	8211
4.76533	8203
4.76600	8196
4.76667	8189
4.76733	8181
4.76800	8174
4.76867	8167
4.76933	8160
4.77000	8153
4.77067	8146
4.77133	8139
4.77200	8133
4.77267	8126
4.77333	8119
4.77400	8113
4.77467	8106
4.77533	8100
4.77600	8093
4.77667	8087
4.77733	8080
4.77800	8074
4.77867	8067
4.77933	8061
4.78000	8054
4.78067	8048
4.78133	8042
4.78200	8035
4.78267	8029
4.78333	8023
4.78400	8016
4.78467	8010
4.78533	8004
4.78600	7997
4.78667	7991
4.78733	7985
4.78800	7979
4.78867	7972
4.78933	7966
4.79000	7960
4.79067	7954
4.79133	7948
4.79200	7942
4.79267	7935
4.79333	7929
4.79400	7923
4.79467	7917
4.79533	7911
4.79600	7904
4.79667	7898
4.79733	7892
4.79800	7886
4.79867	7880
4.79933	7873
4.80000	7867
4.80067	7861
4.80133	7855
4.80200	7849
4.80267	7842
4.80333	7836
4.80400	7830
4.80467	7824
4.80533	7818
4.80600	7812
4.80667	7806
4.80733	7801
4.80800	7795
4.80867	7789
4.80933	7784
4.81000	7778
4.81067	7773
4.81133	7767
4.81200	7762
4.81267	7756
4.81333	7751
4.81400	7746
4.81467	7741
4.81533	7736
4.81600	7731
4.81667	7726
4.81733	7721
4.81800	7716
4.81867	7711
4.81933	7707
4.82000	7702
4.82067	7697
4.82133	7693
4.82200	7688
4.82267	7684
4.82333	7679
4.82400	7675
4.82467	7671
4.82533	7666
4.82600	7662
4.82667	7658
4.82733	7654
4.82800	7650
4.82867	7646
4.82933	7642
4.83000	7638
4.83067	7634
4.83133	7630
4.83200	7626
4.83267	7623
4.83333	7619
4.83400	7615
4.83467	7611
4.83533	7608
4.83600	7604
4.83667	7601
4.83733	7597
4.83800	7593
4.83867	7590
4.83933	7586
4.84000	7583
4.84067	7579
4.84133	7576
4.84200	7572
4.84267	7569
4.84333	7565
4.84400	7562
4.84467	7558
4.84533	7554
4.84600	7551
4.84667	7547
4.84733	7544
4.84800	7540
4.84867	7536
4.84933	7533
4.85000	7529
4.85067	7526
4.85133	7522
4.85200	7518
4.85267	7514
4.85333	7511
4.85400	7507
4.85467	7503
4.85533	7499
4.85600	7496
4.85667	7492
4.85733	7488
4.85800	7484
4.85867	7480
4.85933	7476
4.86000	7473
4.86067	7469
4.86133	7464
4.86200	7460
4.86267	7456
4.86333	7452
4.86400	7448
4.86467	7444
4.86533	7439
4.86600	7435
4.86667	7431
4.86733	7426
4.86800	7422
4.86867	7418
4.86933	7414
4.87000	7409
4.87067	7405
4.87133	7401
4.87200	7397
4.87267	7393
4.87333	7389
4.87400	7385
4.87467	7381
4.87533	7377
4.87600	7373
4.87667	7369
4.87733	7365
4.87800	7361
4.87867	7357
4.87933	7353
4.88000	7349
4.88067	7345
4.88133	7341
4.88200	7337
4.88267	7333
4.88333	7329
4.88400	7325
4.88467	7321
4.88533	7317
4.88600	7314
4.88667	7310
4.88733	7306
4.88800	7302
4.88867	7298
4.88933	7294
4.89000	7290
4.89067	7287
4.89133	7283
4.89200	7279
4.89267	7275
4.89333	7272
4.89400	7268
4.89467	7264
4.89533	7261
4.89600	7257
4.89667	7253
4.89733	7250
4.89800	7246
4.89867	7243
4.89933	7240
4.90000	7236
4.90067	7233
4.90133	7229
4.90200	7226
4.90267	7223
4.90333	7219
4.90400	7216
4.90467	7213
4.90533	7209
4.90600	7206
4.90667	7203
4.90733	7199
4.90800	7196
4.90867	7193
4.90933	7189
4.91000	7186
4.91067	7183
4.91133	7180
4.91200	7177
4.91267	7173
4.91333	7170
4.91400	7167
4.91467	7163
4.91533	7160
4.91600	7157
4.91667	7154
4.91733	7150
4.91800	7147
4.91867	7144
4.91933	7141
4.92000	7138
4.92067	7135
4.92133	7131
4.92200	7128
4.92267	7125
4.92333	7122
4.92400	7119
4.92467	7116
4.92533	7113
4.92600	7110
4.92667	7107
4.92733	7104
4.92800	7101
4.92867	7098
4.92933	7095
4.93000	7091
4.93067	7088
4.93133	7085
4.93200	7082
4.93267	7079
4.93333	7075
4.93400	7072
4.93467	7069
4.93533	7066
4.93600	7062
4.93667	7059
4.93733	7056
4.93800	7052
4.93867	7049
4.93933	7046
4.94000	7042
4.94067	7039
4.94133	7036
4.94200	7033
4.94267	7030
4.94333	7027
4.94400	7024
4.94467	7021
4.94533	7018
4.94600	7015
4.94667	7012
4.94733	7009
4.94800	7006
4.94867	7003
4.94933	7000
4.95000	6997
4.95067	6995
4.95133	6992
4.95200	6989
4.95267	6986
4.95333	6984
4.95400	6981
4.95467	6978
4.95533	6976
4.95600	6973
4.95667	6970
4.95733	6968
4.95800	6965
4.95867	6962
4.95933	6960
4.96000	6958
4.96067	6955
4.96133	6953
4.96200	6950
4.96267	6948
4.96333	6946
4.96400	6944
4.96467	6941
4.96533	6939
4.96600	6937
4.96667	6935
4.96733	6933
4.96800	6930
4.96867	6928
4.96933	6926
4.97000	6924
4.97067	6922
4.97133	6919
4.97200	6917
4.97267	6915
4.97333	6913
4.97400	6911
4.97467	6908
4.97533	6906
4.97600	6904
4.97667	6902
4.97733	6900
4.97800	6898
4.97867	6895
4.97933	6893
4.98000	6891
4.98067	6889
4.98133	6886
4.98200	6884
4.98267	6881
4.98333	6879
4.98400	6877
4.98467	6874
4.98533	6872
4.98600	6869
4.98667	6867
4.98733	6864
4.98800	6861
4.98867	6859
4.98933	6857
4.99000	6854
4.99067	6852
4.99133	6849
4.99200	6847
4.99267	6845
4.99333	6842
4.99400	6840
4.99467	6837
4.99533	6835
4.99600	6833
4.99667	6830
4.99733	6828
4.99800	6825
4.99867	6823
4.99933	6820
5.00000	6818
5.00067	6815
5.00133	6812
5.00200	6810
5.00267	6807
5.00333	6805
5.00400	6802
5.00467	6800
5.00533	6797
5.00600	6794
5.00667	6792
5.00733	6789
5.00800	6787
5.00867	6784
5.00933	6781
5.01000	6779
5.01067	6776
5.01133	6773
5.01200	6771
5.01267	6768
5.01333	6765
5.01400	6763
5.01467	6760
5.01533	6758
5.01600	6755
5.01667	6752
5.01733	6750
5.01800	6747
5.01867	6745
5.01933	6742
5.02000	6739
5.02067	6737
5.02133	6734
5.02200	6732
5.02267	6729
5.02333	6727
5.02400	6724
5.02467	6722
5.02533	6719
5.02600	6717
5.02667	6714
5.02733	6712
5.02800	6709
5.02867	6707
5.02933	6704
5.03000	6702
5.03067	6699
5.03133	6697
5.03200	6694
5.03267	6692
5.03333	6689
5.03400	6686
5.03467	6684
5.03533	6681
5.03600	6679
5.03667	6676
5.03733	6673
5.03800	6671
5.03867	6668
5.03933	6666
5.04000	6663
5.04067	6660
5.04133	6658
5.04200	6655
5.04267	6653
5.04333	6650
5.04400	6647
5.04467	6644
5.04533	6642
5.04600	6639
5.04667	6636
5.04733	6634
5.04800	6631
5.04867	6628
5.04933	6626
5.05000	6623
5.05067	6620
5.05133	6618
5.05200	6615
5.05267	6613
5.05333	6610
5.05400	6608
5.05467	6605
5.05533	6603
5.05600	6600
5.05667	6598
5.05733	6595
5.05800	6593
5.05867	6590
5.05933	6588
5.06000	6585
5.06067	6583
5.06133	6580
5.06200	6578
5.06267	6575
5.06333	6573
5.06400	6570
5.06467	6568
5.06533	6565
5.06600	6563
5.06667	6560
5.06733	6558
5.06800	6556
5.06867	6553
5.06933	6551
5.07000	6549
5.07067	6546
5.07133	6544
5.07200	6541
5.07267	6539
5.07333	6537
5.07400	6534
5.07467	6532
5.07533	6530
5.07600	6527
5.07667	6525
5.07733	6523
5.07800	6521
5.07867	6518
5.07933	6516
5.08000	6514
5.08067	6511
5.08133	6509
5.08200	6507
5.08267	6505
5.08333	6502
5.08400	6500
5.08467	6498
5.08533	6496
5.08600	6493
5.08667	6491
5.08733	6489
5.08800	6487
5.08867	6485
5.08933	6483
5.09000	6480
5.09067	6478
5.09133	6476
5.09200	6474
5.09267	6472
5.09333	6470
5.09400	6467
5.09467	6465
5.09533	6463
5.09600	6461
5.09667	6459
5.09733	6456
5.09800	6454
5.09867	6452
5.09933	6449
5.10000	6447
5.10067	6445
5.10133	6442
5.10200	6440
5.10267	6437
5.10333	6435
5.10400	6432
5.10467	6430
5.10533	6427
5.10600	6425
5.10667	6422
5.10733	6420
5.10800	6417
5.10867	6415
5.10933	6413
5.11000	6410
5.11067	6408
5.11133	6405
5.11200	6403
5.11267	6401
5.11333	6399
5.11400	6396
5.11467	6394
5.11533	6392
5.11600	6390
5.11667	6388
5.11733	6386
5.11800	6384
5.11867	6382
5.11933	6380
5.12000	6379
5.12067	6377
5.12133	6375
5.12200	6373
5.12267	6371
5.12333	6370
5.12400	6368
5.12467	6366
5.12533	6365
5.12600	6363
5.12667	6361
5.12733	6359
5.12800	6358
5.12867	6356
5.12933	6354
5.13000	6353
5.13067	6351
5.13133	6349
5.13200	6348
5.13267	6346
5.13333	6344
5.13400	6343
5.13467	6341
5.13533	6340
5.13600	6338
5.13667	6336
5.13733	6335
5.13800	6333
5.13867	6332
5.13933	6330
5.14000	6329
5.14067	6327
5.14133	6326
5.14200	6325
5.14267	6323
5.14333	6322
5.14400	6321
5.14467	6320
5.14533	6319
5.14600	6318
5.14667	6317
5.14733	6316
5.14800	6315
5.14867	6313
5.14933	6312
5.15000	6311
5.15067	6310
5.15133	6309
5.15200	6308
5.15267	6307
5.15333	6306
5.15400	6305
5.15467	6303
5.15533	6302
5.15600	6301
5.15667	6300
5.15733	6299
5.15800	6298
5.15867	6297
5.15933	6295
5.16000	6294
5.16067	6293
5.16133	6292
5.16200	6291
5.16267	6290
5.16333	6289
5.16400	6288
5.16467	6286
5.16533	6285
5.16600	6284
5.16667	6283
5.16733	6283
5.16800	6282
5.16867	6281
5.16933	6280
5.17000	6279
5.17067	6278
5.17133	6277
5.17200	6277
5.17267	6276
5.17333	6275
5.17400	6274
5.17467	6274
5.17533	6273
5.17600	6272
5.17667	6272
5.17733	6271
5.17800	6270
5.17867	6270
5.17933	6269
5.18000	6268
5.18067	6267
5.18133	6267
5.18200	6266
5.18267	6265
5.18333	6265
5.18400	6264
5.18467	6264
5.18533	6263
5.18600	6262
5.18667	6262
5.18733	6261
5.18800	6261
5.18867	6260
5.18933	6260
5.19000	6259
5.19067	6259
5.19133	6259
5.19200	6258
5.19267	6258
5.19333	6257
5.19400	6257
5.19467	6257
5.19533	6257
5.19600	6256
5.19667	6256
5.19733	6256
5.19800	6256
5.19867	6255
5.19933	6255
5.20000	6255
5.20067	6255
5.20133	6254
5.20200	6254
5.20267	6254
5.20333	6253
5.20400	6253
5.20467	6252
5.20533	6252
5.20600	6251
5.20667	6251
5.20733	6250
5.20800	6250
5.20867	6249
5.20933	6248
5.21000	6247
5.21067	6246
5.21133	6246
5.21200	6245
5.21267	6244
5.21333	6243
5.21400	6241
5.21467	6240
5.21533	6239
5.21600	6238
5.21667	6237
5.21733	6235
5.21800	6234
5.21867	6233
5.21933	6232
5.22000	6230
5.22067	6229
5.22133	6227
5.22200	6226
5.22267	6224
5.22333	6223
5.22400	6221
5.22467	6220
5.22533	6218
5.22600	6217
5.22667	6215
5.22733	6213
5.22800	6212
5.22867	6210
5.22933	6208
5.23000	6207
5.23067	6205
5.23133	6203
5.23200	6201
5.23267	6199
5.23333	6198
5.23400	6196
5.23467	6194
5.23533	6192
5.23600	6190
5.23667	6188
5.23733	6186
5.23800	6184
5.23867	6182
5.23933	6180
5.24000	6178
5.24067	6176
5.24133	6174
5.24200	6171
5.24267	6169
5.24333	6167
5.24400	6165
5.24467	6162
5.24533	6160
5.24600	6158
5.24667	6155
5.24733	6153
5.24800	6151
5.24867	6148
5.24933	6146
5.25000	6143
5.25067	6141
5.25133	6139
5.25200	6136
5.25267	6134
5.25333	6131
5.25400	6129
5.25467	6127
5.25533	6124
5.25600	6122
5.25667	6120
5.25733	6117
5.25800	6115
5.25867	6113
5.25933	6111
5.26000	6109
5.26067	6107
5.26133	6105
5.26200	6103
5.26267	6101
5.26333	6099
5.26400	6097
5.26467	6096
5.26533	6094
5.26600	6092
5.26667	6090
5.26733	6088
5.26800	6086
5.26867	6084
5.26933	6082
5.27000	6080
5.27067	6078
5.27133	6076
5.27200	6074
5.27267	6072
5.27333	6070
5.27400	6068
5.27467	6065
5.27533	6063
5.27600	6061
5.27667	6059
5.27733	6056
5.27800	6054
5.27867	6052
5.27933	6049
5.28000	6047
5.28067	6045
5.28133	6043
5.28200	6040
5.28267	6038
5.28333	6036
5.28400	6033
5.28467	6031
5.28533	6029
5.28600	6027
5.28667	6024
5.28733	6022
5.28800	6020
5.28867	6017
5.28933	6015
5.29000	6013
5.29067	6011
5.29133	6008
5.29200	6006
5.29267	6003
5.29333	6001
5.29400	5999
5.29467	5996
5.29533	5994
5.29600	5991
5.29667	5989
5.29733	5986
5.29800	5984
5.29867	5982
5.29933	5979
5.30000	5977
5.30067	5974
5.30133	5972
5.30200	5969
5.30267	5967
5.30333	5964
5.30400	5962
5.30467	5960
5.30533	5957
5.30600	5955
5.30667	5952
5.30733	5950
5.30800	5948
5.30867	5945
5.30933	5943
5.31000	5941
5.31067	5939
5.31133	5936
5.31200	5934
5.31267	5932
5.31333	5930
5.31400	5928
5.31467	5926
5.31533	5924
5.31600	5922
5.31667	5920
5.31733	5917
5.31800	5915
5.31867	5913
5.31933	5911
5.32000	5909
5.32067	5907
5.32133	5905
5.32200	5903
5.32267	5901
5.32333	5899
5.32400	5897
5.32467	5895
5.32533	5893
5.32600	5891
5.32667	5889
5.32733	5887
5.32800	5885
5.32867	5883
5.32933	5881
5.33000	5879
5.33067	5877
5.33133	5875
5.33200	5874
5.33267	5872
5.33333	5870
5.33400	5868
5.33467	5867
5.33533	5865
5.33600	5863
5.33667	5861
5.33733	5860
5.33800	5858
5.33867	5857
5.33933	5855
5.34000	5853
5.34067	5852
5.34133	5850
5.34200	5849
5.34267	5847
5.34333	5846
5.34400	5844
5.34467	5843
5.34533	5842
5.34600	5840
5.34667	5839
5.34733	5838
5.34800	5837
5.34867	5836
5.34933	5834
5.35000	5833
5.35067	5832
5.35133	5831
5.35200	5830
5.35267	5829
5.35333	5828
5.35400	5826
5.35467	5825
5.35533	5824
5.35600	5823
5.35667	5822
5.35733	5821
5.35800	5820
5.35867	5819
5.35933	5818
5.36000	5817
5.36067	5815
5.36133	5814
5.36200	5813
5.36267	5812
5.36333	5811
5.36400	5809
5.36467	5808
5.36533	5807
5.36600	5806
5.36667	5805
5.36733	5804
5.36800	5803
5.36867	5802
5.36933	5801
5.37000	5799
5.37067	5798
5.37133	5797
5.37200	5796
5.37267	5794
5.37333	5793
5.37400	5792
5.37467	5791
5.37533	5789
5.37600	5788
5.37667	5787
5.37733	5785
5.37800	5784
5.37867	5783
5.37933	5781
5.38000	5780
5.38067	5779
5.38133	5777
5.38200	5776
5.38267	5774
5.38333	5773
5.38400	5772
5.38467	5771
5.38533	5769
5.38600	5768
5.38667	5767
5.38733	5766
5.38800	5764
5.38867	5763
5.38933	5762
5.39000	5761
5.39067	5759
5.39133	5758
5.39200	5757
5.39267	5755
5.39333	5754
5.39400	5753
5.39467	5752
5.39533	5750
5.39600	5749
5.39667	5748
5.39733	5746
5.39800	5745
5.39867	5744
5.39933	5742
5.40000	5741
5.40067	5739
5.40133	5738
5.40200	5737
5.40267	5735
5.40333	5734
5.40400	5732
5.40467	5731
5.40533	5730
5.40600	5729
5.40667	5727
5.40733	5726
5.40800	5725
5.40867	5724
5.40933	5723
5.41000	5722
5.41067	5721
5.41133	5720
5.41200	5719
5.41267	5718
5.41333	5717
5.41400	5716
5.41467	5715
5.41533	5714
5.41600	5713
5.41667	5712
5.41733	5711
5.41800	5710
5.41867	5708
5.41933	5707
5.42000	5706
5.42067	5705
5.42133	5704
5.42200	5703
5.42267	5702
5.42333	5701
5.42400	5699
5.42467	5698
5.42533	5697
5.42600	5696
5.42667	5694
5.42733	5693
5.42800	5692
5.42867	5690
5.42933	5689
5.43000	5688
5.43067	5686
5.43133	5685
5.43200	5684
5.43267	5682
5.43333	5681
5.43400	5679
5.43467	5678
5.43533	5677
5.43600	5675
5.43667	5674
5.43733	5672
5.43800	5671
5.43867	5669
5.43933	5668
5.44000	5666
5.44067	5665
5.44133	5663
5.44200	5662
5.44267	5660
5.44333	5659
5.44400	5657
5.44467	5656
5.44533	5654
5.44600	5653
5.44667	5651
5.44733	5649
5.44800	5648
5.44867	5646
5.44933	5645
5.45000	5643
5.45067	5642
5.45133	5640
5.45200	5638
5.45267	5636
5.45333	5635
5.45400	5633
5.45467	5631
5.45533	5629
5.45600	5628
5.45667	5626
5.45733	5624
5.45800	5623
5.45867	5621
5.45933	5620
5.46000	5618
5.46067	5616
5.46133	5615
5.46200	5613
5.46267	5612
5.46333	5610
5.46400	5608
5.46467	5607
5.46533	5605
5.46600	5604
5.46667	5602
5.46733	5601
5.46800	5599
5.46867	5597
5.46933	5595
5.47000	5594
5.47067	5592
5.47133	5590
5.47200	5588
5.47267	5586
5.47333	5585
5.47400	5583
5.47467	5581
5.47533	5579
5.47600	5577
5.47667	5576
5.47733	5574
5.47800	5572
5.47867	5570
5.47933	5569
5.48000	5567
5.48067	5565
5.48133	5564
5.48200	5562
5.48267	5560
5.48333	5559
5.48400	5557
5.48467	5556
5.48533	5554
5.48600	5553
5.48667	5551
5.48733	5550
5.48800	5548
5.48867	5546
5.48933	5545
5.49000	5543
5.49067	5542
5.49133	5540
5.49200	5538
5.49267	5537
5.49333	5535
5.49400	5534
5.49467	5533
5.49533	5531
5.49600	5530
5.49667	5528
5.49733	5527
5.49800	5525
5.49867	5524
5.49933	5522
5.50000	5521
5.50067	5520
5.50133	5518
5.50200	5517
5.50267	5515
5.50333	5514
5.50400	5512
5.50467	5511
5.50533	5510
5.50600	5508
5.50667	5507
5.50733	5505
5.50800	5504
5.50867	5502
5.50933	5501
5.51000	5500
5.51067	5498
5.51133	5497
5.51200	5496
5.51267	5494
5.51333	5493
5.51400	5491
5.51467	5490
5.51533	5488
5.51600	5487
5.51667	5486
5.51733	5484
5.51800	5483
5.51867	5481
5.51933	5480
5.52000	5478
5.52067	5477
5.52133	5476
5.52200	5474
5.52267	5473
5.52333	5472
5.52400	5470
5.52467	5469
5.52533	5468
5.52600	5466
5.52667	5465
5.52733	5464
5.52800	5463
5.52867	5462
5.52933	5461
5.53000	5460
5.53067	5459
5.53133	5458
5.53200	5457
5.53267	5456
5.53333	5455
5.53400	5454
5.53467	5453
5.53533	5452
5.53600	5451
5.53667	5450
5.53733	5449
5.53800	5448
5.53867	5447
5.53933	5446
5.54000	5445
5.54067	5444
5.54133	5443
5.54200	5442
5.54267	5441
5.54333	5441
5.54400	5440
5.54467	5439
5.54533	5438
5.54600	5437
5.54667	5436
5.54733	5435
5.54800	5434
5.54867	5434
5.54933	5433
5.55000	5432
5.55067	5431
5.55133	5430
5.55200	5429
5.55267	5428
5.55333	5427
5.55400	5427
5.55467	5426
5.55533	5425
5.55600	5424
5.55667	5423
5.55733	5423
5.55800	5422
5.55867	5421
5.55933	5420
5.56000	5419
5.56067	5418
5.56133	5417
5.56200	5417
5.56267	5416
5.56333	5415
5.56400	5414
5.56467	5413
5.56533	5412
5.56600	5411
5.56667	5410
5.56733	5410
5.56800	5409
5.56867	5408
5.56933	5407
5.57000	5406
5.57067	5406
5.57133	5405
5.57200	5404
5.57267	5403
5.57333	5402
5.57400	5402
5.57467	5401
5.57533	5400
5.57600	5399
5.57667	5398
5.57733	5398
5.57800	5397
5.57867	5396
5.57933	5395
5.58000	5394
5.58067	5393
5.58133	5393
5.58200	5392
5.58267	5391
5.58333	5390
5.58400	5389
5.58467	5388
5.58533	5388
5.58600	5387
5.58667	5386
5.58733	5386
5.58800	5385
5.58867	5384
5.58933	5384
5.59000	5383
5.59067	5382
5.59133	5382
5.59200	5381
5.59267	5381
5.59333	5380
5.59400	5380
5.59467	5379
5.59533	5379
5.59600	5378
5.59667	5378
5.59733	5378
5.59800	5377
5.59867	5377
5.59933	5376
5.60000	5376
5.60067	5375
5.60133	5375
5.60200	5375
5.60267	5374
5.60333	5374
5.60400	5373
5.60467	5373
5.60533	5373
5.60600	5372
5.60667	5372
5.60733	5371
5.60800	5371
5.60867	5371
5.60933	5370
5.61000	5370
5.61067	5369
5.61133	5369
5.61200	5368
5.61267	5368
5.61333	5368
5.61400	5367
5.61467	5367
5.61533	5366
5.61600	5366
5.61667	5365
5.61733	5365
5.61800	5364
5.61867	5364
5.61933	5363
5.62000	5363
5.62067	5362
5.62133	5362
5.62200	5361
5.62267	5361
5.62333	5360
5.62400	5360
5.62467	5359
5.62533	5358
5.62600	5358
5.62667	5357
5.62733	5356
5.62800	5356
5.62867	5355
5.62933	5354
5.63000	5353
5.63067	5353
5.63133	5352
5.63200	5351
5.63267	5350
5.63333	5349
5.63400	5348
5.63467	5347
5.63533	5346
5.63600	5345
5.63667	5344
5.63733	5343
5.63800	5342
5.63867	5341
5.63933	5341
5.64000	5340
5.64067	5339
5.64133	5338
5.64200	5337
5.64267	5336
5.64333	5335
5.64400	5334
5.64467	5333
5.64533	5332
5.64600	5332
5.64667	5331
5.64733	5330
5.64800	5329
5.64867	5329
5.64933	5328
5.65000	5327
5.65067	5326
5.65133	5326
5.65200	5325
5.65267	5324
5.65333	5323
5.65400	5323
5.65467	5322
5.65533	5321
5.65600	5320
5.65667	5320
5.65733	5319
5.65800	5318
5.65867	5317
5.65933	5317
5.66000	5316
5.66067	5315
5.66133	5315
5.66200	5314
5.66267	5313
5.66333	5312
5.66400	5312
5.66467	5311
5.66533	5310
5.66600	5309
5.66667	5309
5.66733	5308
5.66800	5307
5.66867	5306
5.66933	5305
5.67000	5305
5.67067	5304
5.67133	5303
5.67200	5302
5.67267	5302
5.67333	5301
5.67400	5300
5.67467	5300
5.67533	5299
5.67600	5298
5.67667	5297
5.67733	5297
5.67800	5296
5.67867	5295
5.67933	5295
5.68000	5294
5.68067	5293
5.68133	5292
5.68200	5292
5.68267	5291
5.68333	5290
5.68400	5289
5.68467	5288
5.68533	5288
5.68600	5287
5.68667	5286
5.68733	5285
5.68800	5284
5.68867	5284
5.68933	5283
5.69000	5282
5.69067	5281
5.69133	5281
5.69200	5280
5.69267	5279
5.69333	5278
5.69400	5278
5.69467	5277
5.69533	5276
5.69600	5275
5.69667	5274
5.69733	5274
5.69800	5273
5.69867	5272
5.69933	5271
5.70000	5270
5.70067	5270
5.70133	5269
5.70200	5268
5.70267	5268
5.70333	5267
5.70400	5266
5.70467	5266
5.70533	5265
5.70600	5264
5.70667	5264
5.70733	5263
5.70800	5262
5.70867	5262
5.70933	5261
5.71000	5261
5.71067	5260
5.71133	5259
5.71200	5259
5.71267	5258
5.71333	5257
5.71400	5257
5.71467	5256
5.71533	5255
5.71600	5255
5.71667	5254
5.71733	5253
5.71800	5253
5.71867	5252
5.71933	5251
5.72000	5251
5.72067	5250
5.72133	5249
5.72200	5248
5.72267	5248
5.72333	5247
5.72400	5246
5.72467	5245
5.72533	5244
5.72600	5244
5.72667	5243
5.72733	5242
5.72800	5241
5.72867	5240
5.72933	5239
5.73000	5239
5.73067	5238
5.73133	5237
5.73200	5236
5.73267	5235
5.73333	5235
5.73400	5234
5.73467	5233
5.73533	5232
5.73600	5232
5.73667	5231
5.73733	5230
5.73800	5229
5.73867	5229
5.73933	5228
5.74000	5228
5.74067	5227
5.74133	5227
5.74200	5226
5.74267	5226
5.74333	5225
5.74400	5225
5.74467	5224
5.74533	5224
5.74600	5224
5.74667	5224
5.74733	5223
5.74800	5223
5.74867	5223
5.74933	5223
5.75000	5223
5.75067	5222
5.75133	5222
5.75200	5222
5.75267	5222
5.75333	5222
5.75400	5222
5.75467	5222
5.75533	5222
5.75600	5222
5.75667	5222
5.75733	5222
5.75800	5222
5.75867	5222
5.75933	5222
5.76000	5223
5.76067	5223
5.76133	5223
5.76200	5224
5.76267	5224
5.76333	5224
5.76400	5225
5.76467	5225
5.76533	5226
5.76600	5226
5.76667	5227
5.76733	5227
5.76800	5227
5.76867	5228
5.76933	5228
5.77000	5229
5.77067	5229
5.77133	5229
5.77200	5230
5.77267	5230
5.77333	5230
5.77400	5231
5.77467	5231
5.77533	5231
5.77600	5232
5.77667	5232
5.77733	5232
5.77800	5232
5.77867	5233
5.77933	5233
5.78000	5233
5.78067	5234
5.78133	5234
5.78200	5234
5.78267	5235
5.78333	5235
5.78400	5236
5.78467	5236
5.78533	5237
5.78600	5237
5.78667	5238
5.78733	5238
5.78800	5239
5.78867	5239
5.78933	5240
5.79000	5241
5.79067	5241
5.79133	5242
5.79200	5243
5.79267	5244
5.79333	5244
5.79400	5245
5.79467	5246
5.79533	5247
5.79600	5248
5.79667	5248
5.79733	5249
5.79800	5250
5.79867	5251
5.79933	5252
5.80000	5253
5.80067	5254
5.80133	5255
5.80200	5256
5.80267	5257
5.80333	5258
5.80400	5260
5.80467	5261
5.80533	5262
5.80600	5263
5.80667	5264
5.80733	5266
5.80800	5267
5.80867	5268
5.80933	5269
5.81000	5271
5.81067	5272
5.81133	5273
5.81200	5274
5.81267	5276
5.81333	5277
5.81400	5278
5.81467	5279
5.81533	5280
5.81600	5281
5.81667	5282
5.81733	5284
5.81800	5285
5.81867	5286
5.81933	5287
5.82000	5288
5.82067	5290
5.82133	5291
5.82200	5292
5.82267	5293
5.82333	5294
5.82400	5296
5.82467	5297
5.82533	5298
5.82600	5299
5.82667	5300
5.82733	5301
5.82800	5302
5.82867	5304
5.82933	5305
5.83000	5306
5.83067	5307
5.83133	5307
5.83200	5308
5.83267	5309
5.83333	5310
5.83400	5311
5.83467	5312
5.83533	5312
5.83600	5313
5.83667	5314
5.83733	5314
5.83800	5315
5.83867	5316
5.83933	5316
5.84000	5317
5.84067	5318
5.84133	5318
5.84200	5319
5.84267	5319
5.84333	5320
5.84400	5321
5.84467	5321
5.84533	5321
5.84600	5322
5.84667	5323
5.84733	5323
5.84800	5324
5.84867	5324
5.84933	5324
5.85000	5325
5.85067	5325
5.85133	5326
5.85200	5326
5.85267	5327
5.85333	5327
5.85400	5328
5.85467	5328
5.85533	5329
5.85600	5329
5.85667	5329
5.85733	5330
5.85800	5330
5.85867	5330
5.85933	5330
5.86000	5330
5.86067	5331
5.86133	5331
5.86200	5331
5.86267	5331
5.86333	5331
5.86400	5331
5.86467	5331
5.86533	5331
5.86600	5331
5.86667	5331
5.86733	5331
5.86800	5330
5.86867	5330
5.86933	5330
5.87000	5330
5.87067	5330
5.87133	5329
5.87200	5329
5.87267	5329
5.87333	5328
5.87400	5328
5.87467	5327
5.87533	5327
5.87600	5327
5.87667	5326
5.87733	5326
5.87800	5325
5.87867	5325
5.87933	5324
5.88000	5324
5.88067	5323
5.88133	5322
5.88200	5322
5.88267	5321
5.88333	5321
5.88400	5320
5.88467	5319
5.88533	5318
5.88600	5318
5.88667	5317
5.88733	5316
5.88800	5315
5.88867	5314
5.88933	5314
5.89000	5313
5.89067	5312
5.89133	5311
5.89200	5310
5.89267	5309
5.89333	5308
5.89400	5307
5.89467	5306
5.89533	5305
5.89600	5304
5.89667	5303
5.89733	5302
5.89800	5301
5.89867	5300
5.89933	5299
5.90000	5298
5.90067	5297
5.90133	5296
5.90200	5295
5.90267	5294
5.90333	5293
5.90400	5292
5.90467	5291
5.90533	5290
5.90600	5289
5.90667	5288
5.90733	5287
5.90800	5286
5.90867	5285
5.90933	5284
5.91000	5283
5.91067	5283
5.91133	5282
5.91200	5281
5.91267	5280
5.91333	5280
5.91400	5279
5.91467	5278
5.91533	5277
5.91600	5276
5.91667	5276
5.91733	5275
5.91800	5274
5.91867	5274
5.91933	5273
5.92000	5272
5.92067	5272
5.92133	5271
5.92200	5270
5.92267	5270
5.92333	5269
5.92400	5268
5.92467	5267
5.92533	5266
5.92600	5265
5.92667	5264
5.92733	5264
5.92800	5263
5.92867	5262
5.92933	5261
5.93000	5259
5.93067	5258
5.93133	5257
5.93200	5256
5.93267	5255
5.93333	5254
5.93400	5253
5.93467	5253
5.93533	5252
5.93600	5251
5.93667	5250
5.93733	5249
5.93800	5248
5.93867	5247
5.93933	5246
5.94000	5245
5.94067	5244
5.94133	5243
5.94200	5242
5.94267	5241
5.94333	5240
5.94400	5239
5.94467	5238
5.94533	5237
5.94600	5237
5.94667	5236
5.94733	5235
5.94800	5234
5.94867	5233
5.94933	5232
5.95000	5231
5.95067	5230
5.95133	5229
5.95200	5228
5.95267	5227
5.95333	5226
5.95400	5225
5.95467	5224
5.95533	5222
5.95600	5221
5.95667	5220
5.95733	5219
5.95800	5218
5.95867	5217
5.95933	5216
5.96000	5215
5.96067	5214
5.96133	5213
5.96200	5212
5.96267	5211
5.96333	5210
5.96400	5209
5.96467	5209
5.96533	5208
5.96600	5207
5.96667	5206
5.96733	5205
5.96800	5204
5.96867	5204
5.96933	5203
5.97000	5202
5.97067	5201
5.97133	5201
5.97200	5200
5.97267	5199
5.97333	5199
5.97400	5198
5.97467	5197
5.97533	5197
5.97600	5196
5.97667	5196
5.97733	5195
5.97800	5194
5.97867	5194
5.97933	5193
5.98000	5193
5.98067	5192
5.98133	5191
5.98200	5191
5.98267	5190
5.98333	5189
5.98400	5189
5.98467	5188
5.98533	5187
5.98600	5187
5.98667	5186
5.98733	5186
5.98800	5185
5.98867	5184
5.98933	5184
5.99000	5183
5.99067	5182
5.99133	5182
5.99200	5181
5.99267	5180
5.99333	5180
5.99400	5179
5.99467	5179
5.99533	5178
5.99600	5178
5.99667	5177
5.99733	5177
5.99800	5176
5.99867	5176
5.99933	5175
6.00000	5175
6.00067	5174
6.00133	5174
6.00200	5173
6.00267	5173
6.00333	5172
6.00400	5172
6.00467	5171
6.00533	5171
6.00600	5170
6.00667	5169
6.00733	5169
6.00800	5168
6.00867	5168
6.00933	5167
6.01000	5167
6.01067	5166
6.01133	5165
6.01200	5165
6.01267	5164
6.01333	5164
6.01400	5163
6.01467	5162
6.01533	5162
6.01600	5161
6.01667	5161
6.01733	5160
6.01800	5160
6.01867	5159
6.01933	5159
6.02000	5158
6.02067	5158
6.02133	5157
6.02200	5157
6.02267	5156
6.02333	5156
6.02400	5156
6.02467	5155
6.02533	5155
6.02600	5155
6.02667	5154
6.02733	5154
6.02800	5154
6.02867	5154
6.02933	5154
6.03000	5153
6.03067	5153
6.03133	5153
6.03200	5153
6.03267	5153
6.03333	5153
6.03400	5153
6.03467	5153
6.03533	5153
6.03600	5153
6.03667	5153
6.03733	5153
6.03800	5153
6.03867	5153
6.03933	5153
6.04000	5153
6.04067	5153
6.04133	5152
6.04200	5152
6.04267	5152
6.04333	5152
6.04400	5152
6.04467	5152
6.04533	5152
6.04600	5152
6.04667	5152
6.04733	5152
6.04800	5152
6.04867	5152
6.04933	5152
6.05000	5151
6.05067	5151
6.05133	5151
6.05200	5151
6.05267	5151
6.05333	5151
6.05400	5151
6.05467	5151
6.05533	5151
6.05600	5151
6.05667	5151
6.05733	5150
6.05800	5150
6.05867	5150
6.05933	5150
6.06000	5150
6.06067	5150
6.06133	5149
6.06200	5149
6.06267	5149
6.06333	5149
6.06400	5149
6.06467	5148
6.06533	5148
6.06600	5148
6.06667	5148
6.06733	5147
6.06800	5147
6.06867	5147
6.06933	5146
6.07000	5146
6.07067	5146
6.07133	5146
6.07200	5145
6.07267	5145
6.07333	5145
6.07400	5144
6.07467	5144
6.07533	5144
6.07600	5144
6.07667	5143
6.07733	5143
6.07800	5143
6.07867	5143
6.07933	5143
6.08000	5142
6.08067	5142
6.08133	5142
6.08200	5142
6.08267	5142
6.08333	5142
6.08400	5142
6.08467	5141
6.08533	5141
6.08600	5141
6.08667	5141
6.08733	5141
6.08800	5140
6.08867	5140
6.08933	5140
6.09000	5140
6.09067	5140
6.09133	5139
6.09200	5139
6.09267	5139
6.09333	5139
6.09400	5138
6.09467	5138
6.09533	5138
6.09600	5137
6.09667	5137
6.09733	5137
6.09800	5136
6.09867	5136
6.09933	5136
6.10000	5135
6.10067	5135
6.10133	5135
6.10200	5134
6.10267	5134
6.10333	5134
6.10400	5134
6.10467	5133
6.10533	5133
6.10600	5133
6.10667	5132
6.10733	5132
6.10800	5132
6.10867	5131
6.10933	5131
6.11000	5131
6.11067	5131
6.11133	5130
6.11200	5130
6.11267	5130
6.11333	5130
6.11400	5129
6.11467	5129
6.11533	5129
6.11600	5129
6.11667	5128
6.11733	5128
6.11800	5128
6.11867	5127
6.11933	5127
6.12000	5127
6.12067	5127
6.12133	5126
6.12200	5126
6.12267	5126
6.12333	5126
6.12400	5125
6.12467	5125
6.12533	5125
6.12600	5124
6.12667	5124
6.12733	5124
6.12800	5123
6.12867	5123
6.12933	5123
6.13000	5122
6.13067	5122
6.13133	5122
6.13200	5121
6.13267	5121
6.13333	5121
6.13400	5120
6.13467	5120
6.13533	5120
6.13600	5119
6.13667	5119
6.13733	5119
6.13800	5118
6.13867	5118
6.13933	5117
6.14000	5117
6.14067	5117
6.14133	5116
6.14200	5116
6.14267	5115
6.14333	5115
6.14400	5115
6.14467	5114
6.14533	5114
6.14600	5113
6.14667	5113
6.14733	5112
6.14800	5112
6.14867	5111
6.14933	5111
6.15000	5110
6.15067	5110
6.15133	5109
6.15200	5109
6.15267	5108
6.15333	5108
6.15400	5107
6.15467	5107
6.15533	5106
6.15600	5106
6.15667	5105
6.15733	5105
6.15800	5105
6.15867	5104
6.15933	5104
6.16000	5103
6.16067	5103
6.16133	5102
6.16200	5102
6.16267	5101
6.16333	5101
6.16400	5100
6.16467	5100
6.16533	5099
6.16600	5098
6.16667	5098
6.16733	5097
6.16800	5097
6.16867	5096
6.16933	5096
6.17000	5095
6.17067	5095
6.17133	5094
6.17200	5094
6.17267	5093
6.17333	5093
6.17400	5092
6.17467	5092
6.17533	5092
6.17600	5091
6.17667	5091
6.17733	5090
6.17800	5090
6.17867	5090
6.17933	5089
6.18000	5089
6.18067	5089
6.18133	5088
6.18200	5088
6.18267	5088
6.18333	5087
6.18400	5087
6.18467	5087
6.18533	5087
6.18600	5086
6.18667	5086
6.18733	5086
6.18800	5086
6.18867	5086
6.18933	5086
6.19000	5085
6.19067	5085
6.19133	5085
6.19200	5085
6.19267	5085
6.19333	5085
6.19400	5085
6.19467	5085
6.19533	5085
6.19600	5085
6.19667	5085
6.19733	5085
6.19800	5085
6.19867	5085
6.19933	5085
6.20000	5085
6.20067	5085
6.20133	5084
6.20200	5084
6.20267	5084
6.20333	5084
6.20400	5084
6.20467	5084
6.20533	5084
6.20600	5084
6.20667	5083
6.20733	5083
6.20800	5083
6.20867	5083
6.20933	5083
6.21000	5082
6.21067	5082
6.21133	5082
6.21200	5082
6.21267	5082
6.21333	5081
6.21400	5081
6.21467	5081
6.21533	5081
6.21600	5081
6.21667	5081
6.21733	5081
6.21800	5081
6.21867	5081
6.21933	5080
6.22000	5080
6.22067	5080
6.22133	5080
6.22200	5080
6.22267	5080
6.22333	5080
6.22400	5080
6.22467	5080
6.22533	5080
6.22600	5080
6.22667	5080
6.22733	5080
6.22800	5079
6.22867	5079
6.22933	5079
6.23000	5079
6.23067	5079
6.23133	5079
6.23200	5079
6.23267	5079
6.23333	5079
6.23400	5079
6.23467	5079
6.23533	5079
6.23600	5079
6.23667	5079
6.23733	5079
6.23800	5079
6.23867	5080
6.23933	5080
6.24000	5080
6.24067	5081
6.24133	5081
6.24200	5082
6.24267	5082
6.24333	5082
6.24400	5083
6.24467	5083
6.24533	5084
6.24600	5084
6.24667	5085
6.24733	5086
6.24800	5086
6.24867	5087
6.24933	5087
6.25000	5088
6.25067	5089
6.25133	5089
6.25200	5090
6.25267	5090
6.25333	5091
6.25400	5092
6.25467	5092
6.25533	5093
6.25600	5094
6.25667	5094
6.25733	5095
6.25800	5096
6.25867	5097
6.25933	5097
6.26000	5098
6.26067	5099
6.26133	5099
6.26200	5100
6.26267	5101
6.26333	5102
6.26400	5102
6.26467	5103
6.26533	5104
6.26600	5104
6.26667	5105
6.26733	5106
6.26800	5106
6.26867	5107
6.26933	5108
6.27000	5108
6.27067	5109
6.27133	5109
6.27200	5110
6.27267	5111
6.27333	5111
6.27400	5112
6.27467	5113
6.27533	5113
6.27600	5114
6.27667	5114
6.27733	5115
6.27800	5115
6.27867	5116
6.27933	5116
6.28000	5117
6.28067	5117
6.28133	5118
6.28200	5118
6.28267	5118
6.28333	5119
6.28400	5119
6.28467	5120
6.28533	5120
6.28600	5120
6.28667	5121
6.28733	5121
6.28800	5121
6.28867	5122
6.28933	5122
6.29000	5122
6.29067	5122
6.29133	5123
6.29200	5123
6.29267	5123
6.29333	5123
6.29400	5123
6.29467	5123
6.29533	5124
6.29600	5124
6.29667	5124
6.29733	5124
6.29800	5124
6.29867	5124
6.29933	5124
6.30000	5125
6.30067	5125
6.30133	5125
6.30200	5125
6.30267	5125
6.30333	5125
6.30400	5126
6.30467	5126
6.30533	5126
6.30600	5126
6.30667	5126
6.30733	5126
6.30800	5126
6.30867	5127
6.30933	5127
6.31000	5127
6.31067	5127
6.31133	5127
6.31200	5127
6.31267	5127
6.31333	5127
6.31400	5128
6.31467	5128
6.31533	5128
6.31600	5128
6.31667	5128
6.31733	5128
6.31800	5128
6.31867	5129
6.31933	5129
6.32000	5129
6.32067	5129
6.32133	5129
6.32200	5129
6.32267	5129
6.32333	5129
6.32400	5129
6.32467	5129
6.32533	5129
6.32600	5129
6.32667	5129
6.32733	5129
6.32800	5129
6.32867	5129
6.32933	5129
6.33000	5128
6.33067	5128
6.33133	5128
6.33200	5127
6.33267	5127
6.33333	5127
6.33400	5127
6.33467	5126
6.33533	5126
6.33600	5125
6.33667	5125
6.33733	5125
6.33800	5124
6.33867	5124
6.33933	5123
6.34000	5123
6.34067	5122
6.34133	5122
6.34200	5121
6.34267	5121
6.34333	5120
6.34400	5120
6.34467	5119
6.34533	5118
6.34600	5118
6.34667	5117
6.34733	5117
6.34800	5116
6.34867	5116
6.34933	5115
6.35000	5115
6.35067	5114
6.35133	5113
6.35200	5113
6.35267	5112
6.35333	5112
6.35400	5111
6.35467	5111
6.35533	5110
6.35600	5110
6.35667	5110
6.35733	5109
6.35800	5109
6.35867	5108
6.35933	5108
6.36000	5108
6.36067	5107
6.36133	5107
6.36200	5107
6.36267	5106
6.36333	5106
6.36400	5106
6.36467	5105
6.36533	5105
6.36600	5105
6.36667	5104
6.36733	5104
6.36800	5104
6.36867	5104
6.36933	5103
6.37000	5103
6.37067	5103
6.37133	5102
6.37200	5102
6.37267	5102
6.37333	5101
6.37400	5101
6.37467	5101
6.37533	5100
6.37600	5100
6.37667	5099
6.37733	5099
6.37800	5099
6.37867	5098
6.37933	5098
6.38000	5097
6.38067	5097
6.38133	5097
6.38200	5096
6.38267	5096
6.38333	5095
6.38400	5095
6.38467	5095
6.38533	5094
6.38600	5094
6.38667	5093
6.38733	5093
6.38800	5093
6.38867	5092
6.38933	5092
6.39000	5092
6.39067	5091
6.39133	5091
6.39200	5091
6.39267	5090
6.39333	5090
6.39400	5089
6.39467	5089
6.39533	5088
6.39600	5087
6.39667	5087
6.39733	5086
6.39800	5085
6.39867	5085
6.39933	5084

