[Header]
Application Name	LabSolutions
Version	5.73
Data File Name	C:\LabSolutions\Data\Project1\stephen\2016-01-06\50.gcd
Output Date	1/11/2016
Output Time	1:19:49 PM

[Configuration]
Instrument Name	WEISSTA-PC-Instrument1
Instrument #	1
Line #	1
# of Detectors	1
Detector ID	DET#2
Detector Name	DFID1
# of Channels	1

[Chromatogram (Ch1)]
Interval(msec)	40
# of Points	9600
Start Time(min)	0.000
End Time(min)	6.399
R.Time (min)	Intensity
0.00000	19
0.00067	19
0.00133	19
0.00200	19
0.00267	19
0.00333	19
0.00400	19
0.00467	19
0.00533	19
0.00600	19
0.00667	19
0.00733	18
0.00800	18
0.00867	18
0.00933	17
0.01000	16
0.01067	15
0.01133	13
0.01200	11
0.01267	8
0.01333	5
0.01400	2
0.01467	-2
0.01533	-7
0.01600	-11
0.01667	-17
0.01733	-22
0.01800	-28
0.01867	-35
0.01933	-41
0.02000	-48
0.02067	-55
0.02133	-62
0.02200	-69
0.02267	-76
0.02333	-82
0.02400	-89
0.02467	-96
0.02533	-102
0.02600	-108
0.02667	-114
0.02733	-120
0.02800	-126
0.02867	-131
0.02933	-136
0.03000	-141
0.03067	-145
0.03133	-150
0.03200	-154
0.03267	-157
0.03333	-161
0.03400	-164
0.03467	-167
0.03533	-169
0.03600	-172
0.03667	-174
0.03733	-176
0.03800	-177
0.03867	-179
0.03933	-180
0.04000	-182
0.04067	-183
0.04133	-183
0.04200	-184
0.04267	-184
0.04333	-185
0.04400	-185
0.04467	-185
0.04533	-185
0.04600	-185
0.04667	-185
0.04733	-185
0.04800	-184
0.04867	-184
0.04933	-184
0.05000	-183
0.05067	-183
0.05133	-182
0.05200	-181
0.05267	-181
0.05333	-180
0.05400	-179
0.05467	-178
0.05533	-177
0.05600	-176
0.05667	-175
0.05733	-174
0.05800	-173
0.05867	-172
0.05933	-171
0.06000	-170
0.06067	-169
0.06133	-168
0.06200	-167
0.06267	-166
0.06333	-164
0.06400	-163
0.06467	-162
0.06533	-161
0.06600	-160
0.06667	-159
0.06733	-158
0.06800	-157
0.06867	-156
0.06933	-155
0.07000	-154
0.07067	-153
0.07133	-152
0.07200	-151
0.07267	-150
0.07333	-149
0.07400	-148
0.07467	-147
0.07533	-146
0.07600	-145
0.07667	-144
0.07733	-143
0.07800	-142
0.07867	-141
0.07933	-140
0.08000	-139
0.08067	-138
0.08133	-137
0.08200	-137
0.08267	-136
0.08333	-135
0.08400	-134
0.08467	-134
0.08533	-133
0.08600	-133
0.08667	-132
0.08733	-132
0.08800	-131
0.08867	-130
0.08933	-130
0.09000	-129
0.09067	-129
0.09133	-128
0.09200	-127
0.09267	-125
0.09333	-124
0.09400	-121
0.09467	-117
0.09533	-110
0.09600	-103
0.09667	-93
0.09733	-82
0.09800	-71
0.09867	-58
0.09933	-42
0.10000	-23
0.10067	-0
0.10133	31
0.10200	100
0.10267	183
0.10333	264
0.10400	341
0.10467	415
0.10533	486
0.10600	554
0.10667	624
0.10733	699
0.10800	781
0.10867	860
0.10933	935
0.11000	1006
0.11067	1080
0.11133	1177
0.11200	1295
0.11267	1414
0.11333	1530
0.11400	1643
0.11467	1748
0.11533	1846
0.11600	1937
0.11667	2022
0.11733	2105
0.11800	2184
0.11867	2258
0.11933	2329
0.12000	2398
0.12067	2464
0.12133	2525
0.12200	2587
0.12267	2649
0.12333	2705
0.12400	2754
0.12467	2796
0.12533	2832
0.12600	2862
0.12667	2885
0.12733	2909
0.12800	2969
0.12867	3037
0.12933	3103
0.13000	3164
0.13067	3219
0.13133	3266
0.13200	3312
0.13267	3355
0.13333	3393
0.13400	3426
0.13467	3458
0.13533	3523
0.13600	3741
0.13667	4442
0.13733	6385
0.13800	11128
0.13867	21555
0.13933	42606
0.14000	82323
0.14067	153141
0.14133	272965
0.14200	464863
0.14267	754872
0.14333	1170250
0.14400	1736733
0.14467	2478144
0.14533	3415013
0.14600	4564604
0.14667	5938909
0.14733	7546037
0.14800	9390173
0.14867	11474343
0.14933	13798891
0.15000	16356678
0.15067	19126711
0.15133	22097120
0.15200	25284525
0.15267	28708471
0.15333	32370548
0.15400	36258734
0.15467	40352264
0.15533	44626558
0.15600	49055960
0.15667	53615515
0.15733	58281631
0.15800	63031887
0.15867	67844575
0.15933	72698716
0.16000	77573749
0.16067	82449964
0.16133	87308067
0.16200	92129851
0.16267	96897885
0.16333	101596025
0.16400	106208755
0.16467	110722181
0.16533	115123336
0.16600	119400957
0.16667	123544879
0.16733	127546416
0.16800	131397769
0.16867	135092697
0.16933	138625162
0.17000	141990504
0.17067	145185046
0.17133	148205920
0.17200	151050808
0.17267	153718247
0.17333	156207375
0.17400	158517890
0.17467	160650499
0.17533	162607557
0.17600	164392206
0.17667	166006696
0.17733	167452482
0.17800	168730354
0.17867	169841424
0.17933	170787132
0.18000	171569859
0.18067	172192373
0.18133	172658060
0.18200	172970528
0.18267	173133925
0.18333	173152639
0.18400	173031499
0.18467	172775399
0.18533	172389303
0.18600	171877972
0.18667	171246219
0.18733	170498884
0.18800	169640903
0.18867	168677357
0.18933	167613435
0.19000	166454356
0.19067	165205223
0.19133	163871083
0.19200	162456854
0.19267	160967423
0.19333	159407535
0.19400	157781915
0.19467	156095121
0.19533	154351657
0.19600	152555874
0.19667	150712102
0.19733	148824539
0.19800	146897293
0.19867	144934302
0.19933	142939406
0.20000	140916307
0.20067	138868602
0.20133	136799715
0.20200	134712933
0.20267	132611389
0.20333	130498099
0.20400	128375966
0.20467	126247831
0.20533	124116579
0.20600	121985282
0.20667	119857027
0.20733	117734489
0.20800	115619749
0.20867	113514350
0.20933	111419555
0.21000	109336462
0.21067	107266145
0.21133	105209629
0.21200	103167939
0.21267	101142073
0.21333	99133019
0.21400	97141738
0.21467	95169173
0.21533	93216227
0.21600	91283753
0.21667	89372548
0.21733	87483365
0.21800	85616903
0.21867	83773805
0.21933	81954649
0.22000	80159956
0.22067	78390192
0.22133	76645771
0.22200	74927052
0.22267	73234345
0.22333	71567915
0.22400	69927981
0.22467	68314728
0.22533	66728291
0.22600	65168772
0.22667	63636233
0.22733	62130705
0.22800	60652180
0.22867	59200623
0.22933	57775965
0.23000	56378120
0.23067	55006969
0.23133	53662372
0.23200	52344162
0.23267	51052154
0.23333	49786150
0.23400	48545936
0.23467	47331279
0.23533	46141926
0.23600	44977614
0.23667	43838064
0.23733	42722987
0.23800	41632083
0.23867	40565046
0.23933	39521563
0.24000	38501312
0.24067	37503963
0.24133	36529182
0.24200	35576630
0.24267	34645966
0.24333	33736847
0.24400	32848926
0.24467	31981856
0.24533	31135286
0.24600	30308863
0.24667	29502234
0.24733	28715046
0.24800	27946946
0.24867	27197582
0.24933	26466601
0.25000	25753653
0.25067	25058389
0.25133	24380462
0.25200	23719526
0.25267	23075238
0.25333	22447259
0.25400	21835251
0.25467	21238880
0.25533	20657815
0.25600	20091730
0.25667	19540300
0.25733	19003206
0.25800	18480130
0.25867	17970758
0.25933	17474783
0.26000	16991901
0.26067	16521814
0.26133	16064228
0.26200	15618853
0.26267	15185407
0.26333	14763608
0.26400	14353180
0.26467	13953852
0.26533	13565356
0.26600	13187429
0.26667	12819815
0.26733	12462258
0.26800	12114510
0.26867	11776326
0.26933	11447466
0.27000	11127696
0.27067	10816784
0.27133	10514506
0.27200	10220639
0.27267	9934967
0.27333	9657279
0.27400	9387368
0.27467	9125030
0.27533	8870069
0.27600	8622289
0.27667	8381502
0.27733	8147522
0.27800	7920167
0.27867	7699260
0.27933	7484629
0.28000	7276106
0.28067	7073525
0.28133	6876727
0.28200	6685554
0.28267	6499854
0.28333	6319478
0.28400	6144279
0.28467	5974118
0.28533	5808855
0.28600	5648355
0.28667	5492488
0.28733	5341126
0.28800	5194144
0.28867	5051422
0.28933	4912842
0.29000	4778287
0.29067	4647647
0.29133	4520812
0.29200	4397675
0.29267	4278133
0.29333	4162085
0.29400	4049431
0.29467	3940078
0.29533	3833932
0.29600	3730901
0.29667	3630898
0.29733	3533837
0.29800	3439633
0.29867	3348206
0.29933	3259476
0.30000	3173366
0.30067	3089802
0.30133	3008710
0.30200	2930018
0.30267	2853658
0.30333	2779562
0.30400	2707663
0.30467	2637899
0.30533	2570208
0.30600	2504529
0.30667	2440803
0.30733	2378973
0.30800	2318983
0.30867	2260781
0.30933	2204314
0.31000	2149532
0.31067	2096387
0.31133	2044831
0.31200	1994818
0.31267	1946305
0.31333	1899247
0.31400	1853603
0.31467	1809333
0.31533	1766399
0.31600	1724761
0.31667	1684383
0.31733	1645229
0.31800	1607266
0.31867	1570459
0.31933	1534776
0.32000	1500186
0.32067	1466658
0.32133	1434163
0.32200	1402670
0.32267	1372152
0.32333	1342582
0.32400	1313931
0.32467	1286175
0.32533	1259287
0.32600	1233244
0.32667	1208023
0.32733	1183601
0.32800	1159957
0.32867	1137071
0.32933	1114923
0.33000	1093496
0.33067	1072772
0.33133	1052736
0.33200	1033372
0.33267	1014666
0.33333	996605
0.33400	979176
0.33467	962368
0.33533	946170
0.33600	930572
0.33667	915563
0.33733	901136
0.33800	887280
0.33867	873989
0.33933	861256
0.34000	849078
0.34067	837453
0.34133	826379
0.34200	815857
0.34267	805889
0.34333	796476
0.34400	787623
0.34467	779334
0.34533	771619
0.34600	764490
0.34667	757963
0.34733	752054
0.34800	746782
0.34867	742163
0.34933	738211
0.35000	734937
0.35067	732342
0.35133	730422
0.35200	729164
0.35267	728551
0.35333	728558
0.35400	729155
0.35467	730310
0.35533	731987
0.35600	734151
0.35667	736765
0.35733	739791
0.35800	743195
0.35867	746944
0.35933	751004
0.36000	755346
0.36067	759940
0.36133	764759
0.36200	769776
0.36267	774967
0.36333	780307
0.36400	785773
0.36467	791344
0.36533	797000
0.36600	802725
0.36667	808501
0.36733	814314
0.36800	820148
0.36867	825992
0.36933	831835
0.37000	837667
0.37067	843481
0.37133	849269
0.37200	855024
0.37267	860739
0.37333	866407
0.37400	872023
0.37467	877583
0.37533	883083
0.37600	888517
0.37667	893882
0.37733	899175
0.37800	904392
0.37867	909533
0.37933	914596
0.38000	919583
0.38067	924495
0.38133	929333
0.38200	934099
0.38267	938796
0.38333	943429
0.38400	948001
0.38467	952514
0.38533	956968
0.38600	961364
0.38667	965699
0.38733	969969
0.38800	974171
0.38867	978297
0.38933	982341
0.39000	986294
0.39067	990146
0.39133	993884
0.39200	997500
0.39267	1000983
0.39333	1004327
0.39400	1007524
0.39467	1010569
0.39533	1013461
0.39600	1016198
0.39667	1018778
0.39733	1021200
0.39800	1023465
0.39867	1025571
0.39933	1027516
0.40000	1029297
0.40067	1030911
0.40133	1032350
0.40200	1033607
0.40267	1034674
0.40333	1035540
0.40400	1036191
0.40467	1036617
0.40533	1036802
0.40600	1036733
0.40667	1036398
0.40733	1035782
0.40800	1034873
0.40867	1033656
0.40933	1032114
0.41000	1030231
0.41067	1027991
0.41133	1025374
0.41200	1022364
0.41267	1018944
0.41333	1015101
0.41400	1010821
0.41467	1006091
0.41533	1000902
0.41600	995244
0.41667	989108
0.41733	982489
0.41800	975386
0.41867	967802
0.41933	959746
0.42000	951232
0.42067	942277
0.42133	932903
0.42200	923133
0.42267	912995
0.42333	902516
0.42400	891723
0.42467	880647
0.42533	869314
0.42600	857753
0.42667	845992
0.42733	834056
0.42800	821971
0.42867	809761
0.42933	797450
0.43000	785060
0.43067	772611
0.43133	760124
0.43200	747618
0.43267	735108
0.43333	722612
0.43400	710144
0.43467	697719
0.43533	685350
0.43600	673048
0.43667	660824
0.43733	648690
0.43800	636656
0.43867	624729
0.43933	612918
0.44000	601231
0.44067	589673
0.44133	578251
0.44200	566970
0.44267	555835
0.44333	544848
0.44400	534014
0.44467	523334
0.44533	512813
0.44600	502453
0.44667	492255
0.44733	482222
0.44800	472357
0.44867	462660
0.44933	453134
0.45000	443778
0.45067	434595
0.45133	425584
0.45200	416745
0.45267	408079
0.45333	399585
0.45400	391263
0.45467	383111
0.45533	375129
0.45600	367316
0.45667	359670
0.45733	352191
0.45800	344877
0.45867	337726
0.45933	330738
0.46000	323911
0.46067	317244
0.46133	310735
0.46200	304382
0.46267	298186
0.46333	292145
0.46400	286257
0.46467	280523
0.46533	274940
0.46600	269508
0.46667	264226
0.46733	259092
0.46800	254102
0.46867	249255
0.46933	244545
0.47000	239969
0.47067	235524
0.47133	231207
0.47200	227014
0.47267	222941
0.47333	218987
0.47400	215147
0.47467	211417
0.47533	207796
0.47600	204278
0.47667	200862
0.47733	197544
0.47800	194321
0.47867	191191
0.47933	188150
0.48000	185196
0.48067	182326
0.48133	179537
0.48200	176827
0.48267	174193
0.48333	171633
0.48400	169145
0.48467	166727
0.48533	164376
0.48600	162091
0.48667	159869
0.48733	157708
0.48800	155606
0.48867	153561
0.48933	151572
0.49000	149636
0.49067	147751
0.49133	145917
0.49200	144130
0.49267	142390
0.49333	140694
0.49400	139040
0.49467	137429
0.49533	135857
0.49600	134324
0.49667	132828
0.49733	131368
0.49800	129943
0.49867	128552
0.49933	127193
0.50000	125866
0.50067	124569
0.50133	123301
0.50200	122062
0.50267	120850
0.50333	119664
0.50400	118503
0.50467	117368
0.50533	116255
0.50600	115166
0.50667	114099
0.50733	113054
0.50800	112029
0.50867	111023
0.50933	110037
0.51000	109070
0.51067	108121
0.51133	107189
0.51200	106274
0.51267	105375
0.51333	104492
0.51400	103624
0.51467	102771
0.51533	101933
0.51600	101108
0.51667	100296
0.51733	99498
0.51800	98712
0.51867	97938
0.51933	97176
0.52000	96426
0.52067	95687
0.52133	94959
0.52200	94241
0.52267	93534
0.52333	92836
0.52400	92148
0.52467	91469
0.52533	90799
0.52600	90139
0.52667	89487
0.52733	88843
0.52800	88207
0.52867	87580
0.52933	86960
0.53000	86347
0.53067	85743
0.53133	85145
0.53200	84554
0.53267	83971
0.53333	83394
0.53400	82824
0.53467	82260
0.53533	81702
0.53600	81151
0.53667	80606
0.53733	80066
0.53800	79532
0.53867	79004
0.53933	78482
0.54000	77965
0.54067	77453
0.54133	76947
0.54200	76446
0.54267	75949
0.54333	75458
0.54400	74972
0.54467	74491
0.54533	74014
0.54600	73543
0.54667	73076
0.54733	72613
0.54800	72156
0.54867	71703
0.54933	71254
0.55000	70810
0.55067	70371
0.55133	69936
0.55200	69506
0.55267	69080
0.55333	68659
0.55400	68242
0.55467	67829
0.55533	67421
0.55600	67018
0.55667	66619
0.55733	66224
0.55800	65834
0.55867	65448
0.55933	65066
0.56000	64689
0.56067	64316
0.56133	63946
0.56200	63581
0.56267	63220
0.56333	62862
0.56400	62507
0.56467	62157
0.56533	61810
0.56600	61466
0.56667	61125
0.56733	60788
0.56800	60453
0.56867	60122
0.56933	59793
0.57000	59467
0.57067	59144
0.57133	58823
0.57200	58506
0.57267	58190
0.57333	57878
0.57400	57567
0.57467	57259
0.57533	56954
0.57600	56651
0.57667	56350
0.57733	56051
0.57800	55755
0.57867	55460
0.57933	55168
0.58000	54878
0.58067	54590
0.58133	54304
0.58200	54019
0.58267	53737
0.58333	53457
0.58400	53178
0.58467	52902
0.58533	52627
0.58600	52355
0.58667	52084
0.58733	51815
0.58800	51548
0.58867	51284
0.58933	51021
0.59000	50760
0.59067	50501
0.59133	50243
0.59200	49988
0.59267	49735
0.59333	49484
0.59400	49234
0.59467	48987
0.59533	48741
0.59600	48498
0.59667	48256
0.59733	48016
0.59800	47778
0.59867	47542
0.59933	47308
0.60000	47076
0.60067	46846
0.60133	46617
0.60200	46390
0.60267	46166
0.60333	45943
0.60400	45722
0.60467	45503
0.60533	45285
0.60600	45070
0.60667	44856
0.60733	44645
0.60800	44435
0.60867	44227
0.60933	44021
0.61000	43817
0.61067	43615
0.61133	43415
0.61200	43216
0.61267	43020
0.61333	42825
0.61400	42632
0.61467	42441
0.61533	42252
0.61600	42065
0.61667	41880
0.61733	41697
0.61800	41516
0.61867	41336
0.61933	41159
0.62000	40983
0.62067	40809
0.62133	40636
0.62200	40465
0.62267	40296
0.62333	40129
0.62400	39963
0.62467	39798
0.62533	39635
0.62600	39473
0.62667	39312
0.62733	39153
0.62800	38995
0.62867	38839
0.62933	38683
0.63000	38529
0.63067	38376
0.63133	38224
0.63200	38073
0.63267	37923
0.63333	37774
0.63400	37627
0.63467	37481
0.63533	37336
0.63600	37192
0.63667	37049
0.63733	36908
0.63800	36767
0.63867	36628
0.63933	36490
0.64000	36353
0.64067	36217
0.64133	36083
0.64200	35950
0.64267	35818
0.64333	35687
0.64400	35558
0.64467	35430
0.64533	35303
0.64600	35177
0.64667	35053
0.64733	34929
0.64800	34807
0.64867	34686
0.64933	34566
0.65000	34447
0.65067	34329
0.65133	34212
0.65200	34096
0.65267	33980
0.65333	33866
0.65400	33752
0.65467	33639
0.65533	33527
0.65600	33415
0.65667	33303
0.65733	33193
0.65800	33082
0.65867	32972
0.65933	32863
0.66000	32754
0.66067	32645
0.66133	32537
0.66200	32429
0.66267	32322
0.66333	32215
0.66400	32108
0.66467	32002
0.66533	31896
0.66600	31791
0.66667	31685
0.66733	31580
0.66800	31476
0.66867	31372
0.66933	31268
0.67000	31165
0.67067	31062
0.67133	30960
0.67200	30858
0.67267	30756
0.67333	30655
0.67400	30555
0.67467	30455
0.67533	30355
0.67600	30256
0.67667	30157
0.67733	30060
0.67800	29963
0.67867	29866
0.67933	29771
0.68000	29676
0.68067	29582
0.68133	29489
0.68200	29398
0.68267	29308
0.68333	29219
0.68400	29131
0.68467	29045
0.68533	28961
0.68600	28879
0.68667	28799
0.68733	28722
0.68800	28647
0.68867	28575
0.68933	28505
0.69000	28439
0.69067	28376
0.69133	28317
0.69200	28261
0.69267	28210
0.69333	28163
0.69400	28120
0.69467	28081
0.69533	28047
0.69600	28017
0.69667	27992
0.69733	27971
0.69800	27954
0.69867	27942
0.69933	27933
0.70000	27928
0.70067	27927
0.70133	27928
0.70200	27933
0.70267	27939
0.70333	27947
0.70400	27956
0.70467	27966
0.70533	27975
0.70600	27985
0.70667	27993
0.70733	28001
0.70800	28006
0.70867	28010
0.70933	28011
0.71000	28009
0.71067	28004
0.71133	27996
0.71200	27984
0.71267	27968
0.71333	27949
0.71400	27926
0.71467	27900
0.71533	27869
0.71600	27835
0.71667	27796
0.71733	27755
0.71800	27709
0.71867	27661
0.71933	27609
0.72000	27554
0.72067	27496
0.72133	27435
0.72200	27371
0.72267	27306
0.72333	27237
0.72400	27167
0.72467	27095
0.72533	27021
0.72600	26946
0.72667	26868
0.72733	26790
0.72800	26710
0.72867	26629
0.72933	26547
0.73000	26464
0.73067	26381
0.73133	26297
0.73200	26212
0.73267	26127
0.73333	26042
0.73400	25956
0.73467	25870
0.73533	25784
0.73600	25698
0.73667	25611
0.73733	25525
0.73800	25439
0.73867	25353
0.73933	25267
0.74000	25182
0.74067	25097
0.74133	25012
0.74200	24927
0.74267	24843
0.74333	24759
0.74400	24676
0.74467	24593
0.74533	24510
0.74600	24428
0.74667	24347
0.74733	24266
0.74800	24185
0.74867	24106
0.74933	24026
0.75000	23948
0.75067	23870
0.75133	23792
0.75200	23715
0.75267	23639
0.75333	23564
0.75400	23489
0.75467	23415
0.75533	23341
0.75600	23269
0.75667	23197
0.75733	23125
0.75800	23054
0.75867	22984
0.75933	22915
0.76000	22846
0.76067	22778
0.76133	22711
0.76200	22644
0.76267	22578
0.76333	22513
0.76400	22449
0.76467	22385
0.76533	22322
0.76600	22259
0.76667	22197
0.76733	22136
0.76800	22076
0.76867	22016
0.76933	21956
0.77000	21898
0.77067	21840
0.77133	21782
0.77200	21725
0.77267	21669
0.77333	21613
0.77400	21558
0.77467	21504
0.77533	21450
0.77600	21396
0.77667	21344
0.77733	21291
0.77800	21240
0.77867	21189
0.77933	21138
0.78000	21088
0.78067	21039
0.78133	20989
0.78200	20941
0.78267	20893
0.78333	20845
0.78400	20798
0.78467	20751
0.78533	20705
0.78600	20659
0.78667	20614
0.78733	20569
0.78800	20525
0.78867	20481
0.78933	20438
0.79000	20395
0.79067	20352
0.79133	20310
0.79200	20268
0.79267	20226
0.79333	20185
0.79400	20145
0.79467	20104
0.79533	20065
0.79600	20025
0.79667	19986
0.79733	19947
0.79800	19908
0.79867	19870
0.79933	19833
0.80000	19795
0.80067	19758
0.80133	19721
0.80200	19684
0.80267	19648
0.80333	19612
0.80400	19577
0.80467	19542
0.80533	19507
0.80600	19472
0.80667	19438
0.80733	19403
0.80800	19370
0.80867	19336
0.80933	19303
0.81000	19270
0.81067	19237
0.81133	19205
0.81200	19173
0.81267	19142
0.81333	19110
0.81400	19079
0.81467	19049
0.81533	19019
0.81600	18989
0.81667	18960
0.81733	18931
0.81800	18902
0.81867	18874
0.81933	18846
0.82000	18818
0.82067	18791
0.82133	18764
0.82200	18737
0.82267	18711
0.82333	18685
0.82400	18659
0.82467	18633
0.82533	18608
0.82600	18583
0.82667	18558
0.82733	18533
0.82800	18508
0.82867	18484
0.82933	18460
0.83000	18435
0.83067	18411
0.83133	18388
0.83200	18364
0.83267	18341
0.83333	18317
0.83400	18294
0.83467	18271
0.83533	18248
0.83600	18225
0.83667	18202
0.83733	18179
0.83800	18156
0.83867	18133
0.83933	18110
0.84000	18087
0.84067	18065
0.84133	18042
0.84200	18020
0.84267	17997
0.84333	17975
0.84400	17953
0.84467	17930
0.84533	17908
0.84600	17886
0.84667	17864
0.84733	17842
0.84800	17820
0.84867	17798
0.84933	17776
0.85000	17754
0.85067	17732
0.85133	17710
0.85200	17688
0.85267	17666
0.85333	17644
0.85400	17622
0.85467	17600
0.85533	17578
0.85600	17556
0.85667	17534
0.85733	17512
0.85800	17490
0.85867	17469
0.85933	17447
0.86000	17425
0.86067	17404
0.86133	17382
0.86200	17361
0.86267	17339
0.86333	17318
0.86400	17297
0.86467	17276
0.86533	17254
0.86600	17233
0.86667	17212
0.86733	17191
0.86800	17170
0.86867	17149
0.86933	17128
0.87000	17107
0.87067	17086
0.87133	17066
0.87200	17045
0.87267	17025
0.87333	17004
0.87400	16984
0.87467	16964
0.87533	16943
0.87600	16923
0.87667	16903
0.87733	16884
0.87800	16864
0.87867	16844
0.87933	16824
0.88000	16805
0.88067	16785
0.88133	16766
0.88200	16747
0.88267	16728
0.88333	16709
0.88400	16690
0.88467	16671
0.88533	16653
0.88600	16634
0.88667	16616
0.88733	16597
0.88800	16579
0.88867	16561
0.88933	16543
0.89000	16525
0.89067	16507
0.89133	16490
0.89200	16472
0.89267	16455
0.89333	16437
0.89400	16420
0.89467	16403
0.89533	16386
0.89600	16369
0.89667	16352
0.89733	16335
0.89800	16319
0.89867	16302
0.89933	16285
0.90000	16269
0.90067	16253
0.90133	16237
0.90200	16220
0.90267	16204
0.90333	16188
0.90400	16172
0.90467	16156
0.90533	16141
0.90600	16125
0.90667	16109
0.90733	16094
0.90800	16078
0.90867	16063
0.90933	16048
0.91000	16033
0.91067	16018
0.91133	16002
0.91200	15987
0.91267	15972
0.91333	15957
0.91400	15942
0.91467	15928
0.91533	15913
0.91600	15898
0.91667	15883
0.91733	15869
0.91800	15854
0.91867	15840
0.91933	15825
0.92000	15811
0.92067	15797
0.92133	15783
0.92200	15769
0.92267	15754
0.92333	15741
0.92400	15727
0.92467	15713
0.92533	15699
0.92600	15686
0.92667	15672
0.92733	15659
0.92800	15645
0.92867	15632
0.92933	15619
0.93000	15606
0.93067	15593
0.93133	15580
0.93200	15567
0.93267	15554
0.93333	15541
0.93400	15528
0.93467	15515
0.93533	15503
0.93600	15490
0.93667	15478
0.93733	15466
0.93800	15453
0.93867	15441
0.93933	15428
0.94000	15416
0.94067	15404
0.94133	15392
0.94200	15380
0.94267	15367
0.94333	15355
0.94400	15343
0.94467	15331
0.94533	15319
0.94600	15307
0.94667	15295
0.94733	15283
0.94800	15272
0.94867	15260
0.94933	15248
0.95000	15236
0.95067	15224
0.95133	15213
0.95200	15201
0.95267	15190
0.95333	15178
0.95400	15167
0.95467	15156
0.95533	15144
0.95600	15133
0.95667	15122
0.95733	15111
0.95800	15100
0.95867	15090
0.95933	15079
0.96000	15069
0.96067	15058
0.96133	15048
0.96200	15038
0.96267	15028
0.96333	15018
0.96400	15008
0.96467	14998
0.96533	14988
0.96600	14978
0.96667	14969
0.96733	14959
0.96800	14950
0.96867	14940
0.96933	14931
0.97000	14921
0.97067	14912
0.97133	14902
0.97200	14893
0.97267	14883
0.97333	14874
0.97400	14864
0.97467	14855
0.97533	14845
0.97600	14835
0.97667	14825
0.97733	14815
0.97800	14805
0.97867	14795
0.97933	14785
0.98000	14774
0.98067	14764
0.98133	14754
0.98200	14743
0.98267	14733
0.98333	14722
0.98400	14712
0.98467	14701
0.98533	14690
0.98600	14680
0.98667	14669
0.98733	14658
0.98800	14647
0.98867	14636
0.98933	14625
0.99000	14614
0.99067	14603
0.99133	14592
0.99200	14581
0.99267	14571
0.99333	14560
0.99400	14549
0.99467	14538
0.99533	14527
0.99600	14516
0.99667	14505
0.99733	14494
0.99800	14484
0.99867	14473
0.99933	14462
1.00000	14452
1.00067	14441
1.00133	14431
1.00200	14420
1.00267	14410
1.00333	14399
1.00400	14389
1.00467	14379
1.00533	14368
1.00600	14358
1.00667	14348
1.00733	14338
1.00800	14327
1.00867	14317
1.00933	14308
1.01000	14298
1.01067	14288
1.01133	14279
1.01200	14269
1.01267	14260
1.01333	14251
1.01400	14241
1.01467	14233
1.01533	14224
1.01600	14215
1.01667	14206
1.01733	14198
1.01800	14190
1.01867	14182
1.01933	14174
1.02000	14166
1.02067	14159
1.02133	14152
1.02200	14145
1.02267	14138
1.02333	14131
1.02400	14125
1.02467	14118
1.02533	14112
1.02600	14107
1.02667	14101
1.02733	14095
1.02800	14090
1.02867	14085
1.02933	14079
1.03000	14074
1.03067	14069
1.03133	14064
1.03200	14059
1.03267	14054
1.03333	14049
1.03400	14044
1.03467	14039
1.03533	14034
1.03600	14029
1.03667	14024
1.03733	14018
1.03800	14013
1.03867	14007
1.03933	14002
1.04000	13996
1.04067	13990
1.04133	13984
1.04200	13978
1.04267	13972
1.04333	13965
1.04400	13959
1.04467	13952
1.04533	13945
1.04600	13938
1.04667	13931
1.04733	13924
1.04800	13917
1.04867	13909
1.04933	13902
1.05000	13894
1.05067	13887
1.05133	13879
1.05200	13871
1.05267	13863
1.05333	13855
1.05400	13847
1.05467	13839
1.05533	13831
1.05600	13823
1.05667	13815
1.05733	13806
1.05800	13798
1.05867	13790
1.05933	13781
1.06000	13773
1.06067	13764
1.06133	13756
1.06200	13747
1.06267	13738
1.06333	13730
1.06400	13721
1.06467	13712
1.06533	13703
1.06600	13694
1.06667	13685
1.06733	13677
1.06800	13668
1.06867	13659
1.06933	13650
1.07000	13640
1.07067	13631
1.07133	13622
1.07200	13613
1.07267	13604
1.07333	13595
1.07400	13586
1.07467	13577
1.07533	13568
1.07600	13560
1.07667	13551
1.07733	13542
1.07800	13533
1.07867	13524
1.07933	13516
1.08000	13507
1.08067	13499
1.08133	13490
1.08200	13481
1.08267	13473
1.08333	13464
1.08400	13456
1.08467	13448
1.08533	13439
1.08600	13431
1.08667	13422
1.08733	13414
1.08800	13406
1.08867	13397
1.08933	13389
1.09000	13381
1.09067	13372
1.09133	13364
1.09200	13356
1.09267	13348
1.09333	13339
1.09400	13331
1.09467	13323
1.09533	13315
1.09600	13307
1.09667	13299
1.09733	13291
1.09800	13283
1.09867	13275
1.09933	13267
1.10000	13259
1.10067	13251
1.10133	13243
1.10200	13236
1.10267	13228
1.10333	13220
1.10400	13213
1.10467	13205
1.10533	13197
1.10600	13190
1.10667	13182
1.10733	13175
1.10800	13167
1.10867	13160
1.10933	13152
1.11000	13145
1.11067	13138
1.11133	13130
1.11200	13123
1.11267	13116
1.11333	13108
1.11400	13101
1.11467	13094
1.11533	13087
1.11600	13081
1.11667	13074
1.11733	13067
1.11800	13061
1.11867	13054
1.11933	13048
1.12000	13041
1.12067	13035
1.12133	13029
1.12200	13023
1.12267	13017
1.12333	13012
1.12400	13006
1.12467	13000
1.12533	12995
1.12600	12989
1.12667	12984
1.12733	12979
1.12800	12974
1.12867	12970
1.12933	12965
1.13000	12961
1.13067	12956
1.13133	12952
1.13200	12948
1.13267	12945
1.13333	12941
1.13400	12938
1.13467	12935
1.13533	12932
1.13600	12929
1.13667	12927
1.13733	12925
1.13800	12923
1.13867	12921
1.13933	12919
1.14000	12917
1.14067	12915
1.14133	12914
1.14200	12912
1.14267	12911
1.14333	12910
1.14400	12908
1.14467	12907
1.14533	12905
1.14600	12904
1.14667	12902
1.14733	12901
1.14800	12899
1.14867	12897
1.14933	12895
1.15000	12893
1.15067	12891
1.15133	12888
1.15200	12885
1.15267	12883
1.15333	12880
1.15400	12877
1.15467	12874
1.15533	12870
1.15600	12867
1.15667	12863
1.15733	12859
1.15800	12855
1.15867	12851
1.15933	12847
1.16000	12843
1.16067	12838
1.16133	12833
1.16200	12829
1.16267	12824
1.16333	12819
1.16400	12814
1.16467	12808
1.16533	12803
1.16600	12798
1.16667	12793
1.16733	12787
1.16800	12782
1.16867	12776
1.16933	12770
1.17000	12765
1.17067	12759
1.17133	12753
1.17200	12747
1.17267	12742
1.17333	12736
1.17400	12730
1.17467	12724
1.17533	12718
1.17600	12712
1.17667	12706
1.17733	12700
1.17800	12694
1.17867	12688
1.17933	12682
1.18000	12676
1.18067	12670
1.18133	12664
1.18200	12658
1.18267	12652
1.18333	12646
1.18400	12640
1.18467	12634
1.18533	12628
1.18600	12622
1.18667	12616
1.18733	12610
1.18800	12604
1.18867	12598
1.18933	12592
1.19000	12586
1.19067	12580
1.19133	12574
1.19200	12569
1.19267	12563
1.19333	12557
1.19400	12552
1.19467	12546
1.19533	12541
1.19600	12535
1.19667	12530
1.19733	12525
1.19800	12520
1.19867	12515
1.19933	12510
1.20000	12505
1.20067	12500
1.20133	12495
1.20200	12491
1.20267	12486
1.20333	12481
1.20400	12477
1.20467	12473
1.20533	12468
1.20600	12464
1.20667	12460
1.20733	12456
1.20800	12453
1.20867	12449
1.20933	12445
1.21000	12441
1.21067	12438
1.21133	12434
1.21200	12431
1.21267	12427
1.21333	12424
1.21400	12421
1.21467	12418
1.21533	12415
1.21600	12412
1.21667	12409
1.21733	12406
1.21800	12403
1.21867	12400
1.21933	12397
1.22000	12395
1.22067	12392
1.22133	12389
1.22200	12387
1.22267	12385
1.22333	12382
1.22400	12380
1.22467	12377
1.22533	12375
1.22600	12373
1.22667	12371
1.22733	12369
1.22800	12367
1.22867	12364
1.22933	12363
1.23000	12361
1.23067	12359
1.23133	12357
1.23200	12355
1.23267	12353
1.23333	12351
1.23400	12349
1.23467	12348
1.23533	12346
1.23600	12344
1.23667	12343
1.23733	12341
1.23800	12339
1.23867	12338
1.23933	12336
1.24000	12335
1.24067	12333
1.24133	12332
1.24200	12330
1.24267	12329
1.24333	12327
1.24400	12326
1.24467	12324
1.24533	12323
1.24600	12322
1.24667	12320
1.24733	12319
1.24800	12317
1.24867	12316
1.24933	12315
1.25000	12314
1.25067	12312
1.25133	12311
1.25200	12310
1.25267	12309
1.25333	12308
1.25400	12307
1.25467	12306
1.25533	12306
1.25600	12305
1.25667	12304
1.25733	12304
1.25800	12303
1.25867	12303
1.25933	12303
1.26000	12303
1.26067	12303
1.26133	12303
1.26200	12303
1.26267	12303
1.26333	12304
1.26400	12305
1.26467	12305
1.26533	12306
1.26600	12307
1.26667	12309
1.26733	12310
1.26800	12312
1.26867	12314
1.26933	12316
1.27000	12318
1.27067	12321
1.27133	12323
1.27200	12327
1.27267	12330
1.27333	12333
1.27400	12337
1.27467	12341
1.27533	12346
1.27600	12350
1.27667	12355
1.27733	12360
1.27800	12366
1.27867	12372
1.27933	12377
1.28000	12384
1.28067	12390
1.28133	12396
1.28200	12403
1.28267	12410
1.28333	12417
1.28400	12424
1.28467	12431
1.28533	12439
1.28600	12446
1.28667	12453
1.28733	12460
1.28800	12467
1.28867	12474
1.28933	12481
1.29000	12487
1.29067	12494
1.29133	12500
1.29200	12505
1.29267	12511
1.29333	12516
1.29400	12521
1.29467	12526
1.29533	12530
1.29600	12534
1.29667	12537
1.29733	12541
1.29800	12544
1.29867	12546
1.29933	12548
1.30000	12550
1.30067	12552
1.30133	12553
1.30200	12553
1.30267	12554
1.30333	12554
1.30400	12554
1.30467	12553
1.30533	12552
1.30600	12551
1.30667	12549
1.30733	12547
1.30800	12545
1.30867	12542
1.30933	12540
1.31000	12537
1.31067	12533
1.31133	12530
1.31200	12526
1.31267	12522
1.31333	12517
1.31400	12513
1.31467	12508
1.31533	12503
1.31600	12498
1.31667	12492
1.31733	12487
1.31800	12481
1.31867	12475
1.31933	12469
1.32000	12463
1.32067	12457
1.32133	12450
1.32200	12443
1.32267	12436
1.32333	12429
1.32400	12422
1.32467	12415
1.32533	12408
1.32600	12401
1.32667	12393
1.32733	12386
1.32800	12378
1.32867	12370
1.32933	12363
1.33000	12355
1.33067	12347
1.33133	12339
1.33200	12331
1.33267	12323
1.33333	12315
1.33400	12307
1.33467	12299
1.33533	12290
1.33600	12282
1.33667	12273
1.33733	12265
1.33800	12256
1.33867	12247
1.33933	12239
1.34000	12230
1.34067	12221
1.34133	12213
1.34200	12204
1.34267	12195
1.34333	12187
1.34400	12178
1.34467	12169
1.34533	12161
1.34600	12152
1.34667	12143
1.34733	12135
1.34800	12126
1.34867	12118
1.34933	12109
1.35000	12101
1.35067	12093
1.35133	12084
1.35200	12076
1.35267	12068
1.35333	12060
1.35400	12051
1.35467	12043
1.35533	12035
1.35600	12027
1.35667	12019
1.35733	12011
1.35800	12003
1.35867	11995
1.35933	11988
1.36000	11980
1.36067	11972
1.36133	11965
1.36200	11958
1.36267	11950
1.36333	11943
1.36400	11936
1.36467	11929
1.36533	11922
1.36600	11915
1.36667	11908
1.36733	11901
1.36800	11895
1.36867	11888
1.36933	11882
1.37000	11875
1.37067	11869
1.37133	11863
1.37200	11856
1.37267	11850
1.37333	11844
1.37400	11838
1.37467	11832
1.37533	11826
1.37600	11820
1.37667	11814
1.37733	11809
1.37800	11803
1.37867	11797
1.37933	11792
1.38000	11786
1.38067	11780
1.38133	11775
1.38200	11769
1.38267	11764
1.38333	11758
1.38400	11753
1.38467	11747
1.38533	11742
1.38600	11737
1.38667	11731
1.38733	11726
1.38800	11721
1.38867	11715
1.38933	11710
1.39000	11705
1.39067	11700
1.39133	11695
1.39200	11690
1.39267	11684
1.39333	11679
1.39400	11674
1.39467	11669
1.39533	11664
1.39600	11659
1.39667	11654
1.39733	11649
1.39800	11644
1.39867	11639
1.39933	11634
1.40000	11629
1.40067	11624
1.40133	11619
1.40200	11614
1.40267	11610
1.40333	11605
1.40400	11600
1.40467	11595
1.40533	11590
1.40600	11585
1.40667	11581
1.40733	11576
1.40800	11571
1.40867	11566
1.40933	11562
1.41000	11557
1.41067	11553
1.41133	11548
1.41200	11543
1.41267	11539
1.41333	11534
1.41400	11530
1.41467	11525
1.41533	11521
1.41600	11516
1.41667	11512
1.41733	11507
1.41800	11503
1.41867	11498
1.41933	11494
1.42000	11489
1.42067	11485
1.42133	11480
1.42200	11476
1.42267	11471
1.42333	11467
1.42400	11463
1.42467	11458
1.42533	11454
1.42600	11450
1.42667	11445
1.42733	11441
1.42800	11437
1.42867	11433
1.42933	11429
1.43000	11425
1.43067	11420
1.43133	11416
1.43200	11412
1.43267	11408
1.43333	11404
1.43400	11401
1.43467	11397
1.43533	11393
1.43600	11389
1.43667	11386
1.43733	11382
1.43800	11379
1.43867	11375
1.43933	11372
1.44000	11368
1.44067	11365
1.44133	11362
1.44200	11358
1.44267	11355
1.44333	11352
1.44400	11349
1.44467	11345
1.44533	11342
1.44600	11339
1.44667	11336
1.44733	11333
1.44800	11330
1.44867	11326
1.44933	11323
1.45000	11320
1.45067	11317
1.45133	11314
1.45200	11311
1.45267	11309
1.45333	11306
1.45400	11303
1.45467	11300
1.45533	11297
1.45600	11294
1.45667	11291
1.45733	11289
1.45800	11286
1.45867	11283
1.45933	11280
1.46000	11278
1.46067	11275
1.46133	11272
1.46200	11269
1.46267	11267
1.46333	11264
1.46400	11261
1.46467	11259
1.46533	11256
1.46600	11253
1.46667	11251
1.46733	11248
1.46800	11245
1.46867	11243
1.46933	11240
1.47000	11237
1.47067	11235
1.47133	11232
1.47200	11229
1.47267	11226
1.47333	11223
1.47400	11221
1.47467	11218
1.47533	11215
1.47600	11212
1.47667	11209
1.47733	11206
1.47800	11203
1.47867	11200
1.47933	11197
1.48000	11194
1.48067	11191
1.48133	11188
1.48200	11185
1.48267	11182
1.48333	11179
1.48400	11176
1.48467	11173
1.48533	11170
1.48600	11166
1.48667	11163
1.48733	11160
1.48800	11157
1.48867	11154
1.48933	11150
1.49000	11147
1.49067	11144
1.49133	11140
1.49200	11137
1.49267	11134
1.49333	11130
1.49400	11127
1.49467	11123
1.49533	11120
1.49600	11117
1.49667	11113
1.49733	11110
1.49800	11106
1.49867	11103
1.49933	11099
1.50000	11096
1.50067	11092
1.50133	11089
1.50200	11085
1.50267	11082
1.50333	11078
1.50400	11075
1.50467	11071
1.50533	11068
1.50600	11064
1.50667	11061
1.50733	11057
1.50800	11054
1.50867	11050
1.50933	11047
1.51000	11043
1.51067	11040
1.51133	11036
1.51200	11033
1.51267	11029
1.51333	11026
1.51400	11023
1.51467	11019
1.51533	11016
1.51600	11013
1.51667	11009
1.51733	11006
1.51800	11003
1.51867	11000
1.51933	10997
1.52000	10993
1.52067	10990
1.52133	10987
1.52200	10984
1.52267	10981
1.52333	10978
1.52400	10975
1.52467	10972
1.52533	10969
1.52600	10966
1.52667	10963
1.52733	10960
1.52800	10957
1.52867	10954
1.52933	10951
1.53000	10949
1.53067	10946
1.53133	10943
1.53200	10941
1.53267	10938
1.53333	10935
1.53400	10932
1.53467	10930
1.53533	10927
1.53600	10924
1.53667	10921
1.53733	10919
1.53800	10916
1.53867	10913
1.53933	10911
1.54000	10908
1.54067	10906
1.54133	10903
1.54200	10900
1.54267	10898
1.54333	10895
1.54400	10893
1.54467	10890
1.54533	10887
1.54600	10885
1.54667	10882
1.54733	10880
1.54800	10877
1.54867	10874
1.54933	10872
1.55000	10869
1.55067	10867
1.55133	10864
1.55200	10861
1.55267	10859
1.55333	10856
1.55400	10853
1.55467	10851
1.55533	10848
1.55600	10845
1.55667	10843
1.55733	10840
1.55800	10837
1.55867	10834
1.55933	10832
1.56000	10829
1.56067	10826
1.56133	10824
1.56200	10821
1.56267	10818
1.56333	10815
1.56400	10813
1.56467	10810
1.56533	10807
1.56600	10804
1.56667	10801
1.56733	10799
1.56800	10796
1.56867	10793
1.56933	10790
1.57000	10787
1.57067	10785
1.57133	10782
1.57200	10779
1.57267	10776
1.57333	10774
1.57400	10771
1.57467	10768
1.57533	10766
1.57600	10763
1.57667	10761
1.57733	10758
1.57800	10756
1.57867	10753
1.57933	10751
1.58000	10748
1.58067	10746
1.58133	10744
1.58200	10741
1.58267	10739
1.58333	10737
1.58400	10734
1.58467	10732
1.58533	10729
1.58600	10727
1.58667	10725
1.58733	10723
1.58800	10720
1.58867	10718
1.58933	10716
1.59000	10713
1.59067	10711
1.59133	10709
1.59200	10707
1.59267	10704
1.59333	10702
1.59400	10700
1.59467	10697
1.59533	10695
1.59600	10693
1.59667	10690
1.59733	10688
1.59800	10686
1.59867	10683
1.59933	10681
1.60000	10679
1.60067	10676
1.60133	10674
1.60200	10672
1.60267	10669
1.60333	10667
1.60400	10665
1.60467	10663
1.60533	10660
1.60600	10658
1.60667	10656
1.60733	10654
1.60800	10652
1.60867	10649
1.60933	10647
1.61000	10645
1.61067	10642
1.61133	10640
1.61200	10638
1.61267	10636
1.61333	10633
1.61400	10631
1.61467	10629
1.61533	10626
1.61600	10624
1.61667	10622
1.61733	10619
1.61800	10617
1.61867	10615
1.61933	10612
1.62000	10610
1.62067	10608
1.62133	10606
1.62200	10603
1.62267	10601
1.62333	10599
1.62400	10597
1.62467	10595
1.62533	10593
1.62600	10591
1.62667	10589
1.62733	10587
1.62800	10585
1.62867	10583
1.62933	10581
1.63000	10579
1.63067	10577
1.63133	10575
1.63200	10573
1.63267	10571
1.63333	10569
1.63400	10567
1.63467	10565
1.63533	10564
1.63600	10562
1.63667	10560
1.63733	10558
1.63800	10557
1.63867	10555
1.63933	10553
1.64000	10551
1.64067	10550
1.64133	10548
1.64200	10546
1.64267	10544
1.64333	10543
1.64400	10541
1.64467	10539
1.64533	10538
1.64600	10536
1.64667	10534
1.64733	10533
1.64800	10531
1.64867	10530
1.64933	10528
1.65000	10527
1.65067	10525
1.65133	10523
1.65200	10522
1.65267	10520
1.65333	10519
1.65400	10517
1.65467	10515
1.65533	10514
1.65600	10512
1.65667	10510
1.65733	10509
1.65800	10507
1.65867	10505
1.65933	10503
1.66000	10502
1.66067	10500
1.66133	10498
1.66200	10496
1.66267	10494
1.66333	10492
1.66400	10490
1.66467	10488
1.66533	10486
1.66600	10484
1.66667	10482
1.66733	10480
1.66800	10479
1.66867	10477
1.66933	10475
1.67000	10473
1.67067	10471
1.67133	10469
1.67200	10467
1.67267	10465
1.67333	10463
1.67400	10461
1.67467	10458
1.67533	10456
1.67600	10454
1.67667	10452
1.67733	10450
1.67800	10448
1.67867	10446
1.67933	10444
1.68000	10441
1.68067	10439
1.68133	10437
1.68200	10434
1.68267	10432
1.68333	10430
1.68400	10427
1.68467	10425
1.68533	10422
1.68600	10420
1.68667	10417
1.68733	10415
1.68800	10412
1.68867	10409
1.68933	10407
1.69000	10404
1.69067	10402
1.69133	10399
1.69200	10396
1.69267	10394
1.69333	10391
1.69400	10388
1.69467	10386
1.69533	10383
1.69600	10381
1.69667	10378
1.69733	10375
1.69800	10373
1.69867	10370
1.69933	10367
1.70000	10365
1.70067	10362
1.70133	10360
1.70200	10357
1.70267	10355
1.70333	10352
1.70400	10350
1.70467	10348
1.70533	10345
1.70600	10343
1.70667	10341
1.70733	10339
1.70800	10336
1.70867	10334
1.70933	10332
1.71000	10330
1.71067	10328
1.71133	10326
1.71200	10324
1.71267	10322
1.71333	10320
1.71400	10319
1.71467	10317
1.71533	10316
1.71600	10316
1.71667	10315
1.71733	10316
1.71800	10316
1.71867	10318
1.71933	10321
1.72000	10324
1.72067	10329
1.72133	10336
1.72200	10345
1.72267	10357
1.72333	10372
1.72400	10390
1.72467	10413
1.72533	10441
1.72600	10475
1.72667	10517
1.72733	10568
1.72800	10629
1.72867	10702
1.72933	10789
1.73000	10893
1.73067	11016
1.73133	11160
1.73200	11329
1.73267	11527
1.73333	11756
1.73400	12023
1.73467	12330
1.73533	12684
1.73600	13090
1.73667	13554
1.73733	14082
1.73800	14682
1.73867	15360
1.73933	16124
1.74000	16981
1.74067	17939
1.74133	19007
1.74200	20193
1.74267	21505
1.74333	22952
1.74400	24542
1.74467	26282
1.74533	28181
1.74600	30245
1.74667	32481
1.74733	34895
1.74800	37495
1.74867	40286
1.74933	43272
1.75000	46454
1.75067	49834
1.75133	53412
1.75200	57186
1.75267	61155
1.75333	65314
1.75400	69656
1.75467	74172
1.75533	78853
1.75600	83689
1.75667	88668
1.75733	93778
1.75800	99003
1.75867	104327
1.75933	109729
1.76000	115191
1.76067	120690
1.76133	126205
1.76200	131713
1.76267	137190
1.76333	142614
1.76400	147962
1.76467	153213
1.76533	158348
1.76600	163346
1.76667	168190
1.76733	172861
1.76800	177344
1.76867	181623
1.76933	185685
1.77000	189519
1.77067	193113
1.77133	196459
1.77200	199550
1.77267	202379
1.77333	204943
1.77400	207237
1.77467	209261
1.77533	211015
1.77600	212501
1.77667	213722
1.77733	214684
1.77800	215391
1.77867	215852
1.77933	216073
1.78000	216063
1.78067	215832
1.78133	215389
1.78200	214743
1.78267	213905
1.78333	212885
1.78400	211694
1.78467	210342
1.78533	208840
1.78600	207197
1.78667	205423
1.78733	203529
1.78800	201524
1.78867	199417
1.78933	197216
1.79000	194930
1.79067	192567
1.79133	190136
1.79200	187643
1.79267	185097
1.79333	182503
1.79400	179867
1.79467	177197
1.79533	174498
1.79600	171775
1.79667	169034
1.79733	166278
1.79800	163513
1.79867	160743
1.79933	157972
1.80000	155203
1.80067	152439
1.80133	149685
1.80200	146942
1.80267	144214
1.80333	141503
1.80400	138812
1.80467	136142
1.80533	133495
1.80600	130874
1.80667	128279
1.80733	125713
1.80800	123176
1.80867	120670
1.80933	118196
1.81000	115755
1.81067	113347
1.81133	110974
1.81200	108636
1.81267	106334
1.81333	104068
1.81400	101839
1.81467	99646
1.81533	97491
1.81600	95373
1.81667	93292
1.81733	91249
1.81800	89244
1.81867	87276
1.81933	85346
1.82000	83453
1.82067	81597
1.82133	79779
1.82200	77997
1.82267	76251
1.82333	74542
1.82400	72869
1.82467	71231
1.82533	69629
1.82600	68061
1.82667	66528
1.82733	65029
1.82800	63563
1.82867	62130
1.82933	60731
1.83000	59363
1.83067	58027
1.83133	56722
1.83200	55448
1.83267	54204
1.83333	52990
1.83400	51806
1.83467	50650
1.83533	49522
1.83600	48422
1.83667	47349
1.83733	46303
1.83800	45283
1.83867	44289
1.83933	43320
1.84000	42375
1.84067	41455
1.84133	40559
1.84200	39685
1.84267	38835
1.84333	38006
1.84400	37199
1.84467	36414
1.84533	35649
1.84600	34905
1.84667	34181
1.84733	33476
1.84800	32790
1.84867	32122
1.84933	31473
1.85000	30841
1.85067	30227
1.85133	29629
1.85200	29048
1.85267	28483
1.85333	27933
1.85400	27399
1.85467	26880
1.85533	26374
1.85600	25884
1.85667	25406
1.85733	24942
1.85800	24492
1.85867	24053
1.85933	23628
1.86000	23214
1.86067	22812
1.86133	22421
1.86200	22041
1.86267	21672
1.86333	21314
1.86400	20965
1.86467	20627
1.86533	20298
1.86600	19978
1.86667	19668
1.86733	19366
1.86800	19074
1.86867	18789
1.86933	18513
1.87000	18244
1.87067	17983
1.87133	17730
1.87200	17484
1.87267	17245
1.87333	17013
1.87400	16787
1.87467	16568
1.87533	16356
1.87600	16149
1.87667	15949
1.87733	15754
1.87800	15565
1.87867	15381
1.87933	15203
1.88000	15030
1.88067	14862
1.88133	14699
1.88200	14541
1.88267	14387
1.88333	14238
1.88400	14093
1.88467	13952
1.88533	13816
1.88600	13683
1.88667	13555
1.88733	13430
1.88800	13308
1.88867	13190
1.88933	13076
1.89000	12965
1.89067	12857
1.89133	12753
1.89200	12651
1.89267	12552
1.89333	12457
1.89400	12364
1.89467	12273
1.89533	12186
1.89600	12101
1.89667	12018
1.89733	11938
1.89800	11860
1.89867	11785
1.89933	11712
1.90000	11640
1.90067	11571
1.90133	11504
1.90200	11439
1.90267	11376
1.90333	11314
1.90400	11254
1.90467	11196
1.90533	11140
1.90600	11085
1.90667	11032
1.90733	10980
1.90800	10930
1.90867	10881
1.90933	10833
1.91000	10787
1.91067	10742
1.91133	10698
1.91200	10655
1.91267	10614
1.91333	10574
1.91400	10534
1.91467	10496
1.91533	10459
1.91600	10423
1.91667	10387
1.91733	10353
1.91800	10319
1.91867	10286
1.91933	10254
1.92000	10223
1.92067	10192
1.92133	10163
1.92200	10134
1.92267	10105
1.92333	10078
1.92400	10051
1.92467	10024
1.92533	9998
1.92600	9973
1.92667	9949
1.92733	9924
1.92800	9901
1.92867	9878
1.92933	9855
1.93000	9833
1.93067	9812
1.93133	9791
1.93200	9770
1.93267	9750
1.93333	9731
1.93400	9711
1.93467	9693
1.93533	9674
1.93600	9656
1.93667	9639
1.93733	9622
1.93800	9605
1.93867	9588
1.93933	9572
1.94000	9557
1.94067	9541
1.94133	9526
1.94200	9511
1.94267	9496
1.94333	9482
1.94400	9468
1.94467	9454
1.94533	9441
1.94600	9428
1.94667	9415
1.94733	9403
1.94800	9390
1.94867	9378
1.94933	9366
1.95000	9355
1.95067	9343
1.95133	9332
1.95200	9321
1.95267	9310
1.95333	9300
1.95400	9290
1.95467	9280
1.95533	9270
1.95600	9260
1.95667	9251
1.95733	9241
1.95800	9232
1.95867	9223
1.95933	9215
1.96000	9206
1.96067	9198
1.96133	9189
1.96200	9181
1.96267	9173
1.96333	9165
1.96400	9158
1.96467	9150
1.96533	9143
1.96600	9135
1.96667	9128
1.96733	9121
1.96800	9114
1.96867	9107
1.96933	9100
1.97000	9093
1.97067	9087
1.97133	9080
1.97200	9074
1.97267	9068
1.97333	9062
1.97400	9055
1.97467	9049
1.97533	9043
1.97600	9038
1.97667	9032
1.97733	9026
1.97800	9020
1.97867	9015
1.97933	9009
1.98000	9004
1.98067	8998
1.98133	8993
1.98200	8988
1.98267	8983
1.98333	8978
1.98400	8973
1.98467	8968
1.98533	8963
1.98600	8959
1.98667	8954
1.98733	8950
1.98800	8945
1.98867	8940
1.98933	8936
1.99000	8932
1.99067	8927
1.99133	8923
1.99200	8919
1.99267	8915
1.99333	8910
1.99400	8906
1.99467	8902
1.99533	8898
1.99600	8894
1.99667	8890
1.99733	8886
1.99800	8882
1.99867	8878
1.99933	8874
2.00000	8870
2.00067	8866
2.00133	8862
2.00200	8858
2.00267	8854
2.00333	8850
2.00400	8846
2.00467	8842
2.00533	8838
2.00600	8834
2.00667	8830
2.00733	8826
2.00800	8822
2.00867	8817
2.00933	8813
2.01000	8809
2.01067	8805
2.01133	8801
2.01200	8797
2.01267	8793
2.01333	8789
2.01400	8784
2.01467	8780
2.01533	8776
2.01600	8772
2.01667	8768
2.01733	8764
2.01800	8760
2.01867	8756
2.01933	8752
2.02000	8748
2.02067	8744
2.02133	8740
2.02200	8736
2.02267	8732
2.02333	8728
2.02400	8724
2.02467	8720
2.02533	8717
2.02600	8713
2.02667	8709
2.02733	8705
2.02800	8701
2.02867	8697
2.02933	8694
2.03000	8690
2.03067	8686
2.03133	8682
2.03200	8679
2.03267	8675
2.03333	8671
2.03400	8668
2.03467	8664
2.03533	8660
2.03600	8657
2.03667	8653
2.03733	8650
2.03800	8646
2.03867	8643
2.03933	8639
2.04000	8636
2.04067	8632
2.04133	8629
2.04200	8625
2.04267	8622
2.04333	8618
2.04400	8615
2.04467	8612
2.04533	8608
2.04600	8605
2.04667	8601
2.04733	8598
2.04800	8594
2.04867	8591
2.04933	8588
2.05000	8584
2.05067	8581
2.05133	8577
2.05200	8574
2.05267	8570
2.05333	8567
2.05400	8563
2.05467	8560
2.05533	8556
2.05600	8553
2.05667	8549
2.05733	8546
2.05800	8543
2.05867	8539
2.05933	8536
2.06000	8532
2.06067	8529
2.06133	8525
2.06200	8522
2.06267	8518
2.06333	8515
2.06400	8511
2.06467	8508
2.06533	8504
2.06600	8500
2.06667	8497
2.06733	8493
2.06800	8490
2.06867	8486
2.06933	8483
2.07000	8479
2.07067	8476
2.07133	8472
2.07200	8469
2.07267	8465
2.07333	8462
2.07400	8459
2.07467	8456
2.07533	8452
2.07600	8449
2.07667	8446
2.07733	8443
2.07800	8440
2.07867	8437
2.07933	8434
2.08000	8431
2.08067	8428
2.08133	8425
2.08200	8422
2.08267	8419
2.08333	8416
2.08400	8413
2.08467	8410
2.08533	8407
2.08600	8404
2.08667	8401
2.08733	8398
2.08800	8395
2.08867	8392
2.08933	8389
2.09000	8386
2.09067	8383
2.09133	8380
2.09200	8377
2.09267	8375
2.09333	8372
2.09400	8369
2.09467	8366
2.09533	8364
2.09600	8361
2.09667	8358
2.09733	8355
2.09800	8353
2.09867	8350
2.09933	8347
2.10000	8344
2.10067	8342
2.10133	8339
2.10200	8336
2.10267	8333
2.10333	8330
2.10400	8328
2.10467	8325
2.10533	8322
2.10600	8319
2.10667	8317
2.10733	8314
2.10800	8311
2.10867	8308
2.10933	8306
2.11000	8303
2.11067	8300
2.11133	8297
2.11200	8295
2.11267	8292
2.11333	8289
2.11400	8287
2.11467	8284
2.11533	8281
2.11600	8278
2.11667	8276
2.11733	8273
2.11800	8270
2.11867	8268
2.11933	8265
2.12000	8262
2.12067	8259
2.12133	8257
2.12200	8254
2.12267	8251
2.12333	8248
2.12400	8246
2.12467	8243
2.12533	8240
2.12600	8238
2.12667	8235
2.12733	8232
2.12800	8229
2.12867	8226
2.12933	8224
2.13000	8221
2.13067	8218
2.13133	8216
2.13200	8213
2.13267	8210
2.13333	8207
2.13400	8205
2.13467	8202
2.13533	8199
2.13600	8197
2.13667	8194
2.13733	8191
2.13800	8188
2.13867	8186
2.13933	8183
2.14000	8180
2.14067	8177
2.14133	8175
2.14200	8172
2.14267	8169
2.14333	8167
2.14400	8164
2.14467	8161
2.14533	8159
2.14600	8156
2.14667	8154
2.14733	8151
2.14800	8148
2.14867	8146
2.14933	8143
2.15000	8141
2.15067	8138
2.15133	8135
2.15200	8133
2.15267	8130
2.15333	8128
2.15400	8125
2.15467	8123
2.15533	8120
2.15600	8117
2.15667	8115
2.15733	8112
2.15800	8110
2.15867	8108
2.15933	8105
2.16000	8103
2.16067	8100
2.16133	8098
2.16200	8096
2.16267	8093
2.16333	8091
2.16400	8088
2.16467	8086
2.16533	8083
2.16600	8081
2.16667	8079
2.16733	8076
2.16800	8074
2.16867	8071
2.16933	8069
2.17000	8067
2.17067	8064
2.17133	8062
2.17200	8060
2.17267	8057
2.17333	8055
2.17400	8053
2.17467	8050
2.17533	8048
2.17600	8046
2.17667	8043
2.17733	8041
2.17800	8039
2.17867	8036
2.17933	8034
2.18000	8032
2.18067	8029
2.18133	8027
2.18200	8025
2.18267	8022
2.18333	8020
2.18400	8018
2.18467	8015
2.18533	8013
2.18600	8011
2.18667	8008
2.18733	8006
2.18800	8004
2.18867	8001
2.18933	7999
2.19000	7996
2.19067	7994
2.19133	7992
2.19200	7989
2.19267	7987
2.19333	7984
2.19400	7982
2.19467	7980
2.19533	7977
2.19600	7975
2.19667	7973
2.19733	7971
2.19800	7969
2.19867	7966
2.19933	7964
2.20000	7962
2.20067	7960
2.20133	7958
2.20200	7955
2.20267	7953
2.20333	7951
2.20400	7949
2.20467	7947
2.20533	7945
2.20600	7943
2.20667	7942
2.20733	7940
2.20800	7938
2.20867	7937
2.20933	7935
2.21000	7934
2.21067	7932
2.21133	7931
2.21200	7929
2.21267	7928
2.21333	7927
2.21400	7926
2.21467	7925
2.21533	7924
2.21600	7923
2.21667	7922
2.21733	7921
2.21800	7920
2.21867	7920
2.21933	7919
2.22000	7918
2.22067	7918
2.22133	7917
2.22200	7917
2.22267	7916
2.22333	7916
2.22400	7915
2.22467	7915
2.22533	7914
2.22600	7913
2.22667	7913
2.22733	7912
2.22800	7911
2.22867	7910
2.22933	7910
2.23000	7909
2.23067	7908
2.23133	7907
2.23200	7906
2.23267	7905
2.23333	7904
2.23400	7903
2.23467	7902
2.23533	7900
2.23600	7899
2.23667	7898
2.23733	7896
2.23800	7895
2.23867	7894
2.23933	7892
2.24000	7891
2.24067	7889
2.24133	7888
2.24200	7886
2.24267	7884
2.24333	7883
2.24400	7881
2.24467	7880
2.24533	7878
2.24600	7876
2.24667	7875
2.24733	7873
2.24800	7871
2.24867	7869
2.24933	7868
2.25000	7866
2.25067	7864
2.25133	7862
2.25200	7861
2.25267	7859
2.25333	7857
2.25400	7856
2.25467	7854
2.25533	7852
2.25600	7850
2.25667	7848
2.25733	7847
2.25800	7845
2.25867	7843
2.25933	7841
2.26000	7839
2.26067	7837
2.26133	7835
2.26200	7833
2.26267	7832
2.26333	7830
2.26400	7828
2.26467	7825
2.26533	7823
2.26600	7821
2.26667	7819
2.26733	7817
2.26800	7815
2.26867	7813
2.26933	7810
2.27000	7808
2.27067	7806
2.27133	7804
2.27200	7802
2.27267	7799
2.27333	7797
2.27400	7795
2.27467	7793
2.27533	7791
2.27600	7788
2.27667	7786
2.27733	7784
2.27800	7782
2.27867	7780
2.27933	7777
2.28000	7775
2.28067	7773
2.28133	7771
2.28200	7768
2.28267	7766
2.28333	7764
2.28400	7761
2.28467	7759
2.28533	7757
2.28600	7754
2.28667	7752
2.28733	7749
2.28800	7747
2.28867	7744
2.28933	7742
2.29000	7740
2.29067	7737
2.29133	7735
2.29200	7732
2.29267	7730
2.29333	7728
2.29400	7725
2.29467	7723
2.29533	7721
2.29600	7719
2.29667	7717
2.29733	7715
2.29800	7712
2.29867	7710
2.29933	7708
2.30000	7706
2.30067	7704
2.30133	7702
2.30200	7700
2.30267	7699
2.30333	7697
2.30400	7695
2.30467	7693
2.30533	7691
2.30600	7689
2.30667	7687
2.30733	7685
2.30800	7684
2.30867	7682
2.30933	7680
2.31000	7678
2.31067	7676
2.31133	7674
2.31200	7673
2.31267	7671
2.31333	7669
2.31400	7667
2.31467	7666
2.31533	7664
2.31600	7663
2.31667	7661
2.31733	7660
2.31800	7658
2.31867	7657
2.31933	7655
2.32000	7654
2.32067	7652
2.32133	7651
2.32200	7650
2.32267	7649
2.32333	7648
2.32400	7646
2.32467	7645
2.32533	7644
2.32600	7643
2.32667	7642
2.32733	7641
2.32800	7640
2.32867	7639
2.32933	7638
2.33000	7637
2.33067	7636
2.33133	7635
2.33200	7635
2.33267	7634
2.33333	7633
2.33400	7632
2.33467	7631
2.33533	7631
2.33600	7630
2.33667	7629
2.33733	7629
2.33800	7628
2.33867	7627
2.33933	7627
2.34000	7626
2.34067	7626
2.34133	7625
2.34200	7625
2.34267	7624
2.34333	7624
2.34400	7623
2.34467	7623
2.34533	7623
2.34600	7622
2.34667	7622
2.34733	7622
2.34800	7622
2.34867	7622
2.34933	7622
2.35000	7622
2.35067	7621
2.35133	7621
2.35200	7621
2.35267	7621
2.35333	7621
2.35400	7621
2.35467	7621
2.35533	7621
2.35600	7622
2.35667	7622
2.35733	7622
2.35800	7622
2.35867	7622
2.35933	7622
2.36000	7622
2.36067	7623
2.36133	7623
2.36200	7623
2.36267	7623
2.36333	7623
2.36400	7623
2.36467	7623
2.36533	7623
2.36600	7623
2.36667	7623
2.36733	7623
2.36800	7623
2.36867	7623
2.36933	7623
2.37000	7623
2.37067	7623
2.37133	7622
2.37200	7622
2.37267	7622
2.37333	7621
2.37400	7621
2.37467	7621
2.37533	7620
2.37600	7619
2.37667	7619
2.37733	7618
2.37800	7617
2.37867	7616
2.37933	7616
2.38000	7615
2.38067	7614
2.38133	7613
2.38200	7612
2.38267	7611
2.38333	7610
2.38400	7609
2.38467	7607
2.38533	7606
2.38600	7605
2.38667	7603
2.38733	7602
2.38800	7600
2.38867	7599
2.38933	7597
2.39000	7596
2.39067	7594
2.39133	7592
2.39200	7591
2.39267	7589
2.39333	7587
2.39400	7585
2.39467	7583
2.39533	7582
2.39600	7580
2.39667	7578
2.39733	7576
2.39800	7574
2.39867	7572
2.39933	7571
2.40000	7569
2.40067	7567
2.40133	7565
2.40200	7563
2.40267	7561
2.40333	7560
2.40400	7558
2.40467	7556
2.40533	7554
2.40600	7552
2.40667	7550
2.40733	7548
2.40800	7546
2.40867	7544
2.40933	7542
2.41000	7540
2.41067	7538
2.41133	7537
2.41200	7535
2.41267	7533
2.41333	7531
2.41400	7529
2.41467	7527
2.41533	7525
2.41600	7523
2.41667	7522
2.41733	7520
2.41800	7518
2.41867	7516
2.41933	7514
2.42000	7513
2.42067	7511
2.42133	7509
2.42200	7507
2.42267	7505
2.42333	7504
2.42400	7502
2.42467	7500
2.42533	7498
2.42600	7496
2.42667	7494
2.42733	7492
2.42800	7490
2.42867	7488
2.42933	7485
2.43000	7483
2.43067	7481
2.43133	7478
2.43200	7476
2.43267	7474
2.43333	7471
2.43400	7469
2.43467	7466
2.43533	7464
2.43600	7462
2.43667	7459
2.43733	7457
2.43800	7454
2.43867	7452
2.43933	7449
2.44000	7447
2.44067	7444
2.44133	7441
2.44200	7439
2.44267	7436
2.44333	7434
2.44400	7431
2.44467	7428
2.44533	7426
2.44600	7423
2.44667	7420
2.44733	7417
2.44800	7415
2.44867	7412
2.44933	7409
2.45000	7406
2.45067	7403
2.45133	7400
2.45200	7397
2.45267	7394
2.45333	7392
2.45400	7389
2.45467	7386
2.45533	7383
2.45600	7380
2.45667	7377
2.45733	7374
2.45800	7371
2.45867	7368
2.45933	7365
2.46000	7362
2.46067	7359
2.46133	7356
2.46200	7353
2.46267	7350
2.46333	7347
2.46400	7344
2.46467	7341
2.46533	7338
2.46600	7335
2.46667	7332
2.46733	7329
2.46800	7326
2.46867	7323
2.46933	7320
2.47000	7317
2.47067	7314
2.47133	7311
2.47200	7308
2.47267	7305
2.47333	7303
2.47400	7300
2.47467	7297
2.47533	7295
2.47600	7292
2.47667	7290
2.47733	7287
2.47800	7285
2.47867	7282
2.47933	7280
2.48000	7277
2.48067	7275
2.48133	7272
2.48200	7270
2.48267	7267
2.48333	7265
2.48400	7262
2.48467	7260
2.48533	7257
2.48600	7255
2.48667	7252
2.48733	7250
2.48800	7247
2.48867	7245
2.48933	7242
2.49000	7240
2.49067	7237
2.49133	7235
2.49200	7233
2.49267	7230
2.49333	7228
2.49400	7225
2.49467	7223
2.49533	7220
2.49600	7218
2.49667	7215
2.49733	7213
2.49800	7211
2.49867	7208
2.49933	7206
2.50000	7204
2.50067	7201
2.50133	7199
2.50200	7197
2.50267	7194
2.50333	7192
2.50400	7189
2.50467	7187
2.50533	7185
2.50600	7182
2.50667	7180
2.50733	7177
2.50800	7175
2.50867	7172
2.50933	7170
2.51000	7168
2.51067	7165
2.51133	7163
2.51200	7160
2.51267	7158
2.51333	7155
2.51400	7153
2.51467	7150
2.51533	7148
2.51600	7145
2.51667	7143
2.51733	7140
2.51800	7138
2.51867	7135
2.51933	7133
2.52000	7130
2.52067	7128
2.52133	7126
2.52200	7123
2.52267	7121
2.52333	7119
2.52400	7116
2.52467	7114
2.52533	7112
2.52600	7109
2.52667	7107
2.52733	7105
2.52800	7102
2.52867	7100
2.52933	7097
2.53000	7095
2.53067	7093
2.53133	7091
2.53200	7088
2.53267	7086
2.53333	7084
2.53400	7081
2.53467	7079
2.53533	7077
2.53600	7075
2.53667	7072
2.53733	7070
2.53800	7068
2.53867	7066
2.53933	7063
2.54000	7061
2.54067	7059
2.54133	7057
2.54200	7055
2.54267	7052
2.54333	7050
2.54400	7048
2.54467	7046
2.54533	7043
2.54600	7041
2.54667	7039
2.54733	7036
2.54800	7034
2.54867	7032
2.54933	7030
2.55000	7028
2.55067	7025
2.55133	7023
2.55200	7021
2.55267	7019
2.55333	7017
2.55400	7015
2.55467	7013
2.55533	7011
2.55600	7009
2.55667	7007
2.55733	7005
2.55800	7003
2.55867	7001
2.55933	6999
2.56000	6997
2.56067	6995
2.56133	6993
2.56200	6991
2.56267	6989
2.56333	6987
2.56400	6986
2.56467	6984
2.56533	6982
2.56600	6980
2.56667	6978
2.56733	6976
2.56800	6974
2.56867	6973
2.56933	6971
2.57000	6969
2.57067	6968
2.57133	6966
2.57200	6964
2.57267	6963
2.57333	6961
2.57400	6960
2.57467	6958
2.57533	6956
2.57600	6955
2.57667	6953
2.57733	6952
2.57800	6950
2.57867	6949
2.57933	6947
2.58000	6945
2.58067	6944
2.58133	6942
2.58200	6941
2.58267	6939
2.58333	6938
2.58400	6936
2.58467	6935
2.58533	6933
2.58600	6931
2.58667	6930
2.58733	6928
2.58800	6927
2.58867	6925
2.58933	6924
2.59000	6922
2.59067	6920
2.59133	6919
2.59200	6917
2.59267	6915
2.59333	6914
2.59400	6912
2.59467	6910
2.59533	6909
2.59600	6907
2.59667	6906
2.59733	6904
2.59800	6902
2.59867	6901
2.59933	6899
2.60000	6898
2.60067	6896
2.60133	6894
2.60200	6893
2.60267	6891
2.60333	6890
2.60400	6888
2.60467	6886
2.60533	6885
2.60600	6883
2.60667	6882
2.60733	6880
2.60800	6879
2.60867	6877
2.60933	6875
2.61000	6874
2.61067	6872
2.61133	6870
2.61200	6869
2.61267	6867
2.61333	6865
2.61400	6864
2.61467	6862
2.61533	6860
2.61600	6859
2.61667	6857
2.61733	6855
2.61800	6853
2.61867	6851
2.61933	6850
2.62000	6848
2.62067	6846
2.62133	6844
2.62200	6842
2.62267	6840
2.62333	6838
2.62400	6836
2.62467	6834
2.62533	6832
2.62600	6830
2.62667	6828
2.62733	6826
2.62800	6824
2.62867	6822
2.62933	6820
2.63000	6818
2.63067	6816
2.63133	6814
2.63200	6812
2.63267	6810
2.63333	6808
2.63400	6806
2.63467	6804
2.63533	6802
2.63600	6800
2.63667	6797
2.63733	6795
2.63800	6793
2.63867	6791
2.63933	6789
2.64000	6787
2.64067	6785
2.64133	6783
2.64200	6781
2.64267	6779
2.64333	6777
2.64400	6775
2.64467	6772
2.64533	6770
2.64600	6768
2.64667	6766
2.64733	6764
2.64800	6762
2.64867	6760
2.64933	6758
2.65000	6756
2.65067	6753
2.65133	6751
2.65200	6749
2.65267	6747
2.65333	6745
2.65400	6743
2.65467	6740
2.65533	6738
2.65600	6736
2.65667	6734
2.65733	6732
2.65800	6730
2.65867	6727
2.65933	6725
2.66000	6723
2.66067	6721
2.66133	6719
2.66200	6716
2.66267	6714
2.66333	6712
2.66400	6710
2.66467	6707
2.66533	6705
2.66600	6703
2.66667	6701
2.66733	6698
2.66800	6696
2.66867	6694
2.66933	6692
2.67000	6690
2.67067	6687
2.67133	6685
2.67200	6683
2.67267	6681
2.67333	6679
2.67400	6677
2.67467	6675
2.67533	6673
2.67600	6671
2.67667	6669
2.67733	6667
2.67800	6665
2.67867	6663
2.67933	6661
2.68000	6659
2.68067	6657
2.68133	6655
2.68200	6653
2.68267	6651
2.68333	6649
2.68400	6647
2.68467	6646
2.68533	6644
2.68600	6642
2.68667	6640
2.68733	6638
2.68800	6636
2.68867	6635
2.68933	6633
2.69000	6631
2.69067	6629
2.69133	6628
2.69200	6626
2.69267	6624
2.69333	6623
2.69400	6621
2.69467	6619
2.69533	6618
2.69600	6616
2.69667	6614
2.69733	6612
2.69800	6611
2.69867	6609
2.69933	6607
2.70000	6606
2.70067	6604
2.70133	6602
2.70200	6601
2.70267	6599
2.70333	6597
2.70400	6596
2.70467	6594
2.70533	6593
2.70600	6591
2.70667	6589
2.70733	6588
2.70800	6586
2.70867	6584
2.70933	6582
2.71000	6581
2.71067	6579
2.71133	6577
2.71200	6576
2.71267	6574
2.71333	6573
2.71400	6571
2.71467	6569
2.71533	6568
2.71600	6566
2.71667	6564
2.71733	6563
2.71800	6561
2.71867	6560
2.71933	6558
2.72000	6557
2.72067	6556
2.72133	6554
2.72200	6553
2.72267	6551
2.72333	6550
2.72400	6549
2.72467	6547
2.72533	6546
2.72600	6545
2.72667	6543
2.72733	6542
2.72800	6540
2.72867	6539
2.72933	6538
2.73000	6536
2.73067	6535
2.73133	6534
2.73200	6533
2.73267	6531
2.73333	6530
2.73400	6529
2.73467	6528
2.73533	6527
2.73600	6525
2.73667	6524
2.73733	6523
2.73800	6522
2.73867	6521
2.73933	6519
2.74000	6518
2.74067	6517
2.74133	6516
2.74200	6515
2.74267	6514
2.74333	6512
2.74400	6511
2.74467	6510
2.74533	6509
2.74600	6508
2.74667	6507
2.74733	6506
2.74800	6505
2.74867	6504
2.74933	6503
2.75000	6502
2.75067	6501
2.75133	6500
2.75200	6499
2.75267	6498
2.75333	6497
2.75400	6496
2.75467	6495
2.75533	6494
2.75600	6493
2.75667	6492
2.75733	6491
2.75800	6490
2.75867	6489
2.75933	6488
2.76000	6487
2.76067	6486
2.76133	6485
2.76200	6485
2.76267	6484
2.76333	6483
2.76400	6482
2.76467	6481
2.76533	6481
2.76600	6480
2.76667	6479
2.76733	6478
2.76800	6478
2.76867	6477
2.76933	6477
2.77000	6476
2.77067	6476
2.77133	6475
2.77200	6475
2.77267	6474
2.77333	6474
2.77400	6474
2.77467	6473
2.77533	6473
2.77600	6473
2.77667	6473
2.77733	6473
2.77800	6473
2.77867	6472
2.77933	6472
2.78000	6472
2.78067	6472
2.78133	6473
2.78200	6473
2.78267	6473
2.78333	6473
2.78400	6474
2.78467	6474
2.78533	6474
2.78600	6475
2.78667	6475
2.78733	6476
2.78800	6477
2.78867	6477
2.78933	6478
2.79000	6479
2.79067	6479
2.79133	6480
2.79200	6481
2.79267	6482
2.79333	6483
2.79400	6483
2.79467	6484
2.79533	6485
2.79600	6486
2.79667	6486
2.79733	6487
2.79800	6488
2.79867	6489
2.79933	6490
2.80000	6490
2.80067	6491
2.80133	6492
2.80200	6493
2.80267	6493
2.80333	6494
2.80400	6495
2.80467	6496
2.80533	6496
2.80600	6497
2.80667	6497
2.80733	6498
2.80800	6499
2.80867	6499
2.80933	6500
2.81000	6500
2.81067	6501
2.81133	6501
2.81200	6502
2.81267	6502
2.81333	6503
2.81400	6503
2.81467	6503
2.81533	6504
2.81600	6504
2.81667	6504
2.81733	6504
2.81800	6505
2.81867	6505
2.81933	6505
2.82000	6505
2.82067	6505
2.82133	6505
2.82200	6505
2.82267	6505
2.82333	6505
2.82400	6505
2.82467	6505
2.82533	6504
2.82600	6504
2.82667	6504
2.82733	6503
2.82800	6503
2.82867	6503
2.82933	6502
2.83000	6502
2.83067	6501
2.83133	6501
2.83200	6500
2.83267	6499
2.83333	6498
2.83400	6498
2.83467	6497
2.83533	6496
2.83600	6495
2.83667	6494
2.83733	6493
2.83800	6492
2.83867	6491
2.83933	6490
2.84000	6489
2.84067	6488
2.84133	6487
2.84200	6486
2.84267	6485
2.84333	6484
2.84400	6483
2.84467	6481
2.84533	6480
2.84600	6479
2.84667	6478
2.84733	6476
2.84800	6475
2.84867	6473
2.84933	6472
2.85000	6471
2.85067	6469
2.85133	6468
2.85200	6467
2.85267	6465
2.85333	6464
2.85400	6463
2.85467	6461
2.85533	6460
2.85600	6459
2.85667	6457
2.85733	6456
2.85800	6455
2.85867	6453
2.85933	6452
2.86000	6450
2.86067	6449
2.86133	6448
2.86200	6446
2.86267	6445
2.86333	6444
2.86400	6443
2.86467	6441
2.86533	6440
2.86600	6439
2.86667	6438
2.86733	6437
2.86800	6436
2.86867	6435
2.86933	6434
2.87000	6433
2.87067	6432
2.87133	6432
2.87200	6431
2.87267	6430
2.87333	6429
2.87400	6429
2.87467	6428
2.87533	6427
2.87600	6427
2.87667	6426
2.87733	6426
2.87800	6425
2.87867	6425
2.87933	6425
2.88000	6424
2.88067	6424
2.88133	6424
2.88200	6423
2.88267	6423
2.88333	6423
2.88400	6423
2.88467	6423
2.88533	6423
2.88600	6423
2.88667	6423
2.88733	6423
2.88800	6423
2.88867	6424
2.88933	6424
2.89000	6424
2.89067	6425
2.89133	6425
2.89200	6426
2.89267	6426
2.89333	6427
2.89400	6428
2.89467	6428
2.89533	6429
2.89600	6429
2.89667	6430
2.89733	6430
2.89800	6431
2.89867	6431
2.89933	6432
2.90000	6432
2.90067	6432
2.90133	6433
2.90200	6433
2.90267	6433
2.90333	6433
2.90400	6433
2.90467	6433
2.90533	6433
2.90600	6433
2.90667	6432
2.90733	6432
2.90800	6432
2.90867	6431
2.90933	6430
2.91000	6430
2.91067	6429
2.91133	6428
2.91200	6427
2.91267	6426
2.91333	6425
2.91400	6423
2.91467	6422
2.91533	6420
2.91600	6418
2.91667	6417
2.91733	6415
2.91800	6412
2.91867	6410
2.91933	6408
2.92000	6405
2.92067	6403
2.92133	6400
2.92200	6397
2.92267	6394
2.92333	6391
2.92400	6388
2.92467	6384
2.92533	6381
2.92600	6377
2.92667	6374
2.92733	6370
2.92800	6366
2.92867	6362
2.92933	6358
2.93000	6354
2.93067	6350
2.93133	6346
2.93200	6341
2.93267	6337
2.93333	6333
2.93400	6328
2.93467	6323
2.93533	6319
2.93600	6314
2.93667	6309
2.93733	6305
2.93800	6300
2.93867	6295
2.93933	6290
2.94000	6285
2.94067	6280
2.94133	6275
2.94200	6270
2.94267	6265
2.94333	6259
2.94400	6254
2.94467	6249
2.94533	6244
2.94600	6239
2.94667	6234
2.94733	6228
2.94800	6223
2.94867	6218
2.94933	6213
2.95000	6208
2.95067	6203
2.95133	6197
2.95200	6192
2.95267	6187
2.95333	6182
2.95400	6177
2.95467	6172
2.95533	6167
2.95600	6163
2.95667	6158
2.95733	6153
2.95800	6148
2.95867	6144
2.95933	6139
2.96000	6134
2.96067	6130
2.96133	6125
2.96200	6121
2.96267	6117
2.96333	6112
2.96400	6108
2.96467	6104
2.96533	6099
2.96600	6095
2.96667	6091
2.96733	6087
2.96800	6083
2.96867	6079
2.96933	6076
2.97000	6072
2.97067	6068
2.97133	6064
2.97200	6061
2.97267	6057
2.97333	6053
2.97400	6050
2.97467	6046
2.97533	6043
2.97600	6039
2.97667	6036
2.97733	6032
2.97800	6029
2.97867	6026
2.97933	6022
2.98000	6019
2.98067	6016
2.98133	6013
2.98200	6010
2.98267	6007
2.98333	6004
2.98400	6001
2.98467	5998
2.98533	5995
2.98600	5992
2.98667	5989
2.98733	5986
2.98800	5983
2.98867	5980
2.98933	5977
2.99000	5974
2.99067	5972
2.99133	5969
2.99200	5966
2.99267	5964
2.99333	5961
2.99400	5958
2.99467	5956
2.99533	5953
2.99600	5951
2.99667	5948
2.99733	5946
2.99800	5944
2.99867	5942
2.99933	5939
3.00000	5937
3.00067	5935
3.00133	5933
3.00200	5931
3.00267	5929
3.00333	5927
3.00400	5925
3.00467	5923
3.00533	5920
3.00600	5918
3.00667	5916
3.00733	5914
3.00800	5912
3.00867	5910
3.00933	5908
3.01000	5907
3.01067	5905
3.01133	5903
3.01200	5901
3.01267	5899
3.01333	5897
3.01400	5895
3.01467	5894
3.01533	5892
3.01600	5890
3.01667	5888
3.01733	5887
3.01800	5885
3.01867	5883
3.01933	5881
3.02000	5880
3.02067	5878
3.02133	5876
3.02200	5875
3.02267	5873
3.02333	5871
3.02400	5870
3.02467	5868
3.02533	5867
3.02600	5865
3.02667	5864
3.02733	5862
3.02800	5861
3.02867	5859
3.02933	5858
3.03000	5856
3.03067	5855
3.03133	5853
3.03200	5852
3.03267	5850
3.03333	5849
3.03400	5848
3.03467	5846
3.03533	5845
3.03600	5844
3.03667	5842
3.03733	5841
3.03800	5840
3.03867	5839
3.03933	5838
3.04000	5836
3.04067	5835
3.04133	5834
3.04200	5833
3.04267	5831
3.04333	5830
3.04400	5829
3.04467	5827
3.04533	5826
3.04600	5825
3.04667	5824
3.04733	5822
3.04800	5821
3.04867	5820
3.04933	5819
3.05000	5818
3.05067	5817
3.05133	5815
3.05200	5814
3.05267	5813
3.05333	5812
3.05400	5811
3.05467	5810
3.05533	5808
3.05600	5807
3.05667	5806
3.05733	5805
3.05800	5804
3.05867	5803
3.05933	5802
3.06000	5801
3.06067	5800
3.06133	5799
3.06200	5798
3.06267	5797
3.06333	5797
3.06400	5796
3.06467	5795
3.06533	5794
3.06600	5793
3.06667	5792
3.06733	5792
3.06800	5791
3.06867	5790
3.06933	5789
3.07000	5789
3.07067	5788
3.07133	5787
3.07200	5787
3.07267	5786
3.07333	5785
3.07400	5785
3.07467	5784
3.07533	5783
3.07600	5783
3.07667	5782
3.07733	5781
3.07800	5781
3.07867	5780
3.07933	5780
3.08000	5779
3.08067	5779
3.08133	5778
3.08200	5777
3.08267	5777
3.08333	5776
3.08400	5775
3.08467	5775
3.08533	5774
3.08600	5773
3.08667	5773
3.08733	5772
3.08800	5771
3.08867	5771
3.08933	5770
3.09000	5769
3.09067	5768
3.09133	5768
3.09200	5767
3.09267	5766
3.09333	5765
3.09400	5764
3.09467	5764
3.09533	5763
3.09600	5762
3.09667	5761
3.09733	5761
3.09800	5760
3.09867	5759
3.09933	5758
3.10000	5758
3.10067	5757
3.10133	5756
3.10200	5755
3.10267	5754
3.10333	5754
3.10400	5753
3.10467	5752
3.10533	5751
3.10600	5751
3.10667	5750
3.10733	5749
3.10800	5748
3.10867	5748
3.10933	5747
3.11000	5746
3.11067	5745
3.11133	5744
3.11200	5744
3.11267	5743
3.11333	5742
3.11400	5741
3.11467	5740
3.11533	5739
3.11600	5738
3.11667	5738
3.11733	5737
3.11800	5736
3.11867	5735
3.11933	5734
3.12000	5733
3.12067	5732
3.12133	5731
3.12200	5730
3.12267	5729
3.12333	5728
3.12400	5727
3.12467	5726
3.12533	5725
3.12600	5724
3.12667	5723
3.12733	5722
3.12800	5721
3.12867	5720
3.12933	5719
3.13000	5717
3.13067	5716
3.13133	5715
3.13200	5714
3.13267	5713
3.13333	5712
3.13400	5712
3.13467	5711
3.13533	5710
3.13600	5709
3.13667	5708
3.13733	5707
3.13800	5706
3.13867	5705
3.13933	5705
3.14000	5704
3.14067	5703
3.14133	5702
3.14200	5701
3.14267	5701
3.14333	5700
3.14400	5699
3.14467	5698
3.14533	5697
3.14600	5696
3.14667	5696
3.14733	5695
3.14800	5694
3.14867	5693
3.14933	5692
3.15000	5692
3.15067	5691
3.15133	5690
3.15200	5689
3.15267	5689
3.15333	5688
3.15400	5687
3.15467	5686
3.15533	5686
3.15600	5685
3.15667	5684
3.15733	5684
3.15800	5683
3.15867	5683
3.15933	5682
3.16000	5681
3.16067	5681
3.16133	5680
3.16200	5679
3.16267	5679
3.16333	5678
3.16400	5677
3.16467	5677
3.16533	5676
3.16600	5675
3.16667	5675
3.16733	5674
3.16800	5673
3.16867	5673
3.16933	5672
3.17000	5671
3.17067	5671
3.17133	5670
3.17200	5670
3.17267	5669
3.17333	5669
3.17400	5668
3.17467	5667
3.17533	5667
3.17600	5666
3.17667	5666
3.17733	5665
3.17800	5665
3.17867	5664
3.17933	5663
3.18000	5663
3.18067	5662
3.18133	5662
3.18200	5661
3.18267	5661
3.18333	5660
3.18400	5660
3.18467	5659
3.18533	5659
3.18600	5658
3.18667	5658
3.18733	5657
3.18800	5657
3.18867	5656
3.18933	5656
3.19000	5655
3.19067	5655
3.19133	5654
3.19200	5654
3.19267	5653
3.19333	5653
3.19400	5652
3.19467	5651
3.19533	5651
3.19600	5650
3.19667	5650
3.19733	5649
3.19800	5649
3.19867	5648
3.19933	5648
3.20000	5647
3.20067	5647
3.20133	5646
3.20200	5646
3.20267	5645
3.20333	5644
3.20400	5644
3.20467	5643
3.20533	5643
3.20600	5642
3.20667	5642
3.20733	5641
3.20800	5641
3.20867	5641
3.20933	5640
3.21000	5640
3.21067	5639
3.21133	5639
3.21200	5639
3.21267	5638
3.21333	5638
3.21400	5638
3.21467	5638
3.21533	5637
3.21600	5637
3.21667	5637
3.21733	5637
3.21800	5637
3.21867	5637
3.21933	5636
3.22000	5636
3.22067	5636
3.22133	5636
3.22200	5636
3.22267	5636
3.22333	5636
3.22400	5636
3.22467	5635
3.22533	5635
3.22600	5635
3.22667	5635
3.22733	5635
3.22800	5635
3.22867	5635
3.22933	5635
3.23000	5635
3.23067	5635
3.23133	5635
3.23200	5635
3.23267	5635
3.23333	5635
3.23400	5635
3.23467	5635
3.23533	5636
3.23600	5636
3.23667	5636
3.23733	5636
3.23800	5636
3.23867	5636
3.23933	5636
3.24000	5636
3.24067	5636
3.24133	5636
3.24200	5636
3.24267	5636
3.24333	5636
3.24400	5636
3.24467	5637
3.24533	5637
3.24600	5637
3.24667	5637
3.24733	5637
3.24800	5637
3.24867	5637
3.24933	5637
3.25000	5637
3.25067	5637
3.25133	5638
3.25200	5638
3.25267	5638
3.25333	5638
3.25400	5638
3.25467	5638
3.25533	5638
3.25600	5638
3.25667	5639
3.25733	5639
3.25800	5639
3.25867	5639
3.25933	5639
3.26000	5639
3.26067	5640
3.26133	5640
3.26200	5640
3.26267	5640
3.26333	5640
3.26400	5641
3.26467	5641
3.26533	5641
3.26600	5641
3.26667	5642
3.26733	5642
3.26800	5642
3.26867	5642
3.26933	5642
3.27000	5643
3.27067	5643
3.27133	5643
3.27200	5643
3.27267	5643
3.27333	5644
3.27400	5644
3.27467	5644
3.27533	5644
3.27600	5644
3.27667	5645
3.27733	5645
3.27800	5645
3.27867	5645
3.27933	5645
3.28000	5645
3.28067	5646
3.28133	5646
3.28200	5646
3.28267	5646
3.28333	5646
3.28400	5647
3.28467	5647
3.28533	5647
3.28600	5647
3.28667	5647
3.28733	5648
3.28800	5648
3.28867	5648
3.28933	5648
3.29000	5649
3.29067	5649
3.29133	5649
3.29200	5649
3.29267	5650
3.29333	5650
3.29400	5651
3.29467	5651
3.29533	5651
3.29600	5652
3.29667	5652
3.29733	5652
3.29800	5653
3.29867	5653
3.29933	5653
3.30000	5654
3.30067	5654
3.30133	5655
3.30200	5655
3.30267	5655
3.30333	5656
3.30400	5656
3.30467	5656
3.30533	5657
3.30600	5657
3.30667	5657
3.30733	5658
3.30800	5658
3.30867	5658
3.30933	5658
3.31000	5659
3.31067	5659
3.31133	5659
3.31200	5659
3.31267	5659
3.31333	5660
3.31400	5660
3.31467	5660
3.31533	5660
3.31600	5661
3.31667	5661
3.31733	5661
3.31800	5662
3.31867	5662
3.31933	5662
3.32000	5662
3.32067	5663
3.32133	5663
3.32200	5663
3.32267	5663
3.32333	5663
3.32400	5664
3.32467	5664
3.32533	5664
3.32600	5664
3.32667	5664
3.32733	5664
3.32800	5664
3.32867	5664
3.32933	5664
3.33000	5664
3.33067	5664
3.33133	5664
3.33200	5664
3.33267	5664
3.33333	5664
3.33400	5664
3.33467	5664
3.33533	5664
3.33600	5664
3.33667	5664
3.33733	5664
3.33800	5664
3.33867	5664
3.33933	5663
3.34000	5663
3.34067	5663
3.34133	5663
3.34200	5663
3.34267	5663
3.34333	5663
3.34400	5663
3.34467	5663
3.34533	5662
3.34600	5662
3.34667	5662
3.34733	5662
3.34800	5662
3.34867	5662
3.34933	5661
3.35000	5661
3.35067	5661
3.35133	5661
3.35200	5660
3.35267	5660
3.35333	5660
3.35400	5659
3.35467	5659
3.35533	5659
3.35600	5658
3.35667	5658
3.35733	5658
3.35800	5658
3.35867	5657
3.35933	5657
3.36000	5657
3.36067	5656
3.36133	5656
3.36200	5656
3.36267	5655
3.36333	5655
3.36400	5655
3.36467	5654
3.36533	5654
3.36600	5654
3.36667	5653
3.36733	5653
3.36800	5653
3.36867	5652
3.36933	5652
3.37000	5652
3.37067	5652
3.37133	5652
3.37200	5652
3.37267	5651
3.37333	5651
3.37400	5651
3.37467	5651
3.37533	5651
3.37600	5650
3.37667	5650
3.37733	5650
3.37800	5650
3.37867	5649
3.37933	5649
3.38000	5649
3.38067	5648
3.38133	5648
3.38200	5647
3.38267	5647
3.38333	5647
3.38400	5646
3.38467	5646
3.38533	5646
3.38600	5645
3.38667	5645
3.38733	5644
3.38800	5644
3.38867	5643
3.38933	5643
3.39000	5643
3.39067	5642
3.39133	5642
3.39200	5641
3.39267	5641
3.39333	5640
3.39400	5640
3.39467	5639
3.39533	5639
3.39600	5638
3.39667	5638
3.39733	5637
3.39800	5636
3.39867	5636
3.39933	5635
3.40000	5635
3.40067	5634
3.40133	5634
3.40200	5633
3.40267	5633
3.40333	5632
3.40400	5631
3.40467	5631
3.40533	5630
3.40600	5630
3.40667	5629
3.40733	5628
3.40800	5628
3.40867	5627
3.40933	5627
3.41000	5626
3.41067	5625
3.41133	5625
3.41200	5624
3.41267	5623
3.41333	5623
3.41400	5622
3.41467	5621
3.41533	5621
3.41600	5620
3.41667	5619
3.41733	5619
3.41800	5618
3.41867	5617
3.41933	5616
3.42000	5616
3.42067	5615
3.42133	5614
3.42200	5613
3.42267	5613
3.42333	5612
3.42400	5611
3.42467	5610
3.42533	5610
3.42600	5609
3.42667	5608
3.42733	5608
3.42800	5607
3.42867	5606
3.42933	5605
3.43000	5605
3.43067	5604
3.43133	5603
3.43200	5602
3.43267	5602
3.43333	5601
3.43400	5600
3.43467	5599
3.43533	5598
3.43600	5598
3.43667	5597
3.43733	5596
3.43800	5595
3.43867	5594
3.43933	5594
3.44000	5593
3.44067	5592
3.44133	5592
3.44200	5591
3.44267	5590
3.44333	5589
3.44400	5589
3.44467	5588
3.44533	5588
3.44600	5587
3.44667	5586
3.44733	5586
3.44800	5586
3.44867	5585
3.44933	5585
3.45000	5584
3.45067	5584
3.45133	5584
3.45200	5584
3.45267	5583
3.45333	5583
3.45400	5583
3.45467	5583
3.45533	5583
3.45600	5583
3.45667	5583
3.45733	5583
3.45800	5583
3.45867	5583
3.45933	5583
3.46000	5583
3.46067	5583
3.46133	5583
3.46200	5583
3.46267	5584
3.46333	5584
3.46400	5584
3.46467	5585
3.46533	5585
3.46600	5585
3.46667	5586
3.46733	5586
3.46800	5587
3.46867	5587
3.46933	5588
3.47000	5588
3.47067	5589
3.47133	5590
3.47200	5590
3.47267	5591
3.47333	5592
3.47400	5593
3.47467	5594
3.47533	5595
3.47600	5596
3.47667	5597
3.47733	5598
3.47800	5599
3.47867	5600
3.47933	5602
3.48000	5603
3.48067	5604
3.48133	5605
3.48200	5607
3.48267	5608
3.48333	5610
3.48400	5611
3.48467	5613
3.48533	5615
3.48600	5616
3.48667	5618
3.48733	5620
3.48800	5622
3.48867	5624
3.48933	5626
3.49000	5628
3.49067	5631
3.49133	5633
3.49200	5636
3.49267	5639
3.49333	5642
3.49400	5645
3.49467	5648
3.49533	5651
3.49600	5655
3.49667	5658
3.49733	5662
3.49800	5666
3.49867	5670
3.49933	5674
3.50000	5679
3.50067	5684
3.50133	5689
3.50200	5694
3.50267	5700
3.50333	5706
3.50400	5712
3.50467	5719
3.50533	5726
3.50600	5733
3.50667	5740
3.50733	5748
3.50800	5757
3.50867	5766
3.50933	5775
3.51000	5785
3.51067	5795
3.51133	5806
3.51200	5817
3.51267	5828
3.51333	5840
3.51400	5853
3.51467	5866
3.51533	5880
3.51600	5894
3.51667	5909
3.51733	5924
3.51800	5940
3.51867	5957
3.51933	5974
3.52000	5992
3.52067	6011
3.52133	6030
3.52200	6050
3.52267	6071
3.52333	6092
3.52400	6114
3.52467	6137
3.52533	6160
3.52600	6184
3.52667	6209
3.52733	6234
3.52800	6261
3.52867	6288
3.52933	6315
3.53000	6344
3.53067	6373
3.53133	6402
3.53200	6433
3.53267	6464
3.53333	6495
3.53400	6528
3.53467	6561
3.53533	6594
3.53600	6628
3.53667	6663
3.53733	6698
3.53800	6734
3.53867	6770
3.53933	6807
3.54000	6845
3.54067	6882
3.54133	6921
3.54200	6959
3.54267	6998
3.54333	7038
3.54400	7077
3.54467	7117
3.54533	7158
3.54600	7198
3.54667	7239
3.54733	7280
3.54800	7321
3.54867	7362
3.54933	7404
3.55000	7445
3.55067	7487
3.55133	7528
3.55200	7570
3.55267	7611
3.55333	7652
3.55400	7693
3.55467	7733
3.55533	7774
3.55600	7814
3.55667	7853
3.55733	7893
3.55800	7932
3.55867	7970
3.55933	8008
3.56000	8046
3.56067	8083
3.56133	8119
3.56200	8155
3.56267	8190
3.56333	8224
3.56400	8258
3.56467	8291
3.56533	8324
3.56600	8356
3.56667	8387
3.56733	8418
3.56800	8447
3.56867	8476
3.56933	8505
3.57000	8532
3.57067	8559
3.57133	8585
3.57200	8610
3.57267	8635
3.57333	8659
3.57400	8682
3.57467	8704
3.57533	8726
3.57600	8747
3.57667	8767
3.57733	8787
3.57800	8806
3.57867	8824
3.57933	8842
3.58000	8859
3.58067	8875
3.58133	8891
3.58200	8905
3.58267	8920
3.58333	8933
3.58400	8946
3.58467	8958
3.58533	8970
3.58600	8981
3.58667	8991
3.58733	9001
3.58800	9010
3.58867	9019
3.58933	9027
3.59000	9034
3.59067	9041
3.59133	9048
3.59200	9053
3.59267	9059
3.59333	9064
3.59400	9068
3.59467	9072
3.59533	9075
3.59600	9078
3.59667	9081
3.59733	9083
3.59800	9085
3.59867	9086
3.59933	9087
3.60000	9087
3.60067	9087
3.60133	9087
3.60200	9086
3.60267	9084
3.60333	9082
3.60400	9080
3.60467	9077
3.60533	9074
3.60600	9071
3.60667	9066
3.60733	9062
3.60800	9057
3.60867	9051
3.60933	9045
3.61000	9038
3.61067	9031
3.61133	9024
3.61200	9016
3.61267	9007
3.61333	8998
3.61400	8988
3.61467	8978
3.61533	8967
3.61600	8956
3.61667	8944
3.61733	8931
3.61800	8918
3.61867	8904
3.61933	8890
3.62000	8875
3.62067	8860
3.62133	8844
3.62200	8827
3.62267	8810
3.62333	8792
3.62400	8773
3.62467	8754
3.62533	8735
3.62600	8714
3.62667	8694
3.62733	8672
3.62800	8651
3.62867	8628
3.62933	8605
3.63000	8582
3.63067	8558
3.63133	8534
3.63200	8509
3.63267	8484
3.63333	8458
3.63400	8431
3.63467	8405
3.63533	8377
3.63600	8350
3.63667	8322
3.63733	8293
3.63800	8264
3.63867	8235
3.63933	8206
3.64000	8176
3.64067	8145
3.64133	8115
3.64200	8084
3.64267	8053
3.64333	8021
3.64400	7990
3.64467	7958
3.64533	7926
3.64600	7894
3.64667	7861
3.64733	7828
3.64800	7796
3.64867	7763
3.64933	7730
3.65000	7697
3.65067	7663
3.65133	7630
3.65200	7597
3.65267	7564
3.65333	7531
3.65400	7498
3.65467	7464
3.65533	7431
3.65600	7398
3.65667	7365
3.65733	7333
3.65800	7300
3.65867	7267
3.65933	7235
3.66000	7203
3.66067	7170
3.66133	7139
3.66200	7107
3.66267	7075
3.66333	7044
3.66400	7013
3.66467	6982
3.66533	6952
3.66600	6921
3.66667	6891
3.66733	6862
3.66800	6832
3.66867	6803
3.66933	6774
3.67000	6745
3.67067	6717
3.67133	6689
3.67200	6661
3.67267	6634
3.67333	6606
3.67400	6580
3.67467	6553
3.67533	6527
3.67600	6501
3.67667	6475
3.67733	6450
3.67800	6425
3.67867	6401
3.67933	6376
3.68000	6352
3.68067	6329
3.68133	6305
3.68200	6282
3.68267	6260
3.68333	6237
3.68400	6215
3.68467	6194
3.68533	6172
3.68600	6151
3.68667	6130
3.68733	6110
3.68800	6089
3.68867	6070
3.68933	6050
3.69000	6031
3.69067	6012
3.69133	5993
3.69200	5975
3.69267	5957
3.69333	5940
3.69400	5922
3.69467	5905
3.69533	5888
3.69600	5872
3.69667	5855
3.69733	5839
3.69800	5824
3.69867	5808
3.69933	5793
3.70000	5778
3.70067	5763
3.70133	5749
3.70200	5734
3.70267	5721
3.70333	5707
3.70400	5693
3.70467	5680
3.70533	5667
3.70600	5654
3.70667	5642
3.70733	5629
3.70800	5617
3.70867	5605
3.70933	5593
3.71000	5582
3.71067	5570
3.71133	5559
3.71200	5548
3.71267	5538
3.71333	5527
3.71400	5517
3.71467	5507
3.71533	5497
3.71600	5487
3.71667	5477
3.71733	5467
3.71800	5458
3.71867	5449
3.71933	5439
3.72000	5431
3.72067	5422
3.72133	5413
3.72200	5404
3.72267	5396
3.72333	5388
3.72400	5380
3.72467	5372
3.72533	5364
3.72600	5356
3.72667	5349
3.72733	5341
3.72800	5334
3.72867	5327
3.72933	5320
3.73000	5313
3.73067	5306
3.73133	5299
3.73200	5293
3.73267	5286
3.73333	5280
3.73400	5274
3.73467	5268
3.73533	5262
3.73600	5256
3.73667	5250
3.73733	5245
3.73800	5239
3.73867	5233
3.73933	5228
3.74000	5222
3.74067	5217
3.74133	5211
3.74200	5206
3.74267	5201
3.74333	5196
3.74400	5191
3.74467	5186
3.74533	5181
3.74600	5176
3.74667	5171
3.74733	5166
3.74800	5162
3.74867	5157
3.74933	5152
3.75000	5148
3.75067	5143
3.75133	5139
3.75200	5135
3.75267	5130
3.75333	5126
3.75400	5122
3.75467	5117
3.75533	5113
3.75600	5109
3.75667	5105
3.75733	5101
3.75800	5097
3.75867	5093
3.75933	5089
3.76000	5085
3.76067	5081
3.76133	5077
3.76200	5073
3.76267	5070
3.76333	5066
3.76400	5063
3.76467	5059
3.76533	5055
3.76600	5052
3.76667	5049
3.76733	5045
3.76800	5042
3.76867	5038
3.76933	5035
3.77000	5032
3.77067	5029
3.77133	5026
3.77200	5022
3.77267	5019
3.77333	5016
3.77400	5013
3.77467	5010
3.77533	5007
3.77600	5004
3.77667	5001
3.77733	4998
3.77800	4995
3.77867	4992
3.77933	4989
3.78000	4986
3.78067	4984
3.78133	4981
3.78200	4978
3.78267	4975
3.78333	4972
3.78400	4969
3.78467	4967
3.78533	4964
3.78600	4961
3.78667	4958
3.78733	4956
3.78800	4953
3.78867	4950
3.78933	4948
3.79000	4945
3.79067	4943
3.79133	4940
3.79200	4938
3.79267	4935
3.79333	4933
3.79400	4931
3.79467	4928
3.79533	4926
3.79600	4923
3.79667	4921
3.79733	4919
3.79800	4916
3.79867	4914
3.79933	4911
3.80000	4909
3.80067	4907
3.80133	4904
3.80200	4902
3.80267	4900
3.80333	4897
3.80400	4895
3.80467	4893
3.80533	4891
3.80600	4888
3.80667	4886
3.80733	4884
3.80800	4882
3.80867	4879
3.80933	4877
3.81000	4875
3.81067	4872
3.81133	4870
3.81200	4868
3.81267	4866
3.81333	4864
3.81400	4861
3.81467	4859
3.81533	4857
3.81600	4855
3.81667	4853
3.81733	4851
3.81800	4849
3.81867	4847
3.81933	4845
3.82000	4843
3.82067	4841
3.82133	4839
3.82200	4837
3.82267	4835
3.82333	4833
3.82400	4831
3.82467	4829
3.82533	4827
3.82600	4825
3.82667	4823
3.82733	4821
3.82800	4820
3.82867	4818
3.82933	4816
3.83000	4814
3.83067	4812
3.83133	4811
3.83200	4809
3.83267	4807
3.83333	4805
3.83400	4803
3.83467	4802
3.83533	4800
3.83600	4798
3.83667	4796
3.83733	4794
3.83800	4793
3.83867	4791
3.83933	4789
3.84000	4787
3.84067	4785
3.84133	4784
3.84200	4782
3.84267	4780
3.84333	4779
3.84400	4777
3.84467	4775
3.84533	4774
3.84600	4772
3.84667	4771
3.84733	4769
3.84800	4768
3.84867	4766
3.84933	4765
3.85000	4763
3.85067	4762
3.85133	4760
3.85200	4759
3.85267	4758
3.85333	4756
3.85400	4755
3.85467	4753
3.85533	4752
3.85600	4751
3.85667	4749
3.85733	4748
3.85800	4747
3.85867	4746
3.85933	4744
3.86000	4743
3.86067	4742
3.86133	4740
3.86200	4739
3.86267	4738
3.86333	4737
3.86400	4735
3.86467	4734
3.86533	4733
3.86600	4732
3.86667	4731
3.86733	4729
3.86800	4728
3.86867	4727
3.86933	4726
3.87000	4724
3.87067	4723
3.87133	4722
3.87200	4721
3.87267	4720
3.87333	4719
3.87400	4717
3.87467	4716
3.87533	4715
3.87600	4714
3.87667	4713
3.87733	4712
3.87800	4710
3.87867	4709
3.87933	4708
3.88000	4707
3.88067	4706
3.88133	4704
3.88200	4703
3.88267	4702
3.88333	4701
3.88400	4700
3.88467	4699
3.88533	4698
3.88600	4696
3.88667	4695
3.88733	4694
3.88800	4693
3.88867	4692
3.88933	4691
3.89000	4690
3.89067	4689
3.89133	4688
3.89200	4687
3.89267	4686
3.89333	4685
3.89400	4684
3.89467	4683
3.89533	4681
3.89600	4680
3.89667	4679
3.89733	4678
3.89800	4677
3.89867	4676
3.89933	4675
3.90000	4674
3.90067	4673
3.90133	4672
3.90200	4671
3.90267	4670
3.90333	4669
3.90400	4668
3.90467	4667
3.90533	4666
3.90600	4665
3.90667	4664
3.90733	4663
3.90800	4662
3.90867	4661
3.90933	4660
3.91000	4659
3.91067	4658
3.91133	4657
3.91200	4656
3.91267	4655
3.91333	4654
3.91400	4653
3.91467	4652
3.91533	4651
3.91600	4650
3.91667	4650
3.91733	4649
3.91800	4648
3.91867	4647
3.91933	4646
3.92000	4645
3.92067	4645
3.92133	4644
3.92200	4643
3.92267	4642
3.92333	4641
3.92400	4641
3.92467	4640
3.92533	4639
3.92600	4638
3.92667	4638
3.92733	4637
3.92800	4636
3.92867	4635
3.92933	4635
3.93000	4634
3.93067	4633
3.93133	4632
3.93200	4632
3.93267	4631
3.93333	4630
3.93400	4630
3.93467	4629
3.93533	4628
3.93600	4628
3.93667	4627
3.93733	4627
3.93800	4626
3.93867	4626
3.93933	4625
3.94000	4624
3.94067	4624
3.94133	4623
3.94200	4622
3.94267	4622
3.94333	4621
3.94400	4621
3.94467	4620
3.94533	4619
3.94600	4619
3.94667	4618
3.94733	4617
3.94800	4617
3.94867	4616
3.94933	4615
3.95000	4615
3.95067	4614
3.95133	4613
3.95200	4613
3.95267	4612
3.95333	4612
3.95400	4611
3.95467	4610
3.95533	4610
3.95600	4609
3.95667	4609
3.95733	4608
3.95800	4608
3.95867	4607
3.95933	4607
3.96000	4606
3.96067	4606
3.96133	4605
3.96200	4605
3.96267	4604
3.96333	4604
3.96400	4603
3.96467	4603
3.96533	4602
3.96600	4602
3.96667	4602
3.96733	4601
3.96800	4601
3.96867	4601
3.96933	4600
3.97000	4600
3.97067	4600
3.97133	4600
3.97200	4599
3.97267	4599
3.97333	4599
3.97400	4599
3.97467	4598
3.97533	4598
3.97600	4598
3.97667	4598
3.97733	4597
3.97800	4597
3.97867	4597
3.97933	4597
3.98000	4597
3.98067	4596
3.98133	4596
3.98200	4596
3.98267	4596
3.98333	4596
3.98400	4596
3.98467	4596
3.98533	4595
3.98600	4595
3.98667	4595
3.98733	4595
3.98800	4595
3.98867	4595
3.98933	4595
3.99000	4595
3.99067	4596
3.99133	4596
3.99200	4596
3.99267	4596
3.99333	4596
3.99400	4596
3.99467	4597
3.99533	4597
3.99600	4597
3.99667	4597
3.99733	4598
3.99800	4598
3.99867	4599
3.99933	4599
4.00000	4600
4.00067	4600
4.00133	4601
4.00200	4602
4.00267	4602
4.00333	4603
4.00400	4604
4.00467	4604
4.00533	4605
4.00600	4606
4.00667	4607
4.00733	4608
4.00800	4609
4.00867	4610
4.00933	4611
4.01000	4613
4.01067	4614
4.01133	4615
4.01200	4616
4.01267	4618
4.01333	4619
4.01400	4620
4.01467	4622
4.01533	4623
4.01600	4625
4.01667	4626
4.01733	4628
4.01800	4630
4.01867	4632
4.01933	4634
4.02000	4636
4.02067	4638
4.02133	4640
4.02200	4642
4.02267	4644
4.02333	4646
4.02400	4648
4.02467	4650
4.02533	4652
4.02600	4655
4.02667	4657
4.02733	4660
4.02800	4662
4.02867	4665
4.02933	4667
4.03000	4670
4.03067	4672
4.03133	4675
4.03200	4678
4.03267	4681
4.03333	4684
4.03400	4687
4.03467	4690
4.03533	4693
4.03600	4696
4.03667	4699
4.03733	4702
4.03800	4706
4.03867	4709
4.03933	4713
4.04000	4716
4.04067	4720
4.04133	4724
4.04200	4727
4.04267	4731
4.04333	4735
4.04400	4739
4.04467	4743
4.04533	4747
4.04600	4751
4.04667	4755
4.04733	4760
4.04800	4764
4.04867	4768
4.04933	4773
4.05000	4777
4.05067	4781
4.05133	4786
4.05200	4790
4.05267	4795
4.05333	4800
4.05400	4804
4.05467	4809
4.05533	4813
4.05600	4818
4.05667	4822
4.05733	4827
4.05800	4832
4.05867	4836
4.05933	4841
4.06000	4845
4.06067	4850
4.06133	4855
4.06200	4860
4.06267	4864
4.06333	4869
4.06400	4874
4.06467	4879
4.06533	4883
4.06600	4888
4.06667	4893
4.06733	4898
4.06800	4903
4.06867	4908
4.06933	4913
4.07000	4918
4.07067	4923
4.07133	4927
4.07200	4932
4.07267	4937
4.07333	4942
4.07400	4947
4.07467	4952
4.07533	4957
4.07600	4962
4.07667	4966
4.07733	4971
4.07800	4976
4.07867	4981
4.07933	4986
4.08000	4990
4.08067	4995
4.08133	5000
4.08200	5005
4.08267	5010
4.08333	5014
4.08400	5019
4.08467	5024
4.08533	5029
4.08600	5033
4.08667	5038
4.08733	5043
4.08800	5047
4.08867	5052
4.08933	5056
4.09000	5060
4.09067	5065
4.09133	5069
4.09200	5073
4.09267	5078
4.09333	5082
4.09400	5086
4.09467	5090
4.09533	5094
4.09600	5098
4.09667	5102
4.09733	5106
4.09800	5110
4.09867	5114
4.09933	5118
4.10000	5122
4.10067	5126
4.10133	5129
4.10200	5133
4.10267	5137
4.10333	5140
4.10400	5144
4.10467	5147
4.10533	5150
4.10600	5154
4.10667	5157
4.10733	5160
4.10800	5163
4.10867	5166
4.10933	5169
4.11000	5172
4.11067	5174
4.11133	5177
4.11200	5179
4.11267	5182
4.11333	5184
4.11400	5187
4.11467	5189
4.11533	5191
4.11600	5193
4.11667	5195
4.11733	5197
4.11800	5199
4.11867	5201
4.11933	5203
4.12000	5205
4.12067	5207
4.12133	5208
4.12200	5210
4.12267	5212
4.12333	5213
4.12400	5214
4.12467	5216
4.12533	5217
4.12600	5218
4.12667	5219
4.12733	5220
4.12800	5220
4.12867	5221
4.12933	5222
4.13000	5222
4.13067	5223
4.13133	5223
4.13200	5224
4.13267	5224
4.13333	5224
4.13400	5224
4.13467	5225
4.13533	5225
4.13600	5225
4.13667	5224
4.13733	5224
4.13800	5224
4.13867	5224
4.13933	5223
4.14000	5223
4.14067	5222
4.14133	5221
4.14200	5221
4.14267	5220
4.14333	5219
4.14400	5219
4.14467	5218
4.14533	5217
4.14600	5216
4.14667	5215
4.14733	5215
4.14800	5214
4.14867	5213
4.14933	5212
4.15000	5211
4.15067	5210
4.15133	5210
4.15200	5209
4.15267	5208
4.15333	5207
4.15400	5206
4.15467	5205
4.15533	5204
4.15600	5203
4.15667	5203
4.15733	5202
4.15800	5201
4.15867	5200
4.15933	5199
4.16000	5198
4.16067	5197
4.16133	5197
4.16200	5196
4.16267	5195
4.16333	5195
4.16400	5194
4.16467	5193
4.16533	5193
4.16600	5192
4.16667	5192
4.16733	5191
4.16800	5191
4.16867	5190
4.16933	5190
4.17000	5190
4.17067	5189
4.17133	5189
4.17200	5189
4.17267	5189
4.17333	5189
4.17400	5189
4.17467	5189
4.17533	5189
4.17600	5190
4.17667	5190
4.17733	5191
4.17800	5191
4.17867	5192
4.17933	5193
4.18000	5194
4.18067	5195
4.18133	5197
4.18200	5198
4.18267	5199
4.18333	5201
4.18400	5203
4.18467	5205
4.18533	5207
4.18600	5209
4.18667	5211
4.18733	5214
4.18800	5216
4.18867	5219
4.18933	5222
4.19000	5225
4.19067	5229
4.19133	5232
4.19200	5236
4.19267	5240
4.19333	5245
4.19400	5249
4.19467	5254
4.19533	5258
4.19600	5264
4.19667	5269
4.19733	5274
4.19800	5280
4.19867	5286
4.19933	5292
4.20000	5299
4.20067	5306
4.20133	5313
4.20200	5320
4.20267	5328
4.20333	5335
4.20400	5344
4.20467	5352
4.20533	5361
4.20600	5370
4.20667	5379
4.20733	5389
4.20800	5399
4.20867	5409
4.20933	5420
4.21000	5431
4.21067	5442
4.21133	5454
4.21200	5466
4.21267	5478
4.21333	5491
4.21400	5505
4.21467	5518
4.21533	5532
4.21600	5547
4.21667	5562
4.21733	5577
4.21800	5592
4.21867	5608
4.21933	5625
4.22000	5642
4.22067	5659
4.22133	5677
4.22200	5696
4.22267	5715
4.22333	5734
4.22400	5754
4.22467	5775
4.22533	5796
4.22600	5817
4.22667	5839
4.22733	5862
4.22800	5886
4.22867	5909
4.22933	5934
4.23000	5959
4.23067	5985
4.23133	6011
4.23200	6038
4.23267	6065
4.23333	6093
4.23400	6122
4.23467	6151
4.23533	6181
4.23600	6212
4.23667	6243
4.23733	6275
4.23800	6307
4.23867	6341
4.23933	6374
4.24000	6409
4.24067	6444
4.24133	6480
4.24200	6516
4.24267	6553
4.24333	6591
4.24400	6629
4.24467	6668
4.24533	6708
4.24600	6748
4.24667	6789
4.24733	6831
4.24800	6873
4.24867	6917
4.24933	6961
4.25000	7005
4.25067	7051
4.25133	7097
4.25200	7144
4.25267	7192
4.25333	7240
4.25400	7290
4.25467	7340
4.25533	7390
4.25600	7441
4.25667	7493
4.25733	7546
4.25800	7599
4.25867	7652
4.25933	7707
4.26000	7762
4.26067	7817
4.26133	7874
4.26200	7930
4.26267	7988
4.26333	8045
4.26400	8104
4.26467	8162
4.26533	8222
4.26600	8282
4.26667	8342
4.26733	8402
4.26800	8463
4.26867	8525
4.26933	8587
4.27000	8649
4.27067	8712
4.27133	8776
4.27200	8839
4.27267	8903
4.27333	8968
4.27400	9033
4.27467	9098
4.27533	9163
4.27600	9229
4.27667	9295
4.27733	9361
4.27800	9427
4.27867	9493
4.27933	9560
4.28000	9627
4.28067	9694
4.28133	9761
4.28200	9828
4.28267	9895
4.28333	9962
4.28400	10029
4.28467	10097
4.28533	10164
4.28600	10231
4.28667	10298
4.28733	10365
4.28800	10431
4.28867	10498
4.28933	10564
4.29000	10630
4.29067	10696
4.29133	10762
4.29200	10827
4.29267	10892
4.29333	10957
4.29400	11021
4.29467	11085
4.29533	11149
4.29600	11212
4.29667	11275
4.29733	11337
4.29800	11399
4.29867	11461
4.29933	11522
4.30000	11583
4.30067	11643
4.30133	11702
4.30200	11761
4.30267	11820
4.30333	11877
4.30400	11935
4.30467	11991
4.30533	12047
4.30600	12103
4.30667	12157
4.30733	12211
4.30800	12265
4.30867	12317
4.30933	12369
4.31000	12420
4.31067	12471
4.31133	12520
4.31200	12569
4.31267	12617
4.31333	12664
4.31400	12710
4.31467	12755
4.31533	12799
4.31600	12842
4.31667	12884
4.31733	12925
4.31800	12965
4.31867	13004
4.31933	13042
4.32000	13079
4.32067	13115
4.32133	13149
4.32200	13183
4.32267	13215
4.32333	13246
4.32400	13276
4.32467	13305
4.32533	13333
4.32600	13360
4.32667	13385
4.32733	13410
4.32800	13433
4.32867	13455
4.32933	13476
4.33000	13496
4.33067	13514
4.33133	13531
4.33200	13547
4.33267	13562
4.33333	13575
4.33400	13587
4.33467	13598
4.33533	13607
4.33600	13615
4.33667	13622
4.33733	13627
4.33800	13631
4.33867	13634
4.33933	13636
4.34000	13637
4.34067	13636
4.34133	13634
4.34200	13631
4.34267	13626
4.34333	13621
4.34400	13614
4.34467	13606
4.34533	13597
4.34600	13587
4.34667	13576
4.34733	13563
4.34800	13549
4.34867	13534
4.34933	13519
4.35000	13501
4.35067	13483
4.35133	13464
4.35200	13444
4.35267	13423
4.35333	13400
4.35400	13377
4.35467	13352
4.35533	13327
4.35600	13300
4.35667	13273
4.35733	13244
4.35800	13215
4.35867	13185
4.35933	13154
4.36000	13123
4.36067	13090
4.36133	13057
4.36200	13023
4.36267	12989
4.36333	12953
4.36400	12918
4.36467	12881
4.36533	12844
4.36600	12806
4.36667	12768
4.36733	12729
4.36800	12689
4.36867	12649
4.36933	12609
4.37000	12568
4.37067	12527
4.37133	12485
4.37200	12443
4.37267	12400
4.37333	12358
4.37400	12315
4.37467	12271
4.37533	12228
4.37600	12184
4.37667	12140
4.37733	12096
4.37800	12052
4.37867	12008
4.37933	11963
4.38000	11919
4.38067	11875
4.38133	11830
4.38200	11786
4.38267	11741
4.38333	11697
4.38400	11652
4.38467	11608
4.38533	11564
4.38600	11520
4.38667	11476
4.38733	11433
4.38800	11390
4.38867	11347
4.38933	11305
4.39000	11263
4.39067	11221
4.39133	11180
4.39200	11139
4.39267	11099
4.39333	11059
4.39400	11020
4.39467	10981
4.39533	10942
4.39600	10904
4.39667	10867
4.39733	10830
4.39800	10793
4.39867	10757
4.39933	10722
4.40000	10687
4.40067	10653
4.40133	10619
4.40200	10586
4.40267	10553
4.40333	10521
4.40400	10490
4.40467	10459
4.40533	10428
4.40600	10398
4.40667	10369
4.40733	10340
4.40800	10312
4.40867	10285
4.40933	10258
4.41000	10232
4.41067	10206
4.41133	10181
4.41200	10156
4.41267	10132
4.41333	10108
4.41400	10085
4.41467	10063
4.41533	10041
4.41600	10020
4.41667	9999
4.41733	9979
4.41800	9959
4.41867	9940
4.41933	9921
4.42000	9903
4.42067	9885
4.42133	9868
4.42200	9852
4.42267	9835
4.42333	9819
4.42400	9804
4.42467	9789
4.42533	9775
4.42600	9760
4.42667	9747
4.42733	9734
4.42800	9721
4.42867	9708
4.42933	9696
4.43000	9685
4.43067	9674
4.43133	9663
4.43200	9652
4.43267	9642
4.43333	9632
4.43400	9623
4.43467	9613
4.43533	9604
4.43600	9596
4.43667	9587
4.43733	9579
4.43800	9571
4.43867	9563
4.43933	9556
4.44000	9548
4.44067	9541
4.44133	9534
4.44200	9527
4.44267	9520
4.44333	9514
4.44400	9507
4.44467	9501
4.44533	9495
4.44600	9489
4.44667	9482
4.44733	9476
4.44800	9470
4.44867	9465
4.44933	9459
4.45000	9453
4.45067	9447
4.45133	9441
4.45200	9435
4.45267	9429
4.45333	9423
4.45400	9417
4.45467	9411
4.45533	9405
4.45600	9399
4.45667	9393
4.45733	9387
4.45800	9380
4.45867	9374
4.45933	9368
4.46000	9362
4.46067	9355
4.46133	9349
4.46200	9342
4.46267	9336
4.46333	9329
4.46400	9322
4.46467	9315
4.46533	9309
4.46600	9302
4.46667	9295
4.46733	9288
4.46800	9281
4.46867	9274
4.46933	9267
4.47000	9260
4.47067	9253
4.47133	9245
4.47200	9238
4.47267	9231
4.47333	9223
4.47400	9216
4.47467	9208
4.47533	9201
4.47600	9193
4.47667	9186
4.47733	9178
4.47800	9170
4.47867	9162
4.47933	9154
4.48000	9146
4.48067	9138
4.48133	9130
4.48200	9121
4.48267	9113
4.48333	9104
4.48400	9096
4.48467	9087
4.48533	9079
4.48600	9070
4.48667	9061
4.48733	9053
4.48800	9044
4.48867	9035
4.48933	9026
4.49000	9017
4.49067	9009
4.49133	9000
4.49200	8991
4.49267	8982
4.49333	8973
4.49400	8964
4.49467	8955
4.49533	8945
4.49600	8936
4.49667	8927
4.49733	8918
4.49800	8909
4.49867	8899
4.49933	8890
4.50000	8880
4.50067	8871
4.50133	8861
4.50200	8852
4.50267	8842
4.50333	8833
4.50400	8823
4.50467	8813
4.50533	8804
4.50600	8794
4.50667	8785
4.50733	8775
4.50800	8766
4.50867	8756
4.50933	8747
4.51000	8738
4.51067	8729
4.51133	8720
4.51200	8711
4.51267	8702
4.51333	8693
4.51400	8684
4.51467	8676
4.51533	8668
4.51600	8659
4.51667	8651
4.51733	8643
4.51800	8635
4.51867	8628
4.51933	8621
4.52000	8613
4.52067	8606
4.52133	8599
4.52200	8593
4.52267	8586
4.52333	8580
4.52400	8575
4.52467	8569
4.52533	8564
4.52600	8559
4.52667	8554
4.52733	8550
4.52800	8546
4.52867	8542
4.52933	8539
4.53000	8536
4.53067	8534
4.53133	8532
4.53200	8530
4.53267	8529
4.53333	8528
4.53400	8527
4.53467	8527
4.53533	8528
4.53600	8529
4.53667	8530
4.53733	8532
4.53800	8535
4.53867	8538
4.53933	8541
4.54000	8545
4.54067	8550
4.54133	8555
4.54200	8560
4.54267	8566
4.54333	8573
4.54400	8581
4.54467	8588
4.54533	8597
4.54600	8606
4.54667	8616
4.54733	8626
4.54800	8636
4.54867	8648
4.54933	8660
4.55000	8672
4.55067	8685
4.55133	8699
4.55200	8713
4.55267	8728
4.55333	8743
4.55400	8759
4.55467	8776
4.55533	8793
4.55600	8811
4.55667	8829
4.55733	8848
4.55800	8868
4.55867	8888
4.55933	8909
4.56000	8931
4.56067	8953
4.56133	8975
4.56200	8998
4.56267	9022
4.56333	9046
4.56400	9071
4.56467	9096
4.56533	9121
4.56600	9147
4.56667	9173
4.56733	9200
4.56800	9227
4.56867	9255
4.56933	9283
4.57000	9311
4.57067	9340
4.57133	9369
4.57200	9398
4.57267	9428
4.57333	9457
4.57400	9487
4.57467	9518
4.57533	9548
4.57600	9579
4.57667	9610
4.57733	9641
4.57800	9672
4.57867	9703
4.57933	9735
4.58000	9767
4.58067	9799
4.58133	9831
4.58200	9863
4.58267	9895
4.58333	9928
4.58400	9960
4.58467	9993
4.58533	10025
4.58600	10058
4.58667	10090
4.58733	10123
4.58800	10155
4.58867	10187
4.58933	10219
4.59000	10251
4.59067	10283
4.59133	10315
4.59200	10346
4.59267	10378
4.59333	10409
4.59400	10439
4.59467	10470
4.59533	10499
4.59600	10529
4.59667	10558
4.59733	10587
4.59800	10615
4.59867	10643
4.59933	10670
4.60000	10697
4.60067	10724
4.60133	10750
4.60200	10775
4.60267	10801
4.60333	10825
4.60400	10849
4.60467	10872
4.60533	10895
4.60600	10918
4.60667	10939
4.60733	10961
4.60800	10981
4.60867	11001
4.60933	11020
4.61000	11039
4.61067	11057
4.61133	11074
4.61200	11091
4.61267	11107
4.61333	11123
4.61400	11137
4.61467	11152
4.61533	11165
4.61600	11178
4.61667	11189
4.61733	11201
4.61800	11211
4.61867	11221
4.61933	11230
4.62000	11239
4.62067	11246
4.62133	11253
4.62200	11260
4.62267	11266
4.62333	11271
4.62400	11275
4.62467	11279
4.62533	11282
4.62600	11285
4.62667	11287
4.62733	11288
4.62800	11289
4.62867	11289
4.62933	11289
4.63000	11288
4.63067	11287
4.63133	11285
4.63200	11282
4.63267	11279
4.63333	11276
4.63400	11272
4.63467	11268
4.63533	11263
4.63600	11257
4.63667	11252
4.63733	11246
4.63800	11239
4.63867	11232
4.63933	11225
4.64000	11217
4.64067	11209
4.64133	11200
4.64200	11191
4.64267	11182
4.64333	11172
4.64400	11162
4.64467	11152
4.64533	11141
4.64600	11130
4.64667	11119
4.64733	11107
4.64800	11095
4.64867	11082
4.64933	11069
4.65000	11056
4.65067	11042
4.65133	11028
4.65200	11014
4.65267	11000
4.65333	10985
4.65400	10970
4.65467	10955
4.65533	10940
4.65600	10924
4.65667	10908
4.65733	10893
4.65800	10877
4.65867	10860
4.65933	10844
4.66000	10828
4.66067	10811
4.66133	10794
4.66200	10777
4.66267	10760
4.66333	10743
4.66400	10726
4.66467	10708
4.66533	10691
4.66600	10673
4.66667	10656
4.66733	10638
4.66800	10621
4.66867	10603
4.66933	10585
4.67000	10568
4.67067	10550
4.67133	10532
4.67200	10515
4.67267	10497
4.67333	10480
4.67400	10462
4.67467	10445
4.67533	10428
4.67600	10410
4.67667	10393
4.67733	10376
4.67800	10359
4.67867	10342
4.67933	10325
4.68000	10308
4.68067	10291
4.68133	10275
4.68200	10258
4.68267	10241
4.68333	10225
4.68400	10208
4.68467	10192
4.68533	10175
4.68600	10159
4.68667	10143
4.68733	10126
4.68800	10110
4.68867	10093
4.68933	10077
4.69000	10061
4.69067	10045
4.69133	10028
4.69200	10012
4.69267	9996
4.69333	9980
4.69400	9964
4.69467	9948
4.69533	9932
4.69600	9917
4.69667	9901
4.69733	9886
4.69800	9870
4.69867	9855
4.69933	9839
4.70000	9824
4.70067	9809
4.70133	9794
4.70200	9779
4.70267	9764
4.70333	9750
4.70400	9735
4.70467	9721
4.70533	9706
4.70600	9692
4.70667	9678
4.70733	9663
4.70800	9649
4.70867	9636
4.70933	9622
4.71000	9608
4.71067	9595
4.71133	9581
4.71200	9568
4.71267	9555
4.71333	9542
4.71400	9529
4.71467	9516
4.71533	9503
4.71600	9490
4.71667	9478
4.71733	9465
4.71800	9453
4.71867	9440
4.71933	9428
4.72000	9416
4.72067	9404
4.72133	9392
4.72200	9380
4.72267	9369
4.72333	9357
4.72400	9345
4.72467	9334
4.72533	9322
4.72600	9311
4.72667	9300
4.72733	9289
4.72800	9278
4.72867	9267
4.72933	9256
4.73000	9246
4.73067	9235
4.73133	9225
4.73200	9215
4.73267	9205
4.73333	9195
4.73400	9185
4.73467	9175
4.73533	9165
4.73600	9155
4.73667	9145
4.73733	9136
4.73800	9126
4.73867	9117
4.73933	9107
4.74000	9098
4.74067	9088
4.74133	9079
4.74200	9070
4.74267	9060
4.74333	9051
4.74400	9042
4.74467	9033
4.74533	9024
4.74600	9015
4.74667	9006
4.74733	8997
4.74800	8989
4.74867	8980
4.74933	8972
4.75000	8963
4.75067	8955
4.75133	8947
4.75200	8939
4.75267	8931
4.75333	8923
4.75400	8915
4.75467	8908
4.75533	8900
4.75600	8892
4.75667	8885
4.75733	8878
4.75800	8870
4.75867	8863
4.75933	8856
4.76000	8849
4.76067	8842
4.76133	8835
4.76200	8828
4.76267	8821
4.76333	8814
4.76400	8807
4.76467	8800
4.76533	8793
4.76600	8786
4.76667	8780
4.76733	8773
4.76800	8766
4.76867	8759
4.76933	8752
4.77000	8745
4.77067	8738
4.77133	8731
4.77200	8724
4.77267	8717
4.77333	8710
4.77400	8704
4.77467	8697
4.77533	8690
4.77600	8683
4.77667	8676
4.77733	8670
4.77800	8663
4.77867	8656
4.77933	8650
4.78000	8643
4.78067	8637
4.78133	8630
4.78200	8624
4.78267	8617
4.78333	8611
4.78400	8605
4.78467	8598
4.78533	8592
4.78600	8586
4.78667	8579
4.78733	8573
4.78800	8567
4.78867	8561
4.78933	8554
4.79000	8548
4.79067	8541
4.79133	8535
4.79200	8528
4.79267	8522
4.79333	8516
4.79400	8509
4.79467	8503
4.79533	8497
4.79600	8491
4.79667	8485
4.79733	8479
4.79800	8473
4.79867	8467
4.79933	8462
4.80000	8456
4.80067	8450
4.80133	8445
4.80200	8440
4.80267	8434
4.80333	8429
4.80400	8424
4.80467	8418
4.80533	8413
4.80600	8408
4.80667	8403
4.80733	8398
4.80800	8393
4.80867	8388
4.80933	8383
4.81000	8378
4.81067	8373
4.81133	8368
4.81200	8363
4.81267	8359
4.81333	8354
4.81400	8349
4.81467	8344
4.81533	8339
4.81600	8334
4.81667	8329
4.81733	8324
4.81800	8320
4.81867	8315
4.81933	8310
4.82000	8305
4.82067	8300
4.82133	8295
4.82200	8290
4.82267	8285
4.82333	8280
4.82400	8276
4.82467	8271
4.82533	8266
4.82600	8261
4.82667	8256
4.82733	8251
4.82800	8246
4.82867	8241
4.82933	8236
4.83000	8231
4.83067	8227
4.83133	8222
4.83200	8217
4.83267	8212
4.83333	8207
4.83400	8202
4.83467	8197
4.83533	8192
4.83600	8187
4.83667	8182
4.83733	8177
4.83800	8172
4.83867	8167
4.83933	8162
4.84000	8157
4.84067	8152
4.84133	8148
4.84200	8143
4.84267	8138
4.84333	8133
4.84400	8129
4.84467	8124
4.84533	8120
4.84600	8115
4.84667	8110
4.84733	8106
4.84800	8101
4.84867	8097
4.84933	8092
4.85000	8088
4.85067	8083
4.85133	8079
4.85200	8074
4.85267	8069
4.85333	8065
4.85400	8060
4.85467	8055
4.85533	8050
4.85600	8046
4.85667	8041
4.85733	8036
4.85800	8031
4.85867	8026
4.85933	8021
4.86000	8016
4.86067	8012
4.86133	8007
4.86200	8002
4.86267	7997
4.86333	7992
4.86400	7987
4.86467	7982
4.86533	7977
4.86600	7972
4.86667	7967
4.86733	7962
4.86800	7957
4.86867	7952
4.86933	7947
4.87000	7942
4.87067	7937
4.87133	7932
4.87200	7927
4.87267	7922
4.87333	7917
4.87400	7912
4.87467	7907
4.87533	7902
4.87600	7897
4.87667	7892
4.87733	7887
4.87800	7882
4.87867	7877
4.87933	7872
4.88000	7867
4.88067	7862
4.88133	7857
4.88200	7852
4.88267	7847
4.88333	7842
4.88400	7838
4.88467	7833
4.88533	7828
4.88600	7824
4.88667	7819
4.88733	7815
4.88800	7811
4.88867	7806
4.88933	7802
4.89000	7797
4.89067	7793
4.89133	7789
4.89200	7785
4.89267	7780
4.89333	7776
4.89400	7772
4.89467	7768
4.89533	7764
4.89600	7760
4.89667	7756
4.89733	7752
4.89800	7748
4.89867	7744
4.89933	7740
4.90000	7736
4.90067	7732
4.90133	7728
4.90200	7724
4.90267	7720
4.90333	7716
4.90400	7712
4.90467	7709
4.90533	7705
4.90600	7701
4.90667	7697
4.90733	7693
4.90800	7689
4.90867	7686
4.90933	7682
4.91000	7678
4.91067	7674
4.91133	7670
4.91200	7667
4.91267	7663
4.91333	7659
4.91400	7655
4.91467	7651
4.91533	7648
4.91600	7644
4.91667	7641
4.91733	7637
4.91800	7633
4.91867	7630
4.91933	7626
4.92000	7623
4.92067	7619
4.92133	7616
4.92200	7612
4.92267	7609
4.92333	7605
4.92400	7602
4.92467	7599
4.92533	7595
4.92600	7592
4.92667	7589
4.92733	7585
4.92800	7582
4.92867	7578
4.92933	7575
4.93000	7572
4.93067	7568
4.93133	7565
4.93200	7562
4.93267	7558
4.93333	7555
4.93400	7552
4.93467	7548
4.93533	7545
4.93600	7542
4.93667	7539
4.93733	7536
4.93800	7532
4.93867	7529
4.93933	7526
4.94000	7523
4.94067	7520
4.94133	7516
4.94200	7513
4.94267	7510
4.94333	7507
4.94400	7503
4.94467	7500
4.94533	7497
4.94600	7493
4.94667	7490
4.94733	7487
4.94800	7484
4.94867	7481
4.94933	7477
4.95000	7474
4.95067	7471
4.95133	7468
4.95200	7465
4.95267	7462
4.95333	7459
4.95400	7456
4.95467	7453
4.95533	7450
4.95600	7447
4.95667	7444
4.95733	7441
4.95800	7438
4.95867	7435
4.95933	7432
4.96000	7429
4.96067	7426
4.96133	7423
4.96200	7420
4.96267	7417
4.96333	7415
4.96400	7412
4.96467	7409
4.96533	7406
4.96600	7404
4.96667	7401
4.96733	7398
4.96800	7396
4.96867	7393
4.96933	7391
4.97000	7388
4.97067	7386
4.97133	7383
4.97200	7381
4.97267	7378
4.97333	7376
4.97400	7374
4.97467	7371
4.97533	7369
4.97600	7366
4.97667	7364
4.97733	7361
4.97800	7359
4.97867	7356
4.97933	7354
4.98000	7352
4.98067	7349
4.98133	7347
4.98200	7344
4.98267	7342
4.98333	7339
4.98400	7337
4.98467	7334
4.98533	7332
4.98600	7330
4.98667	7327
4.98733	7325
4.98800	7322
4.98867	7320
4.98933	7317
4.99000	7315
4.99067	7312
4.99133	7310
4.99200	7307
4.99267	7305
4.99333	7302
4.99400	7300
4.99467	7297
4.99533	7295
4.99600	7292
4.99667	7290
4.99733	7287
4.99800	7285
4.99867	7282
4.99933	7280
5.00000	7277
5.00067	7275
5.00133	7272
5.00200	7270
5.00267	7267
5.00333	7265
5.00400	7262
5.00467	7260
5.00533	7258
5.00600	7255
5.00667	7253
5.00733	7251
5.00800	7248
5.00867	7246
5.00933	7243
5.01000	7241
5.01067	7238
5.01133	7236
5.01200	7233
5.01267	7231
5.01333	7228
5.01400	7225
5.01467	7223
5.01533	7220
5.01600	7218
5.01667	7215
5.01733	7212
5.01800	7210
5.01867	7207
5.01933	7204
5.02000	7202
5.02067	7199
5.02133	7196
5.02200	7193
5.02267	7191
5.02333	7188
5.02400	7185
5.02467	7182
5.02533	7180
5.02600	7177
5.02667	7174
5.02733	7172
5.02800	7169
5.02867	7166
5.02933	7163
5.03000	7161
5.03067	7158
5.03133	7155
5.03200	7152
5.03267	7150
5.03333	7147
5.03400	7144
5.03467	7141
5.03533	7139
5.03600	7136
5.03667	7133
5.03733	7130
5.03800	7128
5.03867	7125
5.03933	7122
5.04000	7119
5.04067	7116
5.04133	7113
5.04200	7110
5.04267	7107
5.04333	7104
5.04400	7101
5.04467	7098
5.04533	7095
5.04600	7092
5.04667	7089
5.04733	7086
5.04800	7083
5.04867	7079
5.04933	7076
5.05000	7073
5.05067	7070
5.05133	7067
5.05200	7064
5.05267	7061
5.05333	7058
5.05400	7055
5.05467	7052
5.05533	7049
5.05600	7045
5.05667	7042
5.05733	7039
5.05800	7036
5.05867	7033
5.05933	7030
5.06000	7027
5.06067	7024
5.06133	7021
5.06200	7018
5.06267	7014
5.06333	7011
5.06400	7008
5.06467	7005
5.06533	7002
5.06600	6999
5.06667	6996
5.06733	6992
5.06800	6989
5.06867	6986
5.06933	6983
5.07000	6980
5.07067	6977
5.07133	6974
5.07200	6971
5.07267	6968
5.07333	6965
5.07400	6962
5.07467	6959
5.07533	6956
5.07600	6953
5.07667	6950
5.07733	6947
5.07800	6944
5.07867	6941
5.07933	6938
5.08000	6935
5.08067	6933
5.08133	6930
5.08200	6927
5.08267	6925
5.08333	6922
5.08400	6919
5.08467	6917
5.08533	6914
5.08600	6911
5.08667	6909
5.08733	6906
5.08800	6904
5.08867	6902
5.08933	6899
5.09000	6897
5.09067	6895
5.09133	6892
5.09200	6890
5.09267	6888
5.09333	6886
5.09400	6884
5.09467	6882
5.09533	6880
5.09600	6878
5.09667	6876
5.09733	6874
5.09800	6872
5.09867	6870
5.09933	6868
5.10000	6866
5.10067	6864
5.10133	6862
5.10200	6860
5.10267	6858
5.10333	6856
5.10400	6854
5.10467	6852
5.10533	6851
5.10600	6849
5.10667	6847
5.10733	6845
5.10800	6843
5.10867	6841
5.10933	6840
5.11000	6838
5.11067	6836
5.11133	6834
5.11200	6833
5.11267	6831
5.11333	6830
5.11400	6828
5.11467	6826
5.11533	6825
5.11600	6823
5.11667	6822
5.11733	6820
5.11800	6819
5.11867	6817
5.11933	6816
5.12000	6814
5.12067	6813
5.12133	6812
5.12200	6810
5.12267	6809
5.12333	6807
5.12400	6806
5.12467	6805
5.12533	6804
5.12600	6802
5.12667	6801
5.12733	6800
5.12800	6799
5.12867	6798
5.12933	6797
5.13000	6796
5.13067	6795
5.13133	6794
5.13200	6793
5.13267	6793
5.13333	6792
5.13400	6791
5.13467	6790
5.13533	6790
5.13600	6789
5.13667	6788
5.13733	6788
5.13800	6787
5.13867	6787
5.13933	6786
5.14000	6786
5.14067	6785
5.14133	6785
5.14200	6784
5.14267	6784
5.14333	6784
5.14400	6783
5.14467	6783
5.14533	6783
5.14600	6783
5.14667	6782
5.14733	6782
5.14800	6782
5.14867	6782
5.14933	6782
5.15000	6782
5.15067	6782
5.15133	6783
5.15200	6783
5.15267	6783
5.15333	6783
5.15400	6784
5.15467	6784
5.15533	6785
5.15600	6786
5.15667	6786
5.15733	6787
5.15800	6788
5.15867	6789
5.15933	6790
5.16000	6791
5.16067	6792
5.16133	6794
5.16200	6795
5.16267	6796
5.16333	6798
5.16400	6799
5.16467	6801
5.16533	6802
5.16600	6804
5.16667	6805
5.16733	6807
5.16800	6809
5.16867	6811
5.16933	6812
5.17000	6814
5.17067	6816
5.17133	6818
5.17200	6820
5.17267	6822
5.17333	6825
5.17400	6827
5.17467	6829
5.17533	6832
5.17600	6834
5.17667	6837
5.17733	6839
5.17800	6842
5.17867	6844
5.17933	6847
5.18000	6850
5.18067	6853
5.18133	6856
5.18200	6859
5.18267	6862
5.18333	6865
5.18400	6868
5.18467	6872
5.18533	6875
5.18600	6878
5.18667	6881
5.18733	6885
5.18800	6888
5.18867	6891
5.18933	6895
5.19000	6898
5.19067	6902
5.19133	6905
5.19200	6909
5.19267	6912
5.19333	6916
5.19400	6919
5.19467	6923
5.19533	6926
5.19600	6930
5.19667	6934
5.19733	6937
5.19800	6941
5.19867	6944
5.19933	6948
5.20000	6951
5.20067	6955
5.20133	6959
5.20200	6962
5.20267	6966
5.20333	6969
5.20400	6973
5.20467	6976
5.20533	6980
5.20600	6984
5.20667	6987
5.20733	6991
5.20800	6994
5.20867	6997
5.20933	7001
5.21000	7004
5.21067	7008
5.21133	7011
5.21200	7014
5.21267	7017
5.21333	7020
5.21400	7023
5.21467	7026
5.21533	7029
5.21600	7032
5.21667	7035
5.21733	7038
5.21800	7041
5.21867	7043
5.21933	7046
5.22000	7048
5.22067	7051
5.22133	7053
5.22200	7056
5.22267	7058
5.22333	7060
5.22400	7062
5.22467	7065
5.22533	7067
5.22600	7068
5.22667	7070
5.22733	7072
5.22800	7074
5.22867	7075
5.22933	7077
5.23000	7078
5.23067	7080
5.23133	7081
5.23200	7082
5.23267	7083
5.23333	7084
5.23400	7085
5.23467	7086
5.23533	7086
5.23600	7087
5.23667	7087
5.23733	7088
5.23800	7088
5.23867	7088
5.23933	7088
5.24000	7088
5.24067	7088
5.24133	7087
5.24200	7087
5.24267	7086
5.24333	7086
5.24400	7085
5.24467	7084
5.24533	7083
5.24600	7082
5.24667	7081
5.24733	7080
5.24800	7079
5.24867	7077
5.24933	7076
5.25000	7074
5.25067	7073
5.25133	7071
5.25200	7070
5.25267	7068
5.25333	7066
5.25400	7064
5.25467	7062
5.25533	7060
5.25600	7058
5.25667	7056
5.25733	7054
5.25800	7052
5.25867	7049
5.25933	7047
5.26000	7044
5.26067	7042
5.26133	7039
5.26200	7037
5.26267	7034
5.26333	7031
5.26400	7028
5.26467	7025
5.26533	7022
5.26600	7019
5.26667	7016
5.26733	7013
5.26800	7010
5.26867	7006
5.26933	7003
5.27000	7000
5.27067	6996
5.27133	6993
5.27200	6989
5.27267	6986
5.27333	6983
5.27400	6979
5.27467	6976
5.27533	6972
5.27600	6968
5.27667	6965
5.27733	6961
5.27800	6958
5.27867	6954
5.27933	6950
5.28000	6947
5.28067	6943
5.28133	6940
5.28200	6936
5.28267	6932
5.28333	6928
5.28400	6925
5.28467	6921
5.28533	6917
5.28600	6913
5.28667	6910
5.28733	6906
5.28800	6902
5.28867	6898
5.28933	6895
5.29000	6891
5.29067	6887
5.29133	6883
5.29200	6879
5.29267	6876
5.29333	6872
5.29400	6868
5.29467	6865
5.29533	6861
5.29600	6857
5.29667	6854
5.29733	6850
5.29800	6846
5.29867	6843
5.29933	6839
5.30000	6836
5.30067	6832
5.30133	6829
5.30200	6825
5.30267	6821
5.30333	6818
5.30400	6814
5.30467	6811
5.30533	6807
5.30600	6804
5.30667	6800
5.30733	6797
5.30800	6794
5.30867	6790
5.30933	6787
5.31000	6784
5.31067	6780
5.31133	6777
5.31200	6774
5.31267	6771
5.31333	6768
5.31400	6765
5.31467	6761
5.31533	6758
5.31600	6755
5.31667	6752
5.31733	6749
5.31800	6746
5.31867	6743
5.31933	6740
5.32000	6737
5.32067	6733
5.32133	6730
5.32200	6727
5.32267	6724
5.32333	6721
5.32400	6718
5.32467	6716
5.32533	6713
5.32600	6710
5.32667	6707
5.32733	6704
5.32800	6701
5.32867	6698
5.32933	6695
5.33000	6692
5.33067	6689
5.33133	6686
5.33200	6684
5.33267	6681
5.33333	6678
5.33400	6675
5.33467	6672
5.33533	6670
5.33600	6667
5.33667	6664
5.33733	6661
5.33800	6658
5.33867	6656
5.33933	6653
5.34000	6650
5.34067	6647
5.34133	6645
5.34200	6642
5.34267	6639
5.34333	6637
5.34400	6634
5.34467	6631
5.34533	6629
5.34600	6626
5.34667	6623
5.34733	6621
5.34800	6619
5.34867	6616
5.34933	6614
5.35000	6611
5.35067	6609
5.35133	6607
5.35200	6604
5.35267	6602
5.35333	6600
5.35400	6597
5.35467	6595
5.35533	6593
5.35600	6591
5.35667	6588
5.35733	6586
5.35800	6584
5.35867	6582
5.35933	6580
5.36000	6578
5.36067	6576
5.36133	6575
5.36200	6573
5.36267	6571
5.36333	6569
5.36400	6568
5.36467	6566
5.36533	6565
5.36600	6563
5.36667	6561
5.36733	6560
5.36800	6558
5.36867	6556
5.36933	6555
5.37000	6553
5.37067	6552
5.37133	6550
5.37200	6549
5.37267	6547
5.37333	6546
5.37400	6545
5.37467	6543
5.37533	6542
5.37600	6541
5.37667	6539
5.37733	6538
5.37800	6537
5.37867	6536
5.37933	6534
5.38000	6533
5.38067	6532
5.38133	6531
5.38200	6530
5.38267	6529
5.38333	6527
5.38400	6526
5.38467	6525
5.38533	6524
5.38600	6523
5.38667	6522
5.38733	6520
5.38800	6519
5.38867	6518
5.38933	6517
5.39000	6516
5.39067	6515
5.39133	6514
5.39200	6513
5.39267	6512
5.39333	6511
5.39400	6510
5.39467	6509
5.39533	6508
5.39600	6507
5.39667	6506
5.39733	6505
5.39800	6504
5.39867	6503
5.39933	6502
5.40000	6501
5.40067	6500
5.40133	6499
5.40200	6498
5.40267	6497
5.40333	6495
5.40400	6494
5.40467	6493
5.40533	6492
5.40600	6491
5.40667	6490
5.40733	6488
5.40800	6487
5.40867	6486
5.40933	6484
5.41000	6483
5.41067	6482
5.41133	6480
5.41200	6479
5.41267	6478
5.41333	6476
5.41400	6475
5.41467	6473
5.41533	6472
5.41600	6470
5.41667	6469
5.41733	6467
5.41800	6466
5.41867	6464
5.41933	6462
5.42000	6461
5.42067	6459
5.42133	6457
5.42200	6456
5.42267	6454
5.42333	6452
5.42400	6451
5.42467	6449
5.42533	6447
5.42600	6446
5.42667	6444
5.42733	6442
5.42800	6441
5.42867	6439
5.42933	6437
5.43000	6436
5.43067	6434
5.43133	6432
5.43200	6431
5.43267	6429
5.43333	6428
5.43400	6426
5.43467	6424
5.43533	6423
5.43600	6421
5.43667	6419
5.43733	6418
5.43800	6416
5.43867	6414
5.43933	6413
5.44000	6411
5.44067	6409
5.44133	6407
5.44200	6406
5.44267	6404
5.44333	6402
5.44400	6400
5.44467	6399
5.44533	6397
5.44600	6395
5.44667	6393
5.44733	6391
5.44800	6390
5.44867	6388
5.44933	6386
5.45000	6384
5.45067	6383
5.45133	6381
5.45200	6379
5.45267	6377
5.45333	6375
5.45400	6373
5.45467	6371
5.45533	6369
5.45600	6367
5.45667	6365
5.45733	6363
5.45800	6361
5.45867	6359
5.45933	6357
5.46000	6355
5.46067	6353
5.46133	6351
5.46200	6349
5.46267	6347
5.46333	6345
5.46400	6343
5.46467	6341
5.46533	6339
5.46600	6337
5.46667	6335
5.46733	6333
5.46800	6331
5.46867	6329
5.46933	6327
5.47000	6325
5.47067	6323
5.47133	6321
5.47200	6319
5.47267	6317
5.47333	6315
5.47400	6313
5.47467	6311
5.47533	6309
5.47600	6307
5.47667	6305
5.47733	6303
5.47800	6301
5.47867	6299
5.47933	6297
5.48000	6295
5.48067	6293
5.48133	6292
5.48200	6290
5.48267	6288
5.48333	6286
5.48400	6284
5.48467	6282
5.48533	6281
5.48600	6279
5.48667	6277
5.48733	6275
5.48800	6273
5.48867	6272
5.48933	6270
5.49000	6268
5.49067	6266
5.49133	6264
5.49200	6263
5.49267	6261
5.49333	6259
5.49400	6257
5.49467	6256
5.49533	6254
5.49600	6252
5.49667	6250
5.49733	6248
5.49800	6247
5.49867	6245
5.49933	6243
5.50000	6241
5.50067	6239
5.50133	6238
5.50200	6236
5.50267	6234
5.50333	6232
5.50400	6231
5.50467	6229
5.50533	6227
5.50600	6225
5.50667	6224
5.50733	6222
5.50800	6220
5.50867	6219
5.50933	6217
5.51000	6216
5.51067	6214
5.51133	6212
5.51200	6211
5.51267	6209
5.51333	6208
5.51400	6206
5.51467	6204
5.51533	6203
5.51600	6201
5.51667	6200
5.51733	6198
5.51800	6197
5.51867	6195
5.51933	6194
5.52000	6192
5.52067	6191
5.52133	6189
5.52200	6188
5.52267	6186
5.52333	6185
5.52400	6183
5.52467	6182
5.52533	6180
5.52600	6179
5.52667	6177
5.52733	6176
5.52800	6175
5.52867	6173
5.52933	6172
5.53000	6171
5.53067	6169
5.53133	6168
5.53200	6167
5.53267	6165
5.53333	6164
5.53400	6163
5.53467	6162
5.53533	6161
5.53600	6160
5.53667	6159
5.53733	6157
5.53800	6157
5.53867	6156
5.53933	6155
5.54000	6154
5.54067	6153
5.54133	6152
5.54200	6151
5.54267	6150
5.54333	6149
5.54400	6148
5.54467	6148
5.54533	6147
5.54600	6146
5.54667	6145
5.54733	6145
5.54800	6144
5.54867	6143
5.54933	6143
5.55000	6142
5.55067	6141
5.55133	6141
5.55200	6140
5.55267	6139
5.55333	6139
5.55400	6138
5.55467	6137
5.55533	6137
5.55600	6136
5.55667	6135
5.55733	6135
5.55800	6134
5.55867	6134
5.55933	6133
5.56000	6133
5.56067	6132
5.56133	6132
5.56200	6131
5.56267	6131
5.56333	6130
5.56400	6130
5.56467	6129
5.56533	6128
5.56600	6128
5.56667	6127
5.56733	6127
5.56800	6126
5.56867	6125
5.56933	6125
5.57000	6124
5.57067	6124
5.57133	6123
5.57200	6123
5.57267	6122
5.57333	6121
5.57400	6121
5.57467	6120
5.57533	6120
5.57600	6119
5.57667	6119
5.57733	6118
5.57800	6117
5.57867	6117
5.57933	6116
5.58000	6116
5.58067	6115
5.58133	6115
5.58200	6114
5.58267	6114
5.58333	6113
5.58400	6112
5.58467	6112
5.58533	6111
5.58600	6111
5.58667	6110
5.58733	6110
5.58800	6109
5.58867	6108
5.58933	6108
5.59000	6107
5.59067	6107
5.59133	6106
5.59200	6106
5.59267	6105
5.59333	6104
5.59400	6104
5.59467	6103
5.59533	6103
5.59600	6102
5.59667	6101
5.59733	6101
5.59800	6100
5.59867	6100
5.59933	6099
5.60000	6098
5.60067	6098
5.60133	6097
5.60200	6096
5.60267	6096
5.60333	6095
5.60400	6094
5.60467	6094
5.60533	6093
5.60600	6093
5.60667	6092
5.60733	6091
5.60800	6091
5.60867	6090
5.60933	6089
5.61000	6088
5.61067	6088
5.61133	6087
5.61200	6086
5.61267	6085
5.61333	6085
5.61400	6084
5.61467	6083
5.61533	6082
5.61600	6081
5.61667	6080
5.61733	6079
5.61800	6079
5.61867	6078
5.61933	6077
5.62000	6076
5.62067	6075
5.62133	6074
5.62200	6073
5.62267	6072
5.62333	6072
5.62400	6071
5.62467	6070
5.62533	6069
5.62600	6068
5.62667	6067
5.62733	6066
5.62800	6065
5.62867	6064
5.62933	6064
5.63000	6063
5.63067	6062
5.63133	6061
5.63200	6060
5.63267	6059
5.63333	6058
5.63400	6057
5.63467	6056
5.63533	6055
5.63600	6054
5.63667	6053
5.63733	6052
5.63800	6051
5.63867	6050
5.63933	6049
5.64000	6048
5.64067	6047
5.64133	6046
5.64200	6045
5.64267	6043
5.64333	6042
5.64400	6041
5.64467	6040
5.64533	6039
5.64600	6038
5.64667	6036
5.64733	6035
5.64800	6034
5.64867	6033
5.64933	6032
5.65000	6030
5.65067	6029
5.65133	6028
5.65200	6027
5.65267	6026
5.65333	6024
5.65400	6023
5.65467	6022
5.65533	6021
5.65600	6019
5.65667	6018
5.65733	6017
5.65800	6015
5.65867	6014
5.65933	6013
5.66000	6012
5.66067	6010
5.66133	6009
5.66200	6008
5.66267	6006
5.66333	6005
5.66400	6004
5.66467	6003
5.66533	6001
5.66600	6000
5.66667	5999
5.66733	5998
5.66800	5996
5.66867	5995
5.66933	5994
5.67000	5993
5.67067	5991
5.67133	5990
5.67200	5989
5.67267	5988
5.67333	5987
5.67400	5985
5.67467	5984
5.67533	5983
5.67600	5982
5.67667	5981
5.67733	5980
5.67800	5978
5.67867	5977
5.67933	5976
5.68000	5975
5.68067	5974
5.68133	5973
5.68200	5972
5.68267	5971
5.68333	5970
5.68400	5969
5.68467	5968
5.68533	5967
5.68600	5966
5.68667	5965
5.68733	5964
5.68800	5963
5.68867	5962
5.68933	5961
5.69000	5959
5.69067	5958
5.69133	5957
5.69200	5956
5.69267	5955
5.69333	5954
5.69400	5952
5.69467	5951
5.69533	5950
5.69600	5949
5.69667	5948
5.69733	5946
5.69800	5945
5.69867	5944
5.69933	5943
5.70000	5941
5.70067	5940
5.70133	5939
5.70200	5937
5.70267	5936
5.70333	5935
5.70400	5933
5.70467	5932
5.70533	5930
5.70600	5929
5.70667	5928
5.70733	5926
5.70800	5925
5.70867	5923
5.70933	5922
5.71000	5921
5.71067	5919
5.71133	5918
5.71200	5917
5.71267	5915
5.71333	5914
5.71400	5912
5.71467	5911
5.71533	5910
5.71600	5908
5.71667	5907
5.71733	5906
5.71800	5904
5.71867	5903
5.71933	5902
5.72000	5900
5.72067	5899
5.72133	5898
5.72200	5897
5.72267	5895
5.72333	5894
5.72400	5893
5.72467	5892
5.72533	5891
5.72600	5890
5.72667	5889
5.72733	5888
5.72800	5887
5.72867	5886
5.72933	5885
5.73000	5884
5.73067	5883
5.73133	5882
5.73200	5881
5.73267	5880
5.73333	5880
5.73400	5879
5.73467	5878
5.73533	5877
5.73600	5877
5.73667	5876
5.73733	5876
5.73800	5875
5.73867	5874
5.73933	5874
5.74000	5873
5.74067	5872
5.74133	5872
5.74200	5871
5.74267	5871
5.74333	5870
5.74400	5870
5.74467	5869
5.74533	5869
5.74600	5868
5.74667	5868
5.74733	5867
5.74800	5867
5.74867	5866
5.74933	5866
5.75000	5865
5.75067	5865
5.75133	5864
5.75200	5863
5.75267	5863
5.75333	5862
5.75400	5862
5.75467	5861
5.75533	5860
5.75600	5860
5.75667	5859
5.75733	5859
5.75800	5858
5.75867	5858
5.75933	5857
5.76000	5857
5.76067	5857
5.76133	5856
5.76200	5856
5.76267	5855
5.76333	5855
5.76400	5855
5.76467	5854
5.76533	5854
5.76600	5853
5.76667	5853
5.76733	5853
5.76800	5852
5.76867	5852
5.76933	5851
5.77000	5851
5.77067	5851
5.77133	5850
5.77200	5850
5.77267	5850
5.77333	5849
5.77400	5849
5.77467	5849
5.77533	5849
5.77600	5848
5.77667	5848
5.77733	5848
5.77800	5848
5.77867	5848
5.77933	5848
5.78000	5848
5.78067	5848
5.78133	5848
5.78200	5848
5.78267	5848
5.78333	5849
5.78400	5849
5.78467	5849
5.78533	5849
5.78600	5850
5.78667	5850
5.78733	5850
5.78800	5851
5.78867	5851
5.78933	5852
5.79000	5852
5.79067	5853
5.79133	5853
5.79200	5854
5.79267	5854
5.79333	5854
5.79400	5855
5.79467	5855
5.79533	5856
5.79600	5856
5.79667	5857
5.79733	5857
5.79800	5858
5.79867	5858
5.79933	5859
5.80000	5859
5.80067	5860
5.80133	5860
5.80200	5860
5.80267	5861
5.80333	5861
5.80400	5862
5.80467	5862
5.80533	5862
5.80600	5863
5.80667	5863
5.80733	5864
5.80800	5864
5.80867	5864
5.80933	5865
5.81000	5865
5.81067	5866
5.81133	5866
5.81200	5867
5.81267	5867
5.81333	5868
5.81400	5868
5.81467	5868
5.81533	5869
5.81600	5869
5.81667	5869
5.81733	5870
5.81800	5870
5.81867	5870
5.81933	5871
5.82000	5871
5.82067	5872
5.82133	5872
5.82200	5872
5.82267	5873
5.82333	5873
5.82400	5874
5.82467	5874
5.82533	5875
5.82600	5875
5.82667	5875
5.82733	5876
5.82800	5876
5.82867	5877
5.82933	5877
5.83000	5878
5.83067	5878
5.83133	5879
5.83200	5879
5.83267	5880
5.83333	5880
5.83400	5880
5.83467	5881
5.83533	5881
5.83600	5882
5.83667	5882
5.83733	5883
5.83800	5883
5.83867	5884
5.83933	5884
5.84000	5884
5.84067	5884
5.84133	5885
5.84200	5885
5.84267	5885
5.84333	5885
5.84400	5886
5.84467	5886
5.84533	5886
5.84600	5886
5.84667	5886
5.84733	5886
5.84800	5886
5.84867	5886
5.84933	5886
5.85000	5886
5.85067	5886
5.85133	5886
5.85200	5886
5.85267	5886
5.85333	5886
5.85400	5886
5.85467	5886
5.85533	5886
5.85600	5885
5.85667	5885
5.85733	5885
5.85800	5884
5.85867	5884
5.85933	5884
5.86000	5883
5.86067	5883
5.86133	5883
5.86200	5882
5.86267	5882
5.86333	5881
5.86400	5881
5.86467	5880
5.86533	5880
5.86600	5880
5.86667	5879
5.86733	5879
5.86800	5878
5.86867	5878
5.86933	5877
5.87000	5877
5.87067	5876
5.87133	5876
5.87200	5875
5.87267	5875
5.87333	5874
5.87400	5874
5.87467	5873
5.87533	5873
5.87600	5872
5.87667	5872
5.87733	5871
5.87800	5871
5.87867	5870
5.87933	5869
5.88000	5869
5.88067	5868
5.88133	5867
5.88200	5867
5.88267	5866
5.88333	5865
5.88400	5865
5.88467	5864
5.88533	5863
5.88600	5863
5.88667	5862
5.88733	5861
5.88800	5861
5.88867	5860
5.88933	5860
5.89000	5859
5.89067	5859
5.89133	5858
5.89200	5858
5.89267	5857
5.89333	5857
5.89400	5856
5.89467	5856
5.89533	5856
5.89600	5855
5.89667	5855
5.89733	5855
5.89800	5854
5.89867	5854
5.89933	5854
5.90000	5853
5.90067	5853
5.90133	5852
5.90200	5852
5.90267	5851
5.90333	5851
5.90400	5851
5.90467	5850
5.90533	5850
5.90600	5849
5.90667	5849
5.90733	5849
5.90800	5848
5.90867	5848
5.90933	5847
5.91000	5847
5.91067	5846
5.91133	5846
5.91200	5846
5.91267	5845
5.91333	5845
5.91400	5844
5.91467	5844
5.91533	5843
5.91600	5843
5.91667	5843
5.91733	5842
5.91800	5842
5.91867	5841
5.91933	5841
5.92000	5840
5.92067	5840
5.92133	5840
5.92200	5839
5.92267	5839
5.92333	5838
5.92400	5838
5.92467	5837
5.92533	5837
5.92600	5837
5.92667	5836
5.92733	5836
5.92800	5835
5.92867	5835
5.92933	5834
5.93000	5834
5.93067	5833
5.93133	5833
5.93200	5832
5.93267	5832
5.93333	5831
5.93400	5831
5.93467	5830
5.93533	5830
5.93600	5829
5.93667	5828
5.93733	5828
5.93800	5827
5.93867	5826
5.93933	5826
5.94000	5825
5.94067	5825
5.94133	5824
5.94200	5824
5.94267	5823
5.94333	5823
5.94400	5822
5.94467	5822
5.94533	5821
5.94600	5821
5.94667	5820
5.94733	5820
5.94800	5819
5.94867	5819
5.94933	5818
5.95000	5818
5.95067	5818
5.95133	5817
5.95200	5817
5.95267	5816
5.95333	5816
5.95400	5816
5.95467	5815
5.95533	5815
5.95600	5815
5.95667	5815
5.95733	5814
5.95800	5814
5.95867	5814
5.95933	5813
5.96000	5813
5.96067	5813
5.96133	5812
5.96200	5812
5.96267	5812
5.96333	5811
5.96400	5811
5.96467	5811
5.96533	5810
5.96600	5810
5.96667	5809
5.96733	5809
5.96800	5809
5.96867	5809
5.96933	5808
5.97000	5808
5.97067	5808
5.97133	5808
5.97200	5807
5.97267	5807
5.97333	5807
5.97400	5807
5.97467	5807
5.97533	5806
5.97600	5806
5.97667	5806
5.97733	5806
5.97800	5806
5.97867	5806
5.97933	5805
5.98000	5805
5.98067	5805
5.98133	5805
5.98200	5805
5.98267	5805
5.98333	5804
5.98400	5804
5.98467	5804
5.98533	5804
5.98600	5804
5.98667	5804
5.98733	5804
5.98800	5804
5.98867	5804
5.98933	5804
5.99000	5804
5.99067	5804
5.99133	5804
5.99200	5803
5.99267	5803
5.99333	5803
5.99400	5803
5.99467	5803
5.99533	5803
5.99600	5802
5.99667	5802
5.99733	5802
5.99800	5802
5.99867	5802
5.99933	5802
6.00000	5801
6.00067	5801
6.00133	5801
6.00200	5801
6.00267	5801
6.00333	5801
6.00400	5800
6.00467	5800
6.00533	5800
6.00600	5800
6.00667	5799
6.00733	5799
6.00800	5799
6.00867	5799
6.00933	5798
6.01000	5798
6.01067	5798
6.01133	5798
6.01200	5797
6.01267	5797
6.01333	5797
6.01400	5797
6.01467	5796
6.01533	5796
6.01600	5796
6.01667	5796
6.01733	5795
6.01800	5795
6.01867	5795
6.01933	5795
6.02000	5794
6.02067	5794
6.02133	5794
6.02200	5794
6.02267	5793
6.02333	5793
6.02400	5793
6.02467	5793
6.02533	5793
6.02600	5792
6.02667	5792
6.02733	5792
6.02800	5792
6.02867	5792
6.02933	5791
6.03000	5791
6.03067	5791
6.03133	5791
6.03200	5790
6.03267	5790
6.03333	5790
6.03400	5790
6.03467	5790
6.03533	5789
6.03600	5789
6.03667	5789
6.03733	5789
6.03800	5789
6.03867	5789
6.03933	5788
6.04000	5788
6.04067	5788
6.04133	5788
6.04200	5788
6.04267	5787
6.04333	5787
6.04400	5787
6.04467	5787
6.04533	5786
6.04600	5786
6.04667	5786
6.04733	5786
6.04800	5785
6.04867	5785
6.04933	5785
6.05000	5785
6.05067	5784
6.05133	5784
6.05200	5784
6.05267	5784
6.05333	5784
6.05400	5783
6.05467	5783
6.05533	5783
6.05600	5783
6.05667	5783
6.05733	5783
6.05800	5782
6.05867	5782
6.05933	5782
6.06000	5782
6.06067	5782
6.06133	5781
6.06200	5781
6.06267	5781
6.06333	5781
6.06400	5781
6.06467	5781
6.06533	5780
6.06600	5780
6.06667	5780
6.06733	5780
6.06800	5779
6.06867	5779
6.06933	5779
6.07000	5778
6.07067	5778
6.07133	5778
6.07200	5778
6.07267	5777
6.07333	5777
6.07400	5777
6.07467	5777
6.07533	5776
6.07600	5776
6.07667	5776
6.07733	5775
6.07800	5775
6.07867	5775
6.07933	5774
6.08000	5774
6.08067	5774
6.08133	5773
6.08200	5773
6.08267	5773
6.08333	5772
6.08400	5772
6.08467	5772
6.08533	5772
6.08600	5771
6.08667	5771
6.08733	5771
6.08800	5770
6.08867	5770
6.08933	5770
6.09000	5770
6.09067	5769
6.09133	5769
6.09200	5769
6.09267	5769
6.09333	5769
6.09400	5768
6.09467	5768
6.09533	5768
6.09600	5767
6.09667	5767
6.09733	5767
6.09800	5766
6.09867	5766
6.09933	5766
6.10000	5765
6.10067	5765
6.10133	5764
6.10200	5764
6.10267	5764
6.10333	5763
6.10400	5763
6.10467	5763
6.10533	5762
6.10600	5762
6.10667	5762
6.10733	5761
6.10800	5761
6.10867	5761
6.10933	5761
6.11000	5760
6.11067	5760
6.11133	5759
6.11200	5759
6.11267	5759
6.11333	5758
6.11400	5758
6.11467	5757
6.11533	5757
6.11600	5756
6.11667	5756
6.11733	5755
6.11800	5755
6.11867	5754
6.11933	5754
6.12000	5753
6.12067	5753
6.12133	5752
6.12200	5752
6.12267	5751
6.12333	5751
6.12400	5750
6.12467	5750
6.12533	5749
6.12600	5749
6.12667	5748
6.12733	5748
6.12800	5747
6.12867	5747
6.12933	5746
6.13000	5746
6.13067	5745
6.13133	5745
6.13200	5745
6.13267	5744
6.13333	5744
6.13400	5743
6.13467	5743
6.13533	5742
6.13600	5742
6.13667	5741
6.13733	5741
6.13800	5740
6.13867	5739
6.13933	5739
6.14000	5738
6.14067	5737
6.14133	5736
6.14200	5736
6.14267	5735
6.14333	5734
6.14400	5733
6.14467	5733
6.14533	5732
6.14600	5731
6.14667	5730
6.14733	5730
6.14800	5729
6.14867	5728
6.14933	5727
6.15000	5727
6.15067	5726
6.15133	5725
6.15200	5725
6.15267	5724
6.15333	5723
6.15400	5723
6.15467	5722
6.15533	5721
6.15600	5720
6.15667	5720
6.15733	5719
6.15800	5718
6.15867	5718
6.15933	5717
6.16000	5716
6.16067	5715
6.16133	5715
6.16200	5714
6.16267	5714
6.16333	5713
6.16400	5712
6.16467	5712
6.16533	5711
6.16600	5711
6.16667	5710
6.16733	5709
6.16800	5709
6.16867	5708
6.16933	5708
6.17000	5707
6.17067	5707
6.17133	5706
6.17200	5705
6.17267	5705
6.17333	5704
6.17400	5704
6.17467	5703
6.17533	5703
6.17600	5702
6.17667	5701
6.17733	5701
6.17800	5700
6.17867	5700
6.17933	5699
6.18000	5698
6.18067	5698
6.18133	5697
6.18200	5697
6.18267	5696
6.18333	5696
6.18400	5695
6.18467	5695
6.18533	5694
6.18600	5694
6.18667	5694
6.18733	5693
6.18800	5693
6.18867	5692
6.18933	5692
6.19000	5691
6.19067	5691
6.19133	5691
6.19200	5690
6.19267	5690
6.19333	5689
6.19400	5689
6.19467	5689
6.19533	5688
6.19600	5688
6.19667	5687
6.19733	5687
6.19800	5687
6.19867	5686
6.19933	5686
6.20000	5685
6.20067	5685
6.20133	5685
6.20200	5684
6.20267	5684
6.20333	5684
6.20400	5683
6.20467	5683
6.20533	5683
6.20600	5682
6.20667	5682
6.20733	5682
6.20800	5682
6.20867	5682
6.20933	5682
6.21000	5682
6.21067	5681
6.21133	5681
6.21200	5681
6.21267	5681
6.21333	5681
6.21400	5681
6.21467	5682
6.21533	5682
6.21600	5682
6.21667	5682
6.21733	5682
6.21800	5682
6.21867	5682
6.21933	5682
6.22000	5682
6.22067	5683
6.22133	5683
6.22200	5683
6.22267	5683
6.22333	5684
6.22400	5684
6.22467	5684
6.22533	5684
6.22600	5685
6.22667	5685
6.22733	5685
6.22800	5686
6.22867	5686
6.22933	5686
6.23000	5686
6.23067	5687
6.23133	5687
6.23200	5687
6.23267	5688
6.23333	5688
6.23400	5688
6.23467	5688
6.23533	5689
6.23600	5689
6.23667	5689
6.23733	5690
6.23800	5690
6.23867	5690
6.23933	5690
6.24000	5691
6.24067	5691
6.24133	5691
6.24200	5691
6.24267	5692
6.24333	5692
6.24400	5692
6.24467	5692
6.24533	5692
6.24600	5692
6.24667	5693
6.24733	5693
6.24800	5693
6.24867	5693
6.24933	5693
6.25000	5693
6.25067	5693
6.25133	5693
6.25200	5694
6.25267	5694
6.25333	5694
6.25400	5694
6.25467	5694
6.25533	5694
6.25600	5695
6.25667	5695
6.25733	5695
6.25800	5695
6.25867	5695
6.25933	5695
6.26000	5696
6.26067	5696
6.26133	5696
6.26200	5696
6.26267	5696
6.26333	5696
6.26400	5696
6.26467	5697
6.26533	5697
6.26600	5697
6.26667	5697
6.26733	5697
6.26800	5697
6.26867	5698
6.26933	5698
6.27000	5698
6.27067	5698
6.27133	5698
6.27200	5699
6.27267	5699
6.27333	5699
6.27400	5699
6.27467	5699
6.27533	5699
6.27600	5700
6.27667	5700
6.27733	5700
6.27800	5700
6.27867	5700
6.27933	5700
6.28000	5700
6.28067	5701
6.28133	5701
6.28200	5701
6.28267	5701
6.28333	5701
6.28400	5701
6.28467	5701
6.28533	5701
6.28600	5702
6.28667	5702
6.28733	5702
6.28800	5702
6.28867	5702
6.28933	5702
6.29000	5702
6.29067	5702
6.29133	5702
6.29200	5703
6.29267	5703
6.29333	5703
6.29400	5703
6.29467	5703
6.29533	5703
6.29600	5703
6.29667	5703
6.29733	5703
6.29800	5703
6.29867	5703
6.29933	5703
6.30000	5703
6.30067	5703
6.30133	5703
6.30200	5703
6.30267	5703
6.30333	5703
6.30400	5703
6.30467	5703
6.30533	5703
6.30600	5703
6.30667	5703
6.30733	5703
6.30800	5703
6.30867	5703
6.30933	5703
6.31000	5702
6.31067	5702
6.31133	5702
6.31200	5702
6.31267	5702
6.31333	5702
6.31400	5701
6.31467	5701
6.31533	5701
6.31600	5701
6.31667	5701
6.31733	5700
6.31800	5700
6.31867	5700
6.31933	5700
6.32000	5700
6.32067	5700
6.32133	5699
6.32200	5699
6.32267	5699
6.32333	5699
6.32400	5699
6.32467	5699
6.32533	5698
6.32600	5698
6.32667	5698
6.32733	5698
6.32800	5698
6.32867	5698
6.32933	5697
6.33000	5697
6.33067	5697
6.33133	5697
6.33200	5696
6.33267	5696
6.33333	5696
6.33400	5695
6.33467	5695
6.33533	5695
6.33600	5695
6.33667	5694
6.33733	5694
6.33800	5693
6.33867	5693
6.33933	5693
6.34000	5692
6.34067	5692
6.34133	5692
6.34200	5691
6.34267	5691
6.34333	5691
6.34400	5690
6.34467	5690
6.34533	5689
6.34600	5689
6.34667	5689
6.34733	5688
6.34800	5688
6.34867	5688
6.34933	5687
6.35000	5687
6.35067	5686
6.35133	5686
6.35200	5686
6.35267	5686
6.35333	5685
6.35400	5685
6.35467	5685
6.35533	5684
6.35600	5684
6.35667	5684
6.35733	5683
6.35800	5683
6.35867	5682
6.35933	5682
6.36000	5681
6.36067	5681
6.36133	5681
6.36200	5680
6.36267	5680
6.36333	5680
6.36400	5679
6.36467	5679
6.36533	5679
6.36600	5678
6.36667	5678
6.36733	5677
6.36800	5677
6.36867	5676
6.36933	5676
6.37000	5675
6.37067	5675
6.37133	5674
6.37200	5674
6.37267	5673
6.37333	5673
6.37400	5673
6.37467	5672
6.37533	5672
6.37600	5672
6.37667	5671
6.37733	5671
6.37800	5671
6.37867	5670
6.37933	5670
6.38000	5670
6.38067	5669
6.38133	5669
6.38200	5669
6.38267	5668
6.38333	5668
6.38400	5667
6.38467	5667
6.38533	5667
6.38600	5666
6.38667	5666
6.38733	5665
6.38800	5665
6.38867	5665
6.38933	5664
6.39000	5664
6.39067	5663
6.39133	5663
6.39200	5662
6.39267	5662
6.39333	5661
6.39400	5661
6.39467	5661
6.39533	5660
6.39600	5660
6.39667	5659
6.39733	5659
6.39800	5658
6.39867	5658
6.39933	5658

