[Header]
Application Name	LabSolutions
Version	5.73
Data File Name	C:\LabSolutions\Data\Project1\stephen\2016-01-06\54.gcd
Output Date	1/11/2016
Output Time	1:19:50 PM

[Configuration]
Instrument Name	WEISSTA-PC-Instrument1
Instrument #	1
Line #	1
# of Detectors	1
Detector ID	DET#2
Detector Name	DFID1
# of Channels	1

[Chromatogram (Ch1)]
Interval(msec)	40
# of Points	9599
Start Time(min)	0.001
End Time(min)	6.399
R.Time (min)	Intensity
0.00067	20
0.00133	20
0.00200	20
0.00267	20
0.00333	20
0.00400	20
0.00467	20
0.00533	20
0.00600	21
0.00667	20
0.00733	20
0.00800	20
0.00867	20
0.00933	19
0.01000	19
0.01067	18
0.01133	17
0.01200	16
0.01267	14
0.01333	12
0.01400	10
0.01467	8
0.01533	6
0.01600	3
0.01667	0
0.01733	-3
0.01800	-7
0.01867	-10
0.01933	-14
0.02000	-18
0.02067	-22
0.02133	-27
0.02200	-31
0.02267	-36
0.02333	-40
0.02400	-45
0.02467	-50
0.02533	-54
0.02600	-59
0.02667	-64
0.02733	-68
0.02800	-73
0.02867	-77
0.02933	-82
0.03000	-86
0.03067	-90
0.03133	-94
0.03200	-97
0.03267	-101
0.03333	-104
0.03400	-107
0.03467	-110
0.03533	-113
0.03600	-116
0.03667	-118
0.03733	-121
0.03800	-123
0.03867	-125
0.03933	-127
0.04000	-129
0.04067	-131
0.04133	-133
0.04200	-134
0.04267	-136
0.04333	-137
0.04400	-138
0.04467	-140
0.04533	-141
0.04600	-142
0.04667	-143
0.04733	-144
0.04800	-145
0.04867	-146
0.04933	-146
0.05000	-147
0.05067	-148
0.05133	-149
0.05200	-149
0.05267	-150
0.05333	-151
0.05400	-151
0.05467	-152
0.05533	-153
0.05600	-153
0.05667	-154
0.05733	-154
0.05800	-155
0.05867	-155
0.05933	-156
0.06000	-156
0.06067	-157
0.06133	-157
0.06200	-158
0.06267	-158
0.06333	-158
0.06400	-159
0.06467	-159
0.06533	-160
0.06600	-160
0.06667	-160
0.06733	-161
0.06800	-161
0.06867	-161
0.06933	-161
0.07000	-162
0.07067	-162
0.07133	-162
0.07200	-163
0.07267	-163
0.07333	-163
0.07400	-163
0.07467	-164
0.07533	-164
0.07600	-164
0.07667	-164
0.07733	-165
0.07800	-165
0.07867	-165
0.07933	-166
0.08000	-166
0.08067	-166
0.08133	-166
0.08200	-167
0.08267	-167
0.08333	-167
0.08400	-168
0.08467	-168
0.08533	-168
0.08600	-168
0.08667	-167
0.08733	-164
0.08800	-157
0.08867	-132
0.08933	-87
0.09000	-7
0.09067	116
0.09133	284
0.09200	488
0.09267	726
0.09333	990
0.09400	1289
0.09467	1615
0.09533	1969
0.09600	2351
0.09667	2765
0.09733	3197
0.09800	3639
0.09867	4094
0.09933	4543
0.10000	4989
0.10067	5436
0.10133	5928
0.10200	6435
0.10267	6963
0.10333	7508
0.10400	8031
0.10467	8560
0.10533	9076
0.10600	9564
0.10667	10024
0.10733	10477
0.10800	10938
0.10867	11393
0.10933	11852
0.11000	12331
0.11067	12810
0.11133	13275
0.11200	13703
0.11267	14101
0.11333	14492
0.11400	14928
0.11467	15353
0.11533	15758
0.11600	16141
0.11667	16497
0.11733	16857
0.11800	17195
0.11867	17505
0.11933	17798
0.12000	18098
0.12067	18402
0.12133	18676
0.12200	18913
0.12267	19139
0.12333	19367
0.12400	19567
0.12467	19731
0.12533	19864
0.12600	19972
0.12667	20061
0.12733	20144
0.12800	20205
0.12867	20251
0.12933	20272
0.13000	20265
0.13067	20233
0.13133	20190
0.13200	20216
0.13267	20635
0.13333	22350
0.13400	27585
0.13467	40708
0.13533	69487
0.13600	125832
0.13667	226728
0.13733	392796
0.13800	646298
0.13867	1007920
0.13933	1495928
0.14000	2125186
0.14067	2908030
0.14133	3854363
0.14200	4971915
0.14267	6266588
0.14333	7743033
0.14400	9405751
0.14467	11258727
0.14533	13306270
0.14600	15551533
0.14667	17998199
0.14733	20649143
0.14800	23506572
0.14867	26571345
0.14933	29842994
0.15000	33316882
0.15067	36983549
0.15133	40828605
0.15200	44834813
0.15267	48982513
0.15333	53251473
0.15400	57621334
0.15467	62071713
0.15533	66582925
0.15600	71136111
0.15667	75712922
0.15733	80295624
0.15800	84866884
0.15867	89409815
0.15933	93907598
0.16000	98343793
0.16067	102701934
0.16133	106966381
0.16200	111121665
0.16267	115153865
0.16333	119050042
0.16400	122799441
0.16467	126393231
0.16533	129825182
0.16600	133090275
0.16667	136185126
0.16733	139107404
0.16800	141856024
0.16867	144430675
0.16933	146831964
0.17000	149061307
0.17067	151120576
0.17133	153012007
0.17200	154738594
0.17267	156303764
0.17333	157711108
0.17400	158964229
0.17467	160066912
0.17533	161023268
0.17600	161837379
0.17667	162513440
0.17733	163055586
0.17800	163468247
0.17867	163755848
0.17933	163922956
0.18000	163974135
0.18067	163914136
0.18133	163747702
0.18200	163479605
0.18267	163114530
0.18333	162657181
0.18400	162112087
0.18467	161483607
0.18533	160775920
0.18600	159993115
0.18667	159139070
0.18733	158217634
0.18800	157232537
0.18867	156187352
0.18933	155085513
0.19000	153930320
0.19067	152724938
0.19133	151472364
0.19200	150175583
0.19267	148837499
0.19333	147461093
0.19400	146049309
0.19467	144605073
0.19533	143131220
0.19600	141630701
0.19667	140106768
0.19733	138562749
0.19800	137001370
0.19867	135424463
0.19933	133833202
0.20000	132228506
0.20067	130611195
0.20133	128982171
0.20200	127342449
0.20267	125693169
0.20333	124035574
0.20400	122370964
0.20467	120700673
0.20533	119026041
0.20600	117348424
0.20667	115669147
0.20733	113989535
0.20800	112310858
0.20867	110634380
0.20933	108961302
0.21000	107292802
0.21067	105629995
0.21133	103973967
0.21200	102325744
0.21267	100686335
0.21333	99056654
0.21400	97437550
0.21467	95829803
0.21533	94234153
0.21600	92651291
0.21667	91081852
0.21733	89526421
0.21800	87985540
0.21867	86459715
0.21933	84949408
0.22000	83455028
0.22067	81976912
0.22133	80515360
0.22200	79070651
0.22267	77643046
0.22333	76232765
0.22400	74840010
0.22467	73464941
0.22533	72107716
0.22600	70768454
0.22667	69447261
0.22733	68144219
0.22800	66859401
0.22867	65592844
0.22933	64344586
0.23000	63114645
0.23067	61903020
0.23133	60709689
0.23200	59534608
0.23267	58377712
0.23333	57238921
0.23400	56118148
0.23467	55015302
0.23533	53930288
0.23600	52863001
0.23667	51813342
0.23733	50781194
0.23800	49766434
0.23867	48768919
0.23933	47788507
0.24000	46825051
0.24067	45878405
0.24133	44948406
0.24200	44034883
0.24267	43137649
0.24333	42256517
0.24400	41391297
0.24467	40541803
0.24533	39707846
0.24600	38889241
0.24667	38085800
0.24733	37297340
0.24800	36523693
0.24867	35764739
0.24933	35020401
0.25000	34290618
0.25067	33575285
0.25133	32874216
0.25200	32187156
0.25267	31513806
0.25333	30853849
0.25400	30206957
0.25467	29572811
0.25533	28951094
0.25600	28341504
0.25667	27743745
0.25733	27157534
0.25800	26582594
0.25867	26018668
0.25933	25465500
0.26000	24922846
0.26067	24390468
0.26133	23868138
0.26200	23355634
0.26267	22852740
0.26333	22359250
0.26400	21874963
0.26467	21399687
0.26533	20933237
0.26600	20475430
0.26667	20026093
0.26733	19585057
0.26800	19152163
0.26867	18727259
0.26933	18310199
0.27000	17900848
0.27067	17499071
0.27133	17104746
0.27200	16717747
0.27267	16337957
0.27333	15965263
0.27400	15599558
0.27467	15240737
0.27533	14888704
0.27600	14543361
0.27667	14204617
0.27733	13872380
0.27800	13546566
0.27867	13227091
0.27933	12913872
0.28000	12606829
0.28067	12305882
0.28133	12010954
0.28200	11721967
0.28267	11438846
0.28333	11161513
0.28400	10889894
0.28467	10623914
0.28533	10363497
0.28600	10108568
0.28667	9859053
0.28733	9614875
0.28800	9375960
0.28867	9142232
0.28933	8913616
0.29000	8690036
0.29067	8471416
0.29133	8257679
0.29200	8048751
0.29267	7844556
0.29333	7645016
0.29400	7450056
0.29467	7259601
0.29533	7073574
0.29600	6891900
0.29667	6714503
0.29733	6541309
0.29800	6372241
0.29867	6207225
0.29933	6046187
0.30000	5889052
0.30067	5735747
0.30133	5586199
0.30200	5440334
0.30267	5298080
0.30333	5159366
0.30400	5024120
0.30467	4892272
0.30533	4763752
0.30600	4638491
0.30667	4516420
0.30733	4397471
0.30800	4281579
0.30867	4168677
0.30933	4058700
0.31000	3951584
0.31067	3847264
0.31133	3745677
0.31200	3646762
0.31267	3550457
0.31333	3456704
0.31400	3365442
0.31467	3276613
0.31533	3190160
0.31600	3106027
0.31667	3024159
0.31733	2944500
0.31800	2866998
0.31867	2791601
0.31933	2718258
0.32000	2646919
0.32067	2577534
0.32133	2510054
0.32200	2444435
0.32267	2380628
0.32333	2318590
0.32400	2258276
0.32467	2199644
0.32533	2142652
0.32600	2087259
0.32667	2033425
0.32733	1981110
0.32800	1930278
0.32867	1880890
0.32933	1832912
0.33000	1786309
0.33067	1741048
0.33133	1697094
0.33200	1654418
0.33267	1612989
0.33333	1572779
0.33400	1533760
0.33467	1495906
0.33533	1459192
0.33600	1423594
0.33667	1389090
0.33733	1355660
0.33800	1323286
0.33867	1291952
0.33933	1261648
0.34000	1232365
0.34067	1204099
0.34133	1176851
0.34200	1150620
0.34267	1125408
0.34333	1101218
0.34400	1078049
0.34467	1055898
0.34533	1034761
0.34600	1014627
0.34667	995483
0.34733	977315
0.34800	960102
0.34867	943822
0.34933	928448
0.35000	913951
0.35067	900302
0.35133	887467
0.35200	875415
0.35267	864112
0.35333	853524
0.35400	843620
0.35467	834366
0.35533	825726
0.35600	817670
0.35667	810163
0.35733	803174
0.35800	796674
0.35867	790631
0.35933	785018
0.36000	779804
0.36067	774966
0.36133	770477
0.36200	766316
0.36267	762458
0.36333	758882
0.36400	755571
0.36467	752507
0.36533	749674
0.36600	747059
0.36667	744649
0.36733	742435
0.36800	740406
0.36867	738557
0.36933	736880
0.37000	735370
0.37067	734016
0.37133	732809
0.37200	731739
0.37267	730794
0.37333	729964
0.37400	729236
0.37467	728598
0.37533	728040
0.37600	727551
0.37667	727120
0.37733	726739
0.37800	726401
0.37867	726097
0.37933	725820
0.38000	725564
0.38067	725324
0.38133	725095
0.38200	724870
0.38267	724645
0.38333	724414
0.38400	724172
0.38467	723911
0.38533	723624
0.38600	723302
0.38667	722935
0.38733	722514
0.38800	722029
0.38867	721472
0.38933	720832
0.39000	720102
0.39067	719272
0.39133	718331
0.39200	717269
0.39267	716076
0.39333	714740
0.39400	713246
0.39467	711582
0.39533	709732
0.39600	707683
0.39667	705422
0.39733	702935
0.39800	700208
0.39867	697230
0.39933	693991
0.40000	690481
0.40067	686693
0.40133	682621
0.40200	678262
0.40267	673615
0.40333	668682
0.40400	663466
0.40467	657976
0.40533	652218
0.40600	646205
0.40667	639949
0.40733	633464
0.40800	626763
0.40867	619864
0.40933	612781
0.41000	605531
0.41067	598129
0.41133	590591
0.41200	582933
0.41267	575170
0.41333	567316
0.41400	559386
0.41467	551393
0.41533	543350
0.41600	535271
0.41667	527167
0.41733	519048
0.41800	510927
0.41867	502812
0.41933	494714
0.42000	486640
0.42067	478600
0.42133	470600
0.42200	462649
0.42267	454752
0.42333	446916
0.42400	439146
0.42467	431447
0.42533	423824
0.42600	416282
0.42667	408824
0.42733	401453
0.42800	394174
0.42867	386988
0.42933	379898
0.43000	372906
0.43067	366015
0.43133	359225
0.43200	352539
0.43267	345957
0.43333	339480
0.43400	333110
0.43467	326846
0.43533	320688
0.43600	314638
0.43667	308694
0.43733	302858
0.43800	297128
0.43867	291505
0.43933	285987
0.44000	280576
0.44067	275269
0.44133	270067
0.44200	264969
0.44267	259973
0.44333	255078
0.44400	250284
0.44467	245589
0.44533	240992
0.44600	236491
0.44667	232087
0.44733	227777
0.44800	223561
0.44867	219438
0.44933	215408
0.45000	211468
0.45067	207618
0.45133	203856
0.45200	200183
0.45267	196596
0.45333	193094
0.45400	189677
0.45467	186342
0.45533	183089
0.45600	179916
0.45667	176823
0.45733	173807
0.45800	170869
0.45867	168006
0.45933	165219
0.46000	162506
0.46067	159866
0.46133	157298
0.46200	154803
0.46267	152379
0.46333	150026
0.46400	147744
0.46467	145532
0.46533	143390
0.46600	141319
0.46667	139319
0.46733	137389
0.46800	135529
0.46867	133738
0.46933	132014
0.47000	130354
0.47067	128756
0.47133	127218
0.47200	125737
0.47267	124312
0.47333	122941
0.47400	121621
0.47467	120351
0.47533	119127
0.47600	117948
0.47667	116811
0.47733	115716
0.47800	114660
0.47867	113641
0.47933	112657
0.48000	111707
0.48067	110789
0.48133	109901
0.48200	109043
0.48267	108212
0.48333	107408
0.48400	106629
0.48467	105873
0.48533	105141
0.48600	104430
0.48667	103740
0.48733	103069
0.48800	102417
0.48867	101782
0.48933	101164
0.49000	100562
0.49067	99974
0.49133	99400
0.49200	98839
0.49267	98291
0.49333	97753
0.49400	97226
0.49467	96709
0.49533	96201
0.49600	95702
0.49667	95211
0.49733	94727
0.49800	94251
0.49867	93781
0.49933	93317
0.50000	92858
0.50067	92405
0.50133	91957
0.50200	91514
0.50267	91075
0.50333	90639
0.50400	90208
0.50467	89779
0.50533	89354
0.50600	88931
0.50667	88512
0.50733	88094
0.50800	87679
0.50867	87266
0.50933	86854
0.51000	86444
0.51067	86036
0.51133	85629
0.51200	85223
0.51267	84818
0.51333	84414
0.51400	84011
0.51467	83609
0.51533	83208
0.51600	82808
0.51667	82408
0.51733	82008
0.51800	81610
0.51867	81211
0.51933	80813
0.52000	80416
0.52067	80020
0.52133	79623
0.52200	79227
0.52267	78832
0.52333	78437
0.52400	78043
0.52467	77649
0.52533	77255
0.52600	76862
0.52667	76470
0.52733	76078
0.52800	75686
0.52867	75295
0.52933	74905
0.53000	74515
0.53067	74126
0.53133	73738
0.53200	73350
0.53267	72962
0.53333	72576
0.53400	72190
0.53467	71805
0.53533	71421
0.53600	71037
0.53667	70655
0.53733	70273
0.53800	69892
0.53867	69513
0.53933	69134
0.54000	68756
0.54067	68380
0.54133	68005
0.54200	67630
0.54267	67258
0.54333	66886
0.54400	66515
0.54467	66146
0.54533	65779
0.54600	65413
0.54667	65048
0.54733	64685
0.54800	64324
0.54867	63964
0.54933	63606
0.55000	63250
0.55067	62895
0.55133	62542
0.55200	62192
0.55267	61843
0.55333	61497
0.55400	61152
0.55467	60810
0.55533	60470
0.55600	60132
0.55667	59796
0.55733	59462
0.55800	59131
0.55867	58802
0.55933	58475
0.56000	58150
0.56067	57828
0.56133	57507
0.56200	57188
0.56267	56872
0.56333	56557
0.56400	56244
0.56467	55933
0.56533	55624
0.56600	55317
0.56667	55012
0.56733	54708
0.56800	54407
0.56867	54107
0.56933	53809
0.57000	53512
0.57067	53217
0.57133	52924
0.57200	52633
0.57267	52343
0.57333	52056
0.57400	51769
0.57467	51485
0.57533	51202
0.57600	50921
0.57667	50642
0.57733	50364
0.57800	50088
0.57867	49814
0.57933	49541
0.58000	49270
0.58067	49001
0.58133	48733
0.58200	48467
0.58267	48202
0.58333	47939
0.58400	47677
0.58467	47417
0.58533	47158
0.58600	46901
0.58667	46645
0.58733	46391
0.58800	46139
0.58867	45888
0.58933	45639
0.59000	45391
0.59067	45145
0.59133	44901
0.59200	44658
0.59267	44417
0.59333	44178
0.59400	43940
0.59467	43703
0.59533	43469
0.59600	43236
0.59667	43004
0.59733	42774
0.59800	42546
0.59867	42320
0.59933	42095
0.60000	41871
0.60067	41650
0.60133	41430
0.60200	41211
0.60267	40994
0.60333	40779
0.60400	40565
0.60467	40354
0.60533	40143
0.60600	39935
0.60667	39728
0.60733	39523
0.60800	39319
0.60867	39117
0.60933	38917
0.61000	38719
0.61067	38522
0.61133	38326
0.61200	38133
0.61267	37941
0.61333	37751
0.61400	37562
0.61467	37376
0.61533	37190
0.61600	37007
0.61667	36825
0.61733	36645
0.61800	36466
0.61867	36290
0.61933	36114
0.62000	35940
0.62067	35768
0.62133	35597
0.62200	35428
0.62267	35260
0.62333	35093
0.62400	34928
0.62467	34764
0.62533	34601
0.62600	34440
0.62667	34279
0.62733	34120
0.62800	33962
0.62867	33805
0.62933	33650
0.63000	33495
0.63067	33342
0.63133	33190
0.63200	33039
0.63267	32889
0.63333	32740
0.63400	32592
0.63467	32445
0.63533	32300
0.63600	32155
0.63667	32012
0.63733	31869
0.63800	31728
0.63867	31588
0.63933	31450
0.64000	31312
0.64067	31176
0.64133	31040
0.64200	30906
0.64267	30773
0.64333	30641
0.64400	30510
0.64467	30381
0.64533	30252
0.64600	30124
0.64667	29998
0.64733	29872
0.64800	29748
0.64867	29624
0.64933	29502
0.65000	29380
0.65067	29259
0.65133	29139
0.65200	29020
0.65267	28901
0.65333	28784
0.65400	28667
0.65467	28551
0.65533	28436
0.65600	28321
0.65667	28207
0.65733	28094
0.65800	27981
0.65867	27869
0.65933	27757
0.66000	27646
0.66067	27536
0.66133	27426
0.66200	27317
0.66267	27209
0.66333	27101
0.66400	26993
0.66467	26887
0.66533	26780
0.66600	26675
0.66667	26570
0.66733	26465
0.66800	26361
0.66867	26258
0.66933	26155
0.67000	26053
0.67067	25952
0.67133	25850
0.67200	25750
0.67267	25650
0.67333	25551
0.67400	25452
0.67467	25354
0.67533	25257
0.67600	25160
0.67667	25064
0.67733	24969
0.67800	24875
0.67867	24781
0.67933	24689
0.68000	24597
0.68067	24507
0.68133	24418
0.68200	24330
0.68267	24243
0.68333	24158
0.68400	24075
0.68467	23993
0.68533	23913
0.68600	23836
0.68667	23761
0.68733	23688
0.68800	23619
0.68867	23552
0.68933	23488
0.69000	23428
0.69067	23372
0.69133	23319
0.69200	23270
0.69267	23226
0.69333	23186
0.69400	23150
0.69467	23119
0.69533	23092
0.69600	23070
0.69667	23052
0.69733	23038
0.69800	23029
0.69867	23024
0.69933	23022
0.70000	23023
0.70067	23027
0.70133	23034
0.70200	23043
0.70267	23054
0.70333	23066
0.70400	23078
0.70467	23091
0.70533	23103
0.70600	23114
0.70667	23125
0.70733	23133
0.70800	23139
0.70867	23142
0.70933	23143
0.71000	23141
0.71067	23135
0.71133	23126
0.71200	23113
0.71267	23096
0.71333	23076
0.71400	23052
0.71467	23023
0.71533	22991
0.71600	22955
0.71667	22916
0.71733	22873
0.71800	22826
0.71867	22776
0.71933	22723
0.72000	22667
0.72067	22608
0.72133	22547
0.72200	22482
0.72267	22416
0.72333	22347
0.72400	22277
0.72467	22204
0.72533	22130
0.72600	22054
0.72667	21977
0.72733	21898
0.72800	21818
0.72867	21737
0.72933	21656
0.73000	21573
0.73067	21490
0.73133	21406
0.73200	21321
0.73267	21237
0.73333	21152
0.73400	21066
0.73467	20981
0.73533	20895
0.73600	20809
0.73667	20723
0.73733	20637
0.73800	20552
0.73867	20466
0.73933	20381
0.74000	20295
0.74067	20210
0.74133	20126
0.74200	20041
0.74267	19958
0.74333	19874
0.74400	19791
0.74467	19708
0.74533	19626
0.74600	19544
0.74667	19463
0.74733	19382
0.74800	19302
0.74867	19222
0.74933	19144
0.75000	19065
0.75067	18987
0.75133	18910
0.75200	18834
0.75267	18758
0.75333	18683
0.75400	18608
0.75467	18535
0.75533	18461
0.75600	18389
0.75667	18317
0.75733	18246
0.75800	18175
0.75867	18105
0.75933	18036
0.76000	17968
0.76067	17900
0.76133	17833
0.76200	17766
0.76267	17700
0.76333	17635
0.76400	17570
0.76467	17506
0.76533	17443
0.76600	17380
0.76667	17318
0.76733	17257
0.76800	17196
0.76867	17136
0.76933	17076
0.77000	17017
0.77067	16959
0.77133	16901
0.77200	16844
0.77267	16787
0.77333	16731
0.77400	16676
0.77467	16621
0.77533	16566
0.77600	16513
0.77667	16460
0.77733	16407
0.77800	16355
0.77867	16304
0.77933	16253
0.78000	16202
0.78067	16152
0.78133	16103
0.78200	16053
0.78267	16005
0.78333	15957
0.78400	15909
0.78467	15862
0.78533	15816
0.78600	15769
0.78667	15724
0.78733	15678
0.78800	15633
0.78867	15589
0.78933	15545
0.79000	15501
0.79067	15458
0.79133	15415
0.79200	15373
0.79267	15331
0.79333	15289
0.79400	15248
0.79467	15207
0.79533	15167
0.79600	15127
0.79667	15087
0.79733	15048
0.79800	15009
0.79867	14970
0.79933	14932
0.80000	14894
0.80067	14856
0.80133	14819
0.80200	14782
0.80267	14745
0.80333	14709
0.80400	14673
0.80467	14637
0.80533	14602
0.80600	14566
0.80667	14532
0.80733	14497
0.80800	14463
0.80867	14429
0.80933	14395
0.81000	14361
0.81067	14328
0.81133	14295
0.81200	14263
0.81267	14231
0.81333	14199
0.81400	14167
0.81467	14136
0.81533	14105
0.81600	14074
0.81667	14044
0.81733	14014
0.81800	13984
0.81867	13955
0.81933	13925
0.82000	13896
0.82067	13867
0.82133	13839
0.82200	13811
0.82267	13782
0.82333	13755
0.82400	13727
0.82467	13699
0.82533	13672
0.82600	13645
0.82667	13618
0.82733	13591
0.82800	13565
0.82867	13538
0.82933	13512
0.83000	13486
0.83067	13460
0.83133	13435
0.83200	13409
0.83267	13384
0.83333	13358
0.83400	13333
0.83467	13308
0.83533	13284
0.83600	13259
0.83667	13235
0.83733	13210
0.83800	13186
0.83867	13162
0.83933	13138
0.84000	13114
0.84067	13091
0.84133	13067
0.84200	13044
0.84267	13020
0.84333	12997
0.84400	12974
0.84467	12951
0.84533	12928
0.84600	12906
0.84667	12883
0.84733	12861
0.84800	12838
0.84867	12816
0.84933	12794
0.85000	12772
0.85067	12750
0.85133	12728
0.85200	12706
0.85267	12684
0.85333	12662
0.85400	12641
0.85467	12619
0.85533	12597
0.85600	12576
0.85667	12554
0.85733	12533
0.85800	12512
0.85867	12490
0.85933	12469
0.86000	12448
0.86067	12427
0.86133	12406
0.86200	12386
0.86267	12365
0.86333	12344
0.86400	12324
0.86467	12303
0.86533	12283
0.86600	12263
0.86667	12242
0.86733	12222
0.86800	12202
0.86867	12182
0.86933	12162
0.87000	12143
0.87067	12123
0.87133	12103
0.87200	12084
0.87267	12064
0.87333	12045
0.87400	12026
0.87467	12007
0.87533	11988
0.87600	11969
0.87667	11950
0.87733	11931
0.87800	11912
0.87867	11894
0.87933	11875
0.88000	11857
0.88067	11839
0.88133	11821
0.88200	11803
0.88267	11785
0.88333	11767
0.88400	11749
0.88467	11732
0.88533	11714
0.88600	11697
0.88667	11679
0.88733	11662
0.88800	11645
0.88867	11628
0.88933	11611
0.89000	11594
0.89067	11577
0.89133	11560
0.89200	11544
0.89267	11527
0.89333	11510
0.89400	11494
0.89467	11478
0.89533	11461
0.89600	11445
0.89667	11429
0.89733	11413
0.89800	11396
0.89867	11380
0.89933	11365
0.90000	11349
0.90067	11333
0.90133	11317
0.90200	11302
0.90267	11286
0.90333	11270
0.90400	11255
0.90467	11239
0.90533	11224
0.90600	11209
0.90667	11193
0.90733	11178
0.90800	11163
0.90867	11148
0.90933	11133
0.91000	11118
0.91067	11103
0.91133	11088
0.91200	11073
0.91267	11059
0.91333	11044
0.91400	11029
0.91467	11015
0.91533	11000
0.91600	10986
0.91667	10972
0.91733	10957
0.91800	10943
0.91867	10929
0.91933	10914
0.92000	10900
0.92067	10886
0.92133	10872
0.92200	10858
0.92267	10844
0.92333	10830
0.92400	10816
0.92467	10802
0.92533	10788
0.92600	10774
0.92667	10760
0.92733	10747
0.92800	10733
0.92867	10719
0.92933	10706
0.93000	10692
0.93067	10679
0.93133	10665
0.93200	10652
0.93267	10639
0.93333	10626
0.93400	10612
0.93467	10599
0.93533	10586
0.93600	10573
0.93667	10560
0.93733	10547
0.93800	10534
0.93867	10522
0.93933	10509
0.94000	10496
0.94067	10483
0.94133	10471
0.94200	10458
0.94267	10445
0.94333	10433
0.94400	10420
0.94467	10407
0.94533	10395
0.94600	10382
0.94667	10370
0.94733	10358
0.94800	10345
0.94867	10333
0.94933	10321
0.95000	10308
0.95067	10296
0.95133	10284
0.95200	10272
0.95267	10260
0.95333	10248
0.95400	10236
0.95467	10225
0.95533	10213
0.95600	10201
0.95667	10190
0.95733	10178
0.95800	10167
0.95867	10156
0.95933	10145
0.96000	10134
0.96067	10123
0.96133	10113
0.96200	10102
0.96267	10092
0.96333	10082
0.96400	10072
0.96467	10061
0.96533	10051
0.96600	10041
0.96667	10031
0.96733	10022
0.96800	10012
0.96867	10002
0.96933	9992
0.97000	9982
0.97067	9973
0.97133	9963
0.97200	9953
0.97267	9943
0.97333	9933
0.97400	9923
0.97467	9913
0.97533	9903
0.97600	9893
0.97667	9883
0.97733	9873
0.97800	9862
0.97867	9852
0.97933	9841
0.98000	9831
0.98067	9820
0.98133	9809
0.98200	9799
0.98267	9788
0.98333	9777
0.98400	9766
0.98467	9755
0.98533	9744
0.98600	9733
0.98667	9722
0.98733	9711
0.98800	9699
0.98867	9688
0.98933	9677
0.99000	9666
0.99067	9654
0.99133	9643
0.99200	9631
0.99267	9620
0.99333	9608
0.99400	9597
0.99467	9586
0.99533	9574
0.99600	9563
0.99667	9551
0.99733	9540
0.99800	9529
0.99867	9517
0.99933	9506
1.00000	9495
1.00067	9483
1.00133	9472
1.00200	9461
1.00267	9450
1.00333	9438
1.00400	9427
1.00467	9416
1.00533	9405
1.00600	9394
1.00667	9383
1.00733	9373
1.00800	9362
1.00867	9351
1.00933	9341
1.01000	9330
1.01067	9320
1.01133	9310
1.01200	9300
1.01267	9290
1.01333	9280
1.01400	9270
1.01467	9261
1.01533	9251
1.01600	9242
1.01667	9233
1.01733	9225
1.01800	9216
1.01867	9208
1.01933	9200
1.02000	9192
1.02067	9184
1.02133	9177
1.02200	9169
1.02267	9162
1.02333	9155
1.02400	9148
1.02467	9142
1.02533	9135
1.02600	9129
1.02667	9123
1.02733	9117
1.02800	9111
1.02867	9105
1.02933	9099
1.03000	9094
1.03067	9088
1.03133	9083
1.03200	9077
1.03267	9072
1.03333	9066
1.03400	9061
1.03467	9055
1.03533	9049
1.03600	9043
1.03667	9037
1.03733	9031
1.03800	9025
1.03867	9019
1.03933	9013
1.04000	9006
1.04067	9000
1.04133	8993
1.04200	8987
1.04267	8980
1.04333	8973
1.04400	8966
1.04467	8959
1.04533	8952
1.04600	8944
1.04667	8937
1.04733	8930
1.04800	8922
1.04867	8915
1.04933	8907
1.05000	8900
1.05067	8892
1.05133	8885
1.05200	8877
1.05267	8869
1.05333	8861
1.05400	8853
1.05467	8846
1.05533	8838
1.05600	8830
1.05667	8822
1.05733	8814
1.05800	8806
1.05867	8798
1.05933	8790
1.06000	8782
1.06067	8774
1.06133	8766
1.06200	8758
1.06267	8751
1.06333	8743
1.06400	8735
1.06467	8727
1.06533	8719
1.06600	8712
1.06667	8704
1.06733	8696
1.06800	8688
1.06867	8681
1.06933	8673
1.07000	8665
1.07067	8657
1.07133	8650
1.07200	8642
1.07267	8634
1.07333	8626
1.07400	8619
1.07467	8611
1.07533	8603
1.07600	8595
1.07667	8588
1.07733	8580
1.07800	8572
1.07867	8564
1.07933	8556
1.08000	8549
1.08067	8541
1.08133	8533
1.08200	8525
1.08267	8518
1.08333	8510
1.08400	8502
1.08467	8494
1.08533	8486
1.08600	8479
1.08667	8471
1.08733	8463
1.08800	8455
1.08867	8447
1.08933	8440
1.09000	8432
1.09067	8424
1.09133	8416
1.09200	8408
1.09267	8400
1.09333	8393
1.09400	8385
1.09467	8377
1.09533	8369
1.09600	8361
1.09667	8354
1.09733	8346
1.09800	8338
1.09867	8330
1.09933	8322
1.10000	8315
1.10067	8307
1.10133	8299
1.10200	8291
1.10267	8284
1.10333	8276
1.10400	8268
1.10467	8261
1.10533	8253
1.10600	8246
1.10667	8238
1.10733	8231
1.10800	8223
1.10867	8216
1.10933	8209
1.11000	8201
1.11067	8194
1.11133	8187
1.11200	8180
1.11267	8172
1.11333	8165
1.11400	8158
1.11467	8151
1.11533	8144
1.11600	8137
1.11667	8130
1.11733	8123
1.11800	8116
1.11867	8109
1.11933	8102
1.12000	8096
1.12067	8089
1.12133	8082
1.12200	8076
1.12267	8069
1.12333	8063
1.12400	8057
1.12467	8050
1.12533	8044
1.12600	8038
1.12667	8032
1.12733	8026
1.12800	8020
1.12867	8014
1.12933	8008
1.13000	8003
1.13067	7997
1.13133	7992
1.13200	7987
1.13267	7981
1.13333	7976
1.13400	7971
1.13467	7966
1.13533	7961
1.13600	7957
1.13667	7952
1.13733	7947
1.13800	7943
1.13867	7939
1.13933	7934
1.14000	7930
1.14067	7926
1.14133	7922
1.14200	7918
1.14267	7914
1.14333	7910
1.14400	7906
1.14467	7902
1.14533	7898
1.14600	7894
1.14667	7891
1.14733	7887
1.14800	7883
1.14867	7879
1.14933	7875
1.15000	7872
1.15067	7868
1.15133	7864
1.15200	7860
1.15267	7856
1.15333	7853
1.15400	7849
1.15467	7845
1.15533	7841
1.15600	7837
1.15667	7833
1.15733	7829
1.15800	7825
1.15867	7820
1.15933	7816
1.16000	7812
1.16067	7808
1.16133	7804
1.16200	7799
1.16267	7795
1.16333	7790
1.16400	7786
1.16467	7781
1.16533	7777
1.16600	7772
1.16667	7767
1.16733	7762
1.16800	7758
1.16867	7753
1.16933	7748
1.17000	7743
1.17067	7738
1.17133	7733
1.17200	7728
1.17267	7723
1.17333	7718
1.17400	7713
1.17467	7708
1.17533	7703
1.17600	7698
1.17667	7693
1.17733	7688
1.17800	7683
1.17867	7678
1.17933	7673
1.18000	7668
1.18067	7663
1.18133	7658
1.18200	7654
1.18267	7649
1.18333	7644
1.18400	7639
1.18467	7635
1.18533	7630
1.18600	7625
1.18667	7621
1.18733	7616
1.18800	7612
1.18867	7608
1.18933	7603
1.19000	7599
1.19067	7595
1.19133	7591
1.19200	7586
1.19267	7582
1.19333	7578
1.19400	7574
1.19467	7570
1.19533	7566
1.19600	7563
1.19667	7559
1.19733	7555
1.19800	7551
1.19867	7548
1.19933	7544
1.20000	7541
1.20067	7537
1.20133	7534
1.20200	7531
1.20267	7527
1.20333	7524
1.20400	7521
1.20467	7518
1.20533	7515
1.20600	7512
1.20667	7509
1.20733	7507
1.20800	7504
1.20867	7501
1.20933	7499
1.21000	7496
1.21067	7494
1.21133	7491
1.21200	7489
1.21267	7487
1.21333	7485
1.21400	7482
1.21467	7480
1.21533	7478
1.21600	7476
1.21667	7474
1.21733	7472
1.21800	7470
1.21867	7468
1.21933	7466
1.22000	7465
1.22067	7463
1.22133	7461
1.22200	7459
1.22267	7458
1.22333	7456
1.22400	7455
1.22467	7453
1.22533	7452
1.22600	7450
1.22667	7449
1.22733	7447
1.22800	7446
1.22867	7444
1.22933	7443
1.23000	7442
1.23067	7440
1.23133	7439
1.23200	7438
1.23267	7437
1.23333	7436
1.23400	7435
1.23467	7434
1.23533	7433
1.23600	7432
1.23667	7431
1.23733	7430
1.23800	7429
1.23867	7428
1.23933	7427
1.24000	7426
1.24067	7426
1.24133	7425
1.24200	7424
1.24267	7423
1.24333	7422
1.24400	7422
1.24467	7421
1.24533	7420
1.24600	7420
1.24667	7419
1.24733	7418
1.24800	7418
1.24867	7417
1.24933	7417
1.25000	7416
1.25067	7416
1.25133	7415
1.25200	7415
1.25267	7414
1.25333	7414
1.25400	7414
1.25467	7414
1.25533	7414
1.25600	7414
1.25667	7414
1.25733	7414
1.25800	7415
1.25867	7415
1.25933	7415
1.26000	7416
1.26067	7417
1.26133	7417
1.26200	7418
1.26267	7419
1.26333	7420
1.26400	7422
1.26467	7423
1.26533	7424
1.26600	7426
1.26667	7428
1.26733	7429
1.26800	7432
1.26867	7434
1.26933	7436
1.27000	7439
1.27067	7442
1.27133	7445
1.27200	7448
1.27267	7451
1.27333	7455
1.27400	7459
1.27467	7463
1.27533	7468
1.27600	7472
1.27667	7477
1.27733	7483
1.27800	7488
1.27867	7494
1.27933	7499
1.28000	7505
1.28067	7512
1.28133	7518
1.28200	7525
1.28267	7532
1.28333	7538
1.28400	7545
1.28467	7553
1.28533	7560
1.28600	7567
1.28667	7574
1.28733	7581
1.28800	7588
1.28867	7595
1.28933	7602
1.29000	7609
1.29067	7615
1.29133	7622
1.29200	7628
1.29267	7634
1.29333	7639
1.29400	7645
1.29467	7650
1.29533	7655
1.29600	7659
1.29667	7663
1.29733	7667
1.29800	7670
1.29867	7673
1.29933	7676
1.30000	7678
1.30067	7680
1.30133	7682
1.30200	7683
1.30267	7684
1.30333	7684
1.30400	7685
1.30467	7685
1.30533	7684
1.30600	7684
1.30667	7683
1.30733	7682
1.30800	7680
1.30867	7678
1.30933	7676
1.31000	7674
1.31067	7671
1.31133	7668
1.31200	7665
1.31267	7662
1.31333	7659
1.31400	7655
1.31467	7651
1.31533	7647
1.31600	7643
1.31667	7638
1.31733	7633
1.31800	7629
1.31867	7624
1.31933	7618
1.32000	7613
1.32067	7608
1.32133	7602
1.32200	7597
1.32267	7591
1.32333	7585
1.32400	7579
1.32467	7573
1.32533	7566
1.32600	7560
1.32667	7554
1.32733	7547
1.32800	7540
1.32867	7534
1.32933	7527
1.33000	7520
1.33067	7513
1.33133	7506
1.33200	7498
1.33267	7491
1.33333	7484
1.33400	7476
1.33467	7469
1.33533	7462
1.33600	7454
1.33667	7446
1.33733	7439
1.33800	7431
1.33867	7423
1.33933	7415
1.34000	7408
1.34067	7400
1.34133	7392
1.34200	7384
1.34267	7376
1.34333	7368
1.34400	7360
1.34467	7351
1.34533	7343
1.34600	7335
1.34667	7327
1.34733	7319
1.34800	7311
1.34867	7304
1.34933	7296
1.35000	7288
1.35067	7280
1.35133	7272
1.35200	7265
1.35267	7257
1.35333	7249
1.35400	7242
1.35467	7234
1.35533	7227
1.35600	7220
1.35667	7212
1.35733	7205
1.35800	7198
1.35867	7191
1.35933	7184
1.36000	7177
1.36067	7171
1.36133	7164
1.36200	7158
1.36267	7151
1.36333	7145
1.36400	7138
1.36467	7132
1.36533	7126
1.36600	7120
1.36667	7114
1.36733	7108
1.36800	7103
1.36867	7097
1.36933	7091
1.37000	7086
1.37067	7081
1.37133	7075
1.37200	7070
1.37267	7065
1.37333	7060
1.37400	7055
1.37467	7050
1.37533	7045
1.37600	7041
1.37667	7036
1.37733	7031
1.37800	7027
1.37867	7022
1.37933	7018
1.38000	7013
1.38067	7009
1.38133	7005
1.38200	7000
1.38267	6996
1.38333	6992
1.38400	6988
1.38467	6984
1.38533	6980
1.38600	6976
1.38667	6972
1.38733	6968
1.38800	6964
1.38867	6960
1.38933	6957
1.39000	6953
1.39067	6949
1.39133	6945
1.39200	6941
1.39267	6937
1.39333	6934
1.39400	6930
1.39467	6926
1.39533	6922
1.39600	6918
1.39667	6915
1.39733	6911
1.39800	6907
1.39867	6903
1.39933	6900
1.40000	6896
1.40067	6892
1.40133	6888
1.40200	6885
1.40267	6881
1.40333	6877
1.40400	6874
1.40467	6870
1.40533	6866
1.40600	6863
1.40667	6859
1.40733	6856
1.40800	6852
1.40867	6849
1.40933	6845
1.41000	6842
1.41067	6838
1.41133	6835
1.41200	6831
1.41267	6828
1.41333	6825
1.41400	6821
1.41467	6818
1.41533	6815
1.41600	6811
1.41667	6808
1.41733	6805
1.41800	6802
1.41867	6799
1.41933	6796
1.42000	6792
1.42067	6789
1.42133	6786
1.42200	6783
1.42267	6780
1.42333	6777
1.42400	6774
1.42467	6771
1.42533	6768
1.42600	6765
1.42667	6762
1.42733	6759
1.42800	6757
1.42867	6754
1.42933	6751
1.43000	6748
1.43067	6745
1.43133	6743
1.43200	6740
1.43267	6737
1.43333	6735
1.43400	6732
1.43467	6730
1.43533	6727
1.43600	6725
1.43667	6722
1.43733	6720
1.43800	6717
1.43867	6715
1.43933	6712
1.44000	6710
1.44067	6707
1.44133	6705
1.44200	6703
1.44267	6700
1.44333	6698
1.44400	6696
1.44467	6694
1.44533	6692
1.44600	6689
1.44667	6687
1.44733	6685
1.44800	6683
1.44867	6681
1.44933	6679
1.45000	6677
1.45067	6675
1.45133	6673
1.45200	6671
1.45267	6669
1.45333	6667
1.45400	6665
1.45467	6663
1.45533	6661
1.45600	6659
1.45667	6657
1.45733	6655
1.45800	6653
1.45867	6651
1.45933	6649
1.46000	6647
1.46067	6645
1.46133	6643
1.46200	6641
1.46267	6639
1.46333	6637
1.46400	6635
1.46467	6633
1.46533	6631
1.46600	6629
1.46667	6627
1.46733	6625
1.46800	6624
1.46867	6622
1.46933	6620
1.47000	6618
1.47067	6616
1.47133	6614
1.47200	6612
1.47267	6610
1.47333	6608
1.47400	6606
1.47467	6604
1.47533	6602
1.47600	6601
1.47667	6599
1.47733	6597
1.47800	6595
1.47867	6593
1.47933	6591
1.48000	6589
1.48067	6587
1.48133	6585
1.48200	6583
1.48267	6581
1.48333	6579
1.48400	6577
1.48467	6575
1.48533	6572
1.48600	6570
1.48667	6568
1.48733	6566
1.48800	6564
1.48867	6562
1.48933	6559
1.49000	6557
1.49067	6555
1.49133	6553
1.49200	6551
1.49267	6548
1.49333	6546
1.49400	6544
1.49467	6541
1.49533	6539
1.49600	6537
1.49667	6534
1.49733	6532
1.49800	6530
1.49867	6527
1.49933	6525
1.50000	6522
1.50067	6520
1.50133	6517
1.50200	6515
1.50267	6512
1.50333	6510
1.50400	6507
1.50467	6505
1.50533	6502
1.50600	6499
1.50667	6497
1.50733	6494
1.50800	6492
1.50867	6489
1.50933	6487
1.51000	6484
1.51067	6482
1.51133	6479
1.51200	6477
1.51267	6474
1.51333	6472
1.51400	6469
1.51467	6467
1.51533	6465
1.51600	6462
1.51667	6460
1.51733	6458
1.51800	6456
1.51867	6453
1.51933	6451
1.52000	6449
1.52067	6447
1.52133	6445
1.52200	6443
1.52267	6441
1.52333	6438
1.52400	6436
1.52467	6434
1.52533	6432
1.52600	6430
1.52667	6428
1.52733	6426
1.52800	6424
1.52867	6422
1.52933	6420
1.53000	6418
1.53067	6416
1.53133	6414
1.53200	6413
1.53267	6411
1.53333	6409
1.53400	6407
1.53467	6405
1.53533	6403
1.53600	6401
1.53667	6399
1.53733	6398
1.53800	6396
1.53867	6394
1.53933	6392
1.54000	6391
1.54067	6389
1.54133	6387
1.54200	6386
1.54267	6384
1.54333	6382
1.54400	6381
1.54467	6379
1.54533	6377
1.54600	6376
1.54667	6374
1.54733	6372
1.54800	6371
1.54867	6369
1.54933	6367
1.55000	6365
1.55067	6364
1.55133	6362
1.55200	6360
1.55267	6359
1.55333	6357
1.55400	6355
1.55467	6354
1.55533	6352
1.55600	6350
1.55667	6349
1.55733	6347
1.55800	6345
1.55867	6343
1.55933	6342
1.56000	6340
1.56067	6338
1.56133	6337
1.56200	6335
1.56267	6333
1.56333	6331
1.56400	6330
1.56467	6328
1.56533	6327
1.56600	6325
1.56667	6323
1.56733	6322
1.56800	6320
1.56867	6319
1.56933	6317
1.57000	6316
1.57067	6314
1.57133	6313
1.57200	6311
1.57267	6310
1.57333	6308
1.57400	6307
1.57467	6306
1.57533	6304
1.57600	6303
1.57667	6302
1.57733	6300
1.57800	6299
1.57867	6298
1.57933	6296
1.58000	6295
1.58067	6294
1.58133	6293
1.58200	6291
1.58267	6290
1.58333	6289
1.58400	6288
1.58467	6286
1.58533	6285
1.58600	6284
1.58667	6282
1.58733	6281
1.58800	6280
1.58867	6279
1.58933	6277
1.59000	6276
1.59067	6275
1.59133	6274
1.59200	6273
1.59267	6272
1.59333	6271
1.59400	6269
1.59467	6268
1.59533	6267
1.59600	6266
1.59667	6265
1.59733	6264
1.59800	6263
1.59867	6262
1.59933	6261
1.60000	6260
1.60067	6259
1.60133	6258
1.60200	6257
1.60267	6256
1.60333	6255
1.60400	6254
1.60467	6253
1.60533	6252
1.60600	6251
1.60667	6250
1.60733	6249
1.60800	6249
1.60867	6248
1.60933	6247
1.61000	6246
1.61067	6245
1.61133	6245
1.61200	6244
1.61267	6243
1.61333	6242
1.61400	6241
1.61467	6240
1.61533	6239
1.61600	6238
1.61667	6238
1.61733	6237
1.61800	6236
1.61867	6235
1.61933	6234
1.62000	6233
1.62067	6232
1.62133	6231
1.62200	6230
1.62267	6229
1.62333	6228
1.62400	6227
1.62467	6226
1.62533	6225
1.62600	6224
1.62667	6223
1.62733	6222
1.62800	6221
1.62867	6220
1.62933	6219
1.63000	6219
1.63067	6218
1.63133	6217
1.63200	6216
1.63267	6215
1.63333	6215
1.63400	6214
1.63467	6213
1.63533	6212
1.63600	6211
1.63667	6210
1.63733	6210
1.63800	6209
1.63867	6208
1.63933	6207
1.64000	6206
1.64067	6205
1.64133	6204
1.64200	6203
1.64267	6203
1.64333	6202
1.64400	6201
1.64467	6200
1.64533	6200
1.64600	6199
1.64667	6199
1.64733	6198
1.64800	6197
1.64867	6197
1.64933	6196
1.65000	6196
1.65067	6195
1.65133	6195
1.65200	6194
1.65267	6193
1.65333	6193
1.65400	6192
1.65467	6192
1.65533	6191
1.65600	6191
1.65667	6190
1.65733	6190
1.65800	6189
1.65867	6189
1.65933	6188
1.66000	6188
1.66067	6187
1.66133	6187
1.66200	6186
1.66267	6186
1.66333	6185
1.66400	6184
1.66467	6184
1.66533	6183
1.66600	6182
1.66667	6182
1.66733	6181
1.66800	6180
1.66867	6179
1.66933	6178
1.67000	6177
1.67067	6176
1.67133	6175
1.67200	6174
1.67267	6173
1.67333	6172
1.67400	6171
1.67467	6170
1.67533	6169
1.67600	6168
1.67667	6167
1.67733	6166
1.67800	6164
1.67867	6163
1.67933	6162
1.68000	6161
1.68067	6160
1.68133	6158
1.68200	6157
1.68267	6156
1.68333	6155
1.68400	6154
1.68467	6152
1.68533	6151
1.68600	6150
1.68667	6149
1.68733	6148
1.68800	6147
1.68867	6145
1.68933	6144
1.69000	6143
1.69067	6142
1.69133	6140
1.69200	6139
1.69267	6138
1.69333	6137
1.69400	6136
1.69467	6134
1.69533	6133
1.69600	6132
1.69667	6131
1.69733	6129
1.69800	6128
1.69867	6127
1.69933	6126
1.70000	6124
1.70067	6123
1.70133	6122
1.70200	6121
1.70267	6120
1.70333	6119
1.70400	6118
1.70467	6116
1.70533	6115
1.70600	6114
1.70667	6113
1.70733	6112
1.70800	6111
1.70867	6110
1.70933	6109
1.71000	6108
1.71067	6107
1.71133	6106
1.71200	6105
1.71267	6104
1.71333	6103
1.71400	6102
1.71467	6102
1.71533	6102
1.71600	6102
1.71667	6103
1.71733	6104
1.71800	6106
1.71867	6108
1.71933	6112
1.72000	6117
1.72067	6123
1.72133	6131
1.72200	6141
1.72267	6155
1.72333	6171
1.72400	6191
1.72467	6216
1.72533	6247
1.72600	6284
1.72667	6329
1.72733	6384
1.72800	6450
1.72867	6530
1.72933	6624
1.73000	6737
1.73067	6870
1.73133	7027
1.73200	7212
1.73267	7429
1.73333	7682
1.73400	7975
1.73467	8315
1.73533	8707
1.73600	9158
1.73667	9673
1.73733	10260
1.73800	10929
1.73867	11686
1.73933	12543
1.74000	13509
1.74067	14593
1.74133	15804
1.74200	17153
1.74267	18649
1.74333	20300
1.74400	22116
1.74467	24107
1.74533	26281
1.74600	28648
1.74667	31216
1.74733	33994
1.74800	36987
1.74867	40204
1.74933	43650
1.75000	47332
1.75067	51253
1.75133	55417
1.75200	59825
1.75267	64479
1.75333	69378
1.75400	74519
1.75467	79898
1.75533	85507
1.75600	91336
1.75667	97376
1.75733	103612
1.75800	110032
1.75867	116618
1.75933	123352
1.76000	130213
1.76067	137176
1.76133	144219
1.76200	151318
1.76267	158450
1.76333	165588
1.76400	172708
1.76467	179783
1.76533	186782
1.76600	193677
1.76667	200440
1.76733	207041
1.76800	213452
1.76867	219647
1.76933	225602
1.77000	231293
1.77067	236700
1.77133	241803
1.77200	246585
1.77267	251030
1.77333	255125
1.77400	258860
1.77467	262230
1.77533	265229
1.77600	267856
1.77667	270112
1.77733	272002
1.77800	273531
1.77867	274708
1.77933	275542
1.78000	276043
1.78067	276223
1.78133	276095
1.78200	275672
1.78267	274968
1.78333	273997
1.78400	272773
1.78467	271311
1.78533	269624
1.78600	267728
1.78667	265636
1.78733	263363
1.78800	260921
1.78867	258324
1.78933	255584
1.79000	252715
1.79067	249727
1.79133	246632
1.79200	243440
1.79267	240163
1.79333	236810
1.79400	233390
1.79467	229912
1.79533	226385
1.79600	222816
1.79667	219212
1.79733	215582
1.79800	211931
1.79867	208266
1.79933	204592
1.80000	200914
1.80067	197239
1.80133	193570
1.80200	189911
1.80267	186268
1.80333	182643
1.80400	179040
1.80467	175462
1.80533	171913
1.80600	168394
1.80667	164909
1.80733	161459
1.80800	158046
1.80867	154673
1.80933	151341
1.81000	148052
1.81067	144806
1.81133	141606
1.81200	138452
1.81267	135345
1.81333	132286
1.81400	129275
1.81467	126314
1.81533	123402
1.81600	120540
1.81667	117728
1.81733	114967
1.81800	112256
1.81867	109595
1.81933	106985
1.82000	104426
1.82067	101916
1.82133	99457
1.82200	97047
1.82267	94687
1.82333	92376
1.82400	90113
1.82467	87899
1.82533	85732
1.82600	83613
1.82667	81540
1.82733	79514
1.82800	77533
1.82867	75597
1.82933	73705
1.83000	71858
1.83067	70053
1.83133	68291
1.83200	66571
1.83267	64892
1.83333	63253
1.83400	61654
1.83467	60094
1.83533	58573
1.83600	57089
1.83667	55643
1.83733	54233
1.83800	52858
1.83867	51519
1.83933	50213
1.84000	48942
1.84067	47703
1.84133	46496
1.84200	45321
1.84267	44177
1.84333	43063
1.84400	41978
1.84467	40922
1.84533	39895
1.84600	38895
1.84667	37922
1.84733	36976
1.84800	36055
1.84867	35159
1.84933	34288
1.85000	33441
1.85067	32617
1.85133	31816
1.85200	31037
1.85267	30280
1.85333	29544
1.85400	28829
1.85467	28133
1.85533	27458
1.85600	26801
1.85667	26163
1.85733	25544
1.85800	24942
1.85867	24357
1.85933	23789
1.86000	23237
1.86067	22701
1.86133	22181
1.86200	21676
1.86267	21185
1.86333	20709
1.86400	20246
1.86467	19797
1.86533	19361
1.86600	18938
1.86667	18527
1.86733	18129
1.86800	17742
1.86867	17366
1.86933	17001
1.87000	16648
1.87067	16304
1.87133	15971
1.87200	15648
1.87267	15334
1.87333	15030
1.87400	14734
1.87467	14448
1.87533	14170
1.87600	13900
1.87667	13639
1.87733	13385
1.87800	13139
1.87867	12900
1.87933	12669
1.88000	12444
1.88067	12227
1.88133	12015
1.88200	11811
1.88267	11612
1.88333	11419
1.88400	11233
1.88467	11051
1.88533	10876
1.88600	10706
1.88667	10540
1.88733	10380
1.88800	10225
1.88867	10075
1.88933	9929
1.89000	9787
1.89067	9650
1.89133	9517
1.89200	9389
1.89267	9264
1.89333	9143
1.89400	9026
1.89467	8912
1.89533	8802
1.89600	8695
1.89667	8591
1.89733	8491
1.89800	8393
1.89867	8299
1.89933	8207
1.90000	8119
1.90067	8033
1.90133	7950
1.90200	7869
1.90267	7791
1.90333	7715
1.90400	7642
1.90467	7571
1.90533	7502
1.90600	7435
1.90667	7370
1.90733	7307
1.90800	7246
1.90867	7187
1.90933	7130
1.91000	7074
1.91067	7020
1.91133	6968
1.91200	6917
1.91267	6868
1.91333	6821
1.91400	6774
1.91467	6730
1.91533	6686
1.91600	6644
1.91667	6603
1.91733	6563
1.91800	6524
1.91867	6487
1.91933	6450
1.92000	6415
1.92067	6380
1.92133	6347
1.92200	6314
1.92267	6283
1.92333	6252
1.92400	6222
1.92467	6193
1.92533	6165
1.92600	6137
1.92667	6110
1.92733	6084
1.92800	6059
1.92867	6034
1.92933	6010
1.93000	5987
1.93067	5964
1.93133	5942
1.93200	5921
1.93267	5900
1.93333	5879
1.93400	5859
1.93467	5840
1.93533	5821
1.93600	5802
1.93667	5784
1.93733	5767
1.93800	5750
1.93867	5733
1.93933	5717
1.94000	5701
1.94067	5686
1.94133	5671
1.94200	5657
1.94267	5642
1.94333	5629
1.94400	5615
1.94467	5602
1.94533	5589
1.94600	5577
1.94667	5565
1.94733	5553
1.94800	5541
1.94867	5530
1.94933	5519
1.95000	5508
1.95067	5497
1.95133	5487
1.95200	5477
1.95267	5467
1.95333	5457
1.95400	5448
1.95467	5439
1.95533	5430
1.95600	5421
1.95667	5412
1.95733	5404
1.95800	5395
1.95867	5387
1.95933	5379
1.96000	5372
1.96067	5364
1.96133	5357
1.96200	5350
1.96267	5342
1.96333	5336
1.96400	5329
1.96467	5322
1.96533	5316
1.96600	5309
1.96667	5303
1.96733	5297
1.96800	5291
1.96867	5286
1.96933	5280
1.97000	5274
1.97067	5269
1.97133	5264
1.97200	5258
1.97267	5253
1.97333	5248
1.97400	5243
1.97467	5239
1.97533	5234
1.97600	5229
1.97667	5225
1.97733	5220
1.97800	5216
1.97867	5212
1.97933	5208
1.98000	5204
1.98067	5200
1.98133	5196
1.98200	5192
1.98267	5188
1.98333	5184
1.98400	5180
1.98467	5176
1.98533	5173
1.98600	5169
1.98667	5166
1.98733	5162
1.98800	5159
1.98867	5155
1.98933	5152
1.99000	5149
1.99067	5146
1.99133	5142
1.99200	5139
1.99267	5136
1.99333	5133
1.99400	5131
1.99467	5128
1.99533	5125
1.99600	5122
1.99667	5119
1.99733	5117
1.99800	5114
1.99867	5111
1.99933	5109
2.00000	5106
2.00067	5104
2.00133	5101
2.00200	5098
2.00267	5096
2.00333	5093
2.00400	5091
2.00467	5088
2.00533	5086
2.00600	5083
2.00667	5081
2.00733	5078
2.00800	5076
2.00867	5074
2.00933	5071
2.01000	5069
2.01067	5066
2.01133	5064
2.01200	5061
2.01267	5059
2.01333	5057
2.01400	5054
2.01467	5052
2.01533	5049
2.01600	5047
2.01667	5044
2.01733	5042
2.01800	5040
2.01867	5037
2.01933	5035
2.02000	5033
2.02067	5030
2.02133	5028
2.02200	5026
2.02267	5023
2.02333	5021
2.02400	5019
2.02467	5017
2.02533	5015
2.02600	5012
2.02667	5010
2.02733	5008
2.02800	5006
2.02867	5004
2.02933	5002
2.03000	5000
2.03067	4998
2.03133	4996
2.03200	4994
2.03267	4992
2.03333	4990
2.03400	4988
2.03467	4986
2.03533	4984
2.03600	4982
2.03667	4980
2.03733	4978
2.03800	4976
2.03867	4973
2.03933	4971
2.04000	4969
2.04067	4967
2.04133	4965
2.04200	4963
2.04267	4961
2.04333	4959
2.04400	4957
2.04467	4955
2.04533	4954
2.04600	4952
2.04667	4950
2.04733	4948
2.04800	4946
2.04867	4944
2.04933	4942
2.05000	4940
2.05067	4938
2.05133	4936
2.05200	4934
2.05267	4932
2.05333	4930
2.05400	4928
2.05467	4926
2.05533	4924
2.05600	4923
2.05667	4921
2.05733	4919
2.05800	4917
2.05867	4915
2.05933	4914
2.06000	4912
2.06067	4910
2.06133	4909
2.06200	4907
2.06267	4905
2.06333	4904
2.06400	4902
2.06467	4900
2.06533	4899
2.06600	4897
2.06667	4896
2.06733	4894
2.06800	4892
2.06867	4891
2.06933	4889
2.07000	4888
2.07067	4886
2.07133	4885
2.07200	4883
2.07267	4882
2.07333	4880
2.07400	4879
2.07467	4877
2.07533	4876
2.07600	4874
2.07667	4873
2.07733	4871
2.07800	4870
2.07867	4868
2.07933	4867
2.08000	4865
2.08067	4864
2.08133	4862
2.08200	4861
2.08267	4859
2.08333	4857
2.08400	4856
2.08467	4855
2.08533	4853
2.08600	4852
2.08667	4850
2.08733	4849
2.08800	4847
2.08867	4846
2.08933	4844
2.09000	4843
2.09067	4841
2.09133	4840
2.09200	4838
2.09267	4837
2.09333	4836
2.09400	4834
2.09467	4833
2.09533	4831
2.09600	4830
2.09667	4828
2.09733	4827
2.09800	4825
2.09867	4824
2.09933	4822
2.10000	4821
2.10067	4820
2.10133	4818
2.10200	4817
2.10267	4815
2.10333	4814
2.10400	4813
2.10467	4811
2.10533	4810
2.10600	4808
2.10667	4807
2.10733	4806
2.10800	4804
2.10867	4803
2.10933	4801
2.11000	4800
2.11067	4799
2.11133	4797
2.11200	4796
2.11267	4795
2.11333	4793
2.11400	4792
2.11467	4791
2.11533	4789
2.11600	4788
2.11667	4787
2.11733	4785
2.11800	4784
2.11867	4783
2.11933	4781
2.12000	4780
2.12067	4779
2.12133	4777
2.12200	4776
2.12267	4775
2.12333	4773
2.12400	4772
2.12467	4770
2.12533	4769
2.12600	4767
2.12667	4766
2.12733	4764
2.12800	4763
2.12867	4762
2.12933	4760
2.13000	4759
2.13067	4757
2.13133	4756
2.13200	4754
2.13267	4753
2.13333	4752
2.13400	4750
2.13467	4749
2.13533	4747
2.13600	4746
2.13667	4744
2.13733	4743
2.13800	4742
2.13867	4740
2.13933	4739
2.14000	4737
2.14067	4736
2.14133	4734
2.14200	4733
2.14267	4731
2.14333	4730
2.14400	4728
2.14467	4727
2.14533	4725
2.14600	4724
2.14667	4722
2.14733	4721
2.14800	4719
2.14867	4717
2.14933	4716
2.15000	4714
2.15067	4713
2.15133	4711
2.15200	4710
2.15267	4708
2.15333	4707
2.15400	4705
2.15467	4704
2.15533	4703
2.15600	4701
2.15667	4700
2.15733	4699
2.15800	4697
2.15867	4696
2.15933	4695
2.16000	4694
2.16067	4692
2.16133	4691
2.16200	4690
2.16267	4689
2.16333	4687
2.16400	4686
2.16467	4685
2.16533	4684
2.16600	4683
2.16667	4681
2.16733	4680
2.16800	4679
2.16867	4678
2.16933	4676
2.17000	4675
2.17067	4674
2.17133	4673
2.17200	4672
2.17267	4670
2.17333	4669
2.17400	4668
2.17467	4667
2.17533	4666
2.17600	4665
2.17667	4664
2.17733	4663
2.17800	4662
2.17867	4660
2.17933	4659
2.18000	4658
2.18067	4657
2.18133	4656
2.18200	4655
2.18267	4654
2.18333	4653
2.18400	4652
2.18467	4651
2.18533	4650
2.18600	4649
2.18667	4648
2.18733	4646
2.18800	4645
2.18867	4644
2.18933	4643
2.19000	4642
2.19067	4641
2.19133	4640
2.19200	4639
2.19267	4638
2.19333	4637
2.19400	4636
2.19467	4636
2.19533	4635
2.19600	4634
2.19667	4633
2.19733	4632
2.19800	4631
2.19867	4630
2.19933	4629
2.20000	4629
2.20067	4628
2.20133	4627
2.20200	4627
2.20267	4626
2.20333	4626
2.20400	4625
2.20467	4625
2.20533	4625
2.20600	4625
2.20667	4624
2.20733	4624
2.20800	4624
2.20867	4624
2.20933	4624
2.21000	4624
2.21067	4624
2.21133	4625
2.21200	4625
2.21267	4625
2.21333	4625
2.21400	4625
2.21467	4626
2.21533	4626
2.21600	4627
2.21667	4627
2.21733	4628
2.21800	4628
2.21867	4629
2.21933	4629
2.22000	4630
2.22067	4630
2.22133	4631
2.22200	4632
2.22267	4632
2.22333	4633
2.22400	4634
2.22467	4634
2.22533	4635
2.22600	4635
2.22667	4636
2.22733	4636
2.22800	4637
2.22867	4638
2.22933	4638
2.23000	4638
2.23067	4639
2.23133	4639
2.23200	4639
2.23267	4640
2.23333	4640
2.23400	4640
2.23467	4640
2.23533	4640
2.23600	4640
2.23667	4640
2.23733	4640
2.23800	4640
2.23867	4639
2.23933	4639
2.24000	4639
2.24067	4639
2.24133	4638
2.24200	4638
2.24267	4638
2.24333	4637
2.24400	4637
2.24467	4636
2.24533	4636
2.24600	4635
2.24667	4635
2.24733	4634
2.24800	4634
2.24867	4633
2.24933	4632
2.25000	4632
2.25067	4631
2.25133	4631
2.25200	4630
2.25267	4629
2.25333	4629
2.25400	4628
2.25467	4628
2.25533	4627
2.25600	4626
2.25667	4626
2.25733	4625
2.25800	4625
2.25867	4624
2.25933	4624
2.26000	4623
2.26067	4623
2.26133	4622
2.26200	4622
2.26267	4621
2.26333	4620
2.26400	4619
2.26467	4619
2.26533	4618
2.26600	4617
2.26667	4616
2.26733	4615
2.26800	4614
2.26867	4613
2.26933	4612
2.27000	4611
2.27067	4610
2.27133	4609
2.27200	4607
2.27267	4606
2.27333	4605
2.27400	4604
2.27467	4603
2.27533	4602
2.27600	4600
2.27667	4599
2.27733	4598
2.27800	4597
2.27867	4596
2.27933	4595
2.28000	4594
2.28067	4592
2.28133	4591
2.28200	4590
2.28267	4589
2.28333	4588
2.28400	4587
2.28467	4586
2.28533	4585
2.28600	4584
2.28667	4583
2.28733	4582
2.28800	4581
2.28867	4580
2.28933	4579
2.29000	4578
2.29067	4577
2.29133	4576
2.29200	4575
2.29267	4575
2.29333	4574
2.29400	4573
2.29467	4572
2.29533	4571
2.29600	4570
2.29667	4569
2.29733	4569
2.29800	4568
2.29867	4567
2.29933	4566
2.30000	4566
2.30067	4565
2.30133	4564
2.30200	4564
2.30267	4563
2.30333	4563
2.30400	4562
2.30467	4562
2.30533	4561
2.30600	4561
2.30667	4560
2.30733	4560
2.30800	4560
2.30867	4559
2.30933	4559
2.31000	4559
2.31067	4558
2.31133	4558
2.31200	4558
2.31267	4558
2.31333	4557
2.31400	4557
2.31467	4557
2.31533	4557
2.31600	4557
2.31667	4557
2.31733	4557
2.31800	4557
2.31867	4557
2.31933	4557
2.32000	4557
2.32067	4557
2.32133	4557
2.32200	4557
2.32267	4557
2.32333	4557
2.32400	4557
2.32467	4557
2.32533	4557
2.32600	4557
2.32667	4558
2.32733	4558
2.32800	4558
2.32867	4558
2.32933	4559
2.33000	4559
2.33067	4559
2.33133	4560
2.33200	4560
2.33267	4560
2.33333	4561
2.33400	4561
2.33467	4562
2.33533	4562
2.33600	4563
2.33667	4563
2.33733	4564
2.33800	4564
2.33867	4565
2.33933	4565
2.34000	4566
2.34067	4567
2.34133	4567
2.34200	4568
2.34267	4569
2.34333	4569
2.34400	4570
2.34467	4571
2.34533	4572
2.34600	4573
2.34667	4574
2.34733	4575
2.34800	4576
2.34867	4577
2.34933	4578
2.35000	4579
2.35067	4580
2.35133	4581
2.35200	4583
2.35267	4584
2.35333	4585
2.35400	4587
2.35467	4588
2.35533	4589
2.35600	4591
2.35667	4592
2.35733	4594
2.35800	4595
2.35867	4597
2.35933	4598
2.36000	4600
2.36067	4601
2.36133	4602
2.36200	4604
2.36267	4605
2.36333	4607
2.36400	4608
2.36467	4609
2.36533	4611
2.36600	4612
2.36667	4613
2.36733	4614
2.36800	4616
2.36867	4617
2.36933	4618
2.37000	4619
2.37067	4620
2.37133	4621
2.37200	4622
2.37267	4623
2.37333	4624
2.37400	4625
2.37467	4625
2.37533	4626
2.37600	4626
2.37667	4627
2.37733	4627
2.37800	4628
2.37867	4628
2.37933	4628
2.38000	4628
2.38067	4628
2.38133	4628
2.38200	4628
2.38267	4628
2.38333	4628
2.38400	4628
2.38467	4628
2.38533	4627
2.38600	4627
2.38667	4626
2.38733	4626
2.38800	4625
2.38867	4625
2.38933	4624
2.39000	4623
2.39067	4623
2.39133	4622
2.39200	4621
2.39267	4620
2.39333	4619
2.39400	4618
2.39467	4617
2.39533	4616
2.39600	4615
2.39667	4614
2.39733	4613
2.39800	4613
2.39867	4612
2.39933	4611
2.40000	4610
2.40067	4609
2.40133	4608
2.40200	4606
2.40267	4605
2.40333	4604
2.40400	4603
2.40467	4602
2.40533	4601
2.40600	4600
2.40667	4599
2.40733	4598
2.40800	4597
2.40867	4596
2.40933	4594
2.41000	4593
2.41067	4592
2.41133	4591
2.41200	4590
2.41267	4589
2.41333	4588
2.41400	4587
2.41467	4586
2.41533	4585
2.41600	4584
2.41667	4583
2.41733	4582
2.41800	4580
2.41867	4579
2.41933	4578
2.42000	4577
2.42067	4576
2.42133	4575
2.42200	4573
2.42267	4572
2.42333	4571
2.42400	4570
2.42467	4569
2.42533	4567
2.42600	4566
2.42667	4565
2.42733	4564
2.42800	4563
2.42867	4561
2.42933	4560
2.43000	4559
2.43067	4558
2.43133	4556
2.43200	4555
2.43267	4554
2.43333	4553
2.43400	4551
2.43467	4550
2.43533	4549
2.43600	4547
2.43667	4546
2.43733	4545
2.43800	4543
2.43867	4542
2.43933	4540
2.44000	4539
2.44067	4538
2.44133	4536
2.44200	4535
2.44267	4533
2.44333	4531
2.44400	4530
2.44467	4528
2.44533	4527
2.44600	4525
2.44667	4523
2.44733	4521
2.44800	4520
2.44867	4518
2.44933	4516
2.45000	4514
2.45067	4512
2.45133	4511
2.45200	4509
2.45267	4507
2.45333	4505
2.45400	4504
2.45467	4502
2.45533	4500
2.45600	4498
2.45667	4496
2.45733	4495
2.45800	4493
2.45867	4491
2.45933	4489
2.46000	4487
2.46067	4486
2.46133	4484
2.46200	4482
2.46267	4480
2.46333	4478
2.46400	4477
2.46467	4475
2.46533	4473
2.46600	4471
2.46667	4470
2.46733	4468
2.46800	4466
2.46867	4464
2.46933	4463
2.47000	4461
2.47067	4459
2.47133	4458
2.47200	4456
2.47267	4454
2.47333	4453
2.47400	4451
2.47467	4449
2.47533	4448
2.47600	4446
2.47667	4444
2.47733	4443
2.47800	4441
2.47867	4440
2.47933	4438
2.48000	4436
2.48067	4435
2.48133	4433
2.48200	4432
2.48267	4430
2.48333	4429
2.48400	4427
2.48467	4426
2.48533	4424
2.48600	4423
2.48667	4421
2.48733	4420
2.48800	4418
2.48867	4417
2.48933	4415
2.49000	4413
2.49067	4412
2.49133	4410
2.49200	4409
2.49267	4408
2.49333	4406
2.49400	4405
2.49467	4403
2.49533	4402
2.49600	4400
2.49667	4399
2.49733	4397
2.49800	4396
2.49867	4394
2.49933	4393
2.50000	4392
2.50067	4390
2.50133	4389
2.50200	4387
2.50267	4386
2.50333	4384
2.50400	4383
2.50467	4381
2.50533	4380
2.50600	4378
2.50667	4377
2.50733	4375
2.50800	4374
2.50867	4373
2.50933	4371
2.51000	4370
2.51067	4368
2.51133	4367
2.51200	4365
2.51267	4364
2.51333	4362
2.51400	4361
2.51467	4359
2.51533	4358
2.51600	4356
2.51667	4355
2.51733	4353
2.51800	4352
2.51867	4350
2.51933	4349
2.52000	4348
2.52067	4346
2.52133	4345
2.52200	4343
2.52267	4342
2.52333	4340
2.52400	4339
2.52467	4337
2.52533	4336
2.52600	4334
2.52667	4333
2.52733	4331
2.52800	4330
2.52867	4328
2.52933	4326
2.53000	4325
2.53067	4323
2.53133	4322
2.53200	4320
2.53267	4319
2.53333	4317
2.53400	4315
2.53467	4314
2.53533	4312
2.53600	4311
2.53667	4310
2.53733	4308
2.53800	4307
2.53867	4305
2.53933	4304
2.54000	4303
2.54067	4301
2.54133	4300
2.54200	4299
2.54267	4297
2.54333	4296
2.54400	4294
2.54467	4293
2.54533	4292
2.54600	4290
2.54667	4289
2.54733	4288
2.54800	4286
2.54867	4285
2.54933	4284
2.55000	4283
2.55067	4281
2.55133	4280
2.55200	4279
2.55267	4278
2.55333	4277
2.55400	4275
2.55467	4274
2.55533	4273
2.55600	4272
2.55667	4271
2.55733	4269
2.55800	4268
2.55867	4267
2.55933	4266
2.56000	4265
2.56067	4263
2.56133	4262
2.56200	4261
2.56267	4260
2.56333	4259
2.56400	4258
2.56467	4257
2.56533	4256
2.56600	4254
2.56667	4253
2.56733	4252
2.56800	4251
2.56867	4250
2.56933	4249
2.57000	4248
2.57067	4247
2.57133	4246
2.57200	4246
2.57267	4245
2.57333	4244
2.57400	4243
2.57467	4242
2.57533	4241
2.57600	4241
2.57667	4240
2.57733	4239
2.57800	4238
2.57867	4238
2.57933	4237
2.58000	4236
2.58067	4236
2.58133	4235
2.58200	4234
2.58267	4234
2.58333	4233
2.58400	4232
2.58467	4231
2.58533	4231
2.58600	4230
2.58667	4229
2.58733	4229
2.58800	4228
2.58867	4227
2.58933	4226
2.59000	4226
2.59067	4225
2.59133	4224
2.59200	4224
2.59267	4223
2.59333	4222
2.59400	4222
2.59467	4221
2.59533	4220
2.59600	4220
2.59667	4219
2.59733	4218
2.59800	4218
2.59867	4217
2.59933	4216
2.60000	4216
2.60067	4215
2.60133	4214
2.60200	4214
2.60267	4213
2.60333	4212
2.60400	4212
2.60467	4211
2.60533	4210
2.60600	4209
2.60667	4208
2.60733	4208
2.60800	4207
2.60867	4206
2.60933	4205
2.61000	4204
2.61067	4203
2.61133	4203
2.61200	4202
2.61267	4201
2.61333	4200
2.61400	4199
2.61467	4198
2.61533	4198
2.61600	4197
2.61667	4196
2.61733	4195
2.61800	4194
2.61867	4193
2.61933	4193
2.62000	4192
2.62067	4191
2.62133	4190
2.62200	4189
2.62267	4188
2.62333	4188
2.62400	4187
2.62467	4186
2.62533	4185
2.62600	4184
2.62667	4183
2.62733	4182
2.62800	4182
2.62867	4181
2.62933	4180
2.63000	4179
2.63067	4178
2.63133	4178
2.63200	4177
2.63267	4176
2.63333	4175
2.63400	4174
2.63467	4174
2.63533	4173
2.63600	4172
2.63667	4171
2.63733	4170
2.63800	4169
2.63867	4168
2.63933	4168
2.64000	4167
2.64067	4166
2.64133	4165
2.64200	4164
2.64267	4163
2.64333	4162
2.64400	4161
2.64467	4160
2.64533	4159
2.64600	4158
2.64667	4157
2.64733	4156
2.64800	4155
2.64867	4154
2.64933	4153
2.65000	4152
2.65067	4151
2.65133	4150
2.65200	4149
2.65267	4148
2.65333	4147
2.65400	4146
2.65467	4145
2.65533	4144
2.65600	4143
2.65667	4142
2.65733	4140
2.65800	4139
2.65867	4138
2.65933	4137
2.66000	4136
2.66067	4135
2.66133	4134
2.66200	4133
2.66267	4132
2.66333	4131
2.66400	4130
2.66467	4129
2.66533	4128
2.66600	4127
2.66667	4126
2.66733	4125
2.66800	4124
2.66867	4122
2.66933	4121
2.67000	4120
2.67067	4119
2.67133	4118
2.67200	4117
2.67267	4116
2.67333	4115
2.67400	4113
2.67467	4112
2.67533	4111
2.67600	4110
2.67667	4109
2.67733	4108
2.67800	4107
2.67867	4105
2.67933	4104
2.68000	4103
2.68067	4102
2.68133	4101
2.68200	4100
2.68267	4098
2.68333	4097
2.68400	4096
2.68467	4095
2.68533	4094
2.68600	4093
2.68667	4092
2.68733	4090
2.68800	4089
2.68867	4088
2.68933	4087
2.69000	4086
2.69067	4085
2.69133	4084
2.69200	4083
2.69267	4082
2.69333	4081
2.69400	4080
2.69467	4079
2.69533	4078
2.69600	4077
2.69667	4076
2.69733	4075
2.69800	4074
2.69867	4073
2.69933	4072
2.70000	4071
2.70067	4070
2.70133	4070
2.70200	4069
2.70267	4068
2.70333	4067
2.70400	4066
2.70467	4066
2.70533	4065
2.70600	4064
2.70667	4063
2.70733	4062
2.70800	4062
2.70867	4061
2.70933	4060
2.71000	4059
2.71067	4058
2.71133	4057
2.71200	4057
2.71267	4056
2.71333	4055
2.71400	4055
2.71467	4054
2.71533	4053
2.71600	4053
2.71667	4052
2.71733	4052
2.71800	4051
2.71867	4050
2.71933	4050
2.72000	4049
2.72067	4049
2.72133	4049
2.72200	4048
2.72267	4048
2.72333	4047
2.72400	4046
2.72467	4046
2.72533	4045
2.72600	4045
2.72667	4044
2.72733	4044
2.72800	4043
2.72867	4043
2.72933	4042
2.73000	4042
2.73067	4042
2.73133	4041
2.73200	4041
2.73267	4041
2.73333	4040
2.73400	4040
2.73467	4040
2.73533	4040
2.73600	4039
2.73667	4039
2.73733	4039
2.73800	4039
2.73867	4039
2.73933	4039
2.74000	4039
2.74067	4038
2.74133	4038
2.74200	4038
2.74267	4038
2.74333	4038
2.74400	4038
2.74467	4038
2.74533	4037
2.74600	4037
2.74667	4037
2.74733	4037
2.74800	4037
2.74867	4037
2.74933	4037
2.75000	4037
2.75067	4037
2.75133	4037
2.75200	4037
2.75267	4037
2.75333	4037
2.75400	4037
2.75467	4037
2.75533	4037
2.75600	4037
2.75667	4037
2.75733	4038
2.75800	4038
2.75867	4038
2.75933	4038
2.76000	4038
2.76067	4038
2.76133	4039
2.76200	4039
2.76267	4039
2.76333	4039
2.76400	4039
2.76467	4040
2.76533	4040
2.76600	4040
2.76667	4040
2.76733	4041
2.76800	4041
2.76867	4041
2.76933	4042
2.77000	4042
2.77067	4043
2.77133	4043
2.77200	4044
2.77267	4044
2.77333	4045
2.77400	4046
2.77467	4047
2.77533	4047
2.77600	4048
2.77667	4049
2.77733	4050
2.77800	4050
2.77867	4051
2.77933	4052
2.78000	4053
2.78067	4054
2.78133	4055
2.78200	4056
2.78267	4057
2.78333	4058
2.78400	4059
2.78467	4060
2.78533	4061
2.78600	4062
2.78667	4063
2.78733	4065
2.78800	4066
2.78867	4067
2.78933	4069
2.79000	4070
2.79067	4072
2.79133	4073
2.79200	4075
2.79267	4076
2.79333	4078
2.79400	4079
2.79467	4081
2.79533	4083
2.79600	4084
2.79667	4086
2.79733	4087
2.79800	4089
2.79867	4090
2.79933	4092
2.80000	4093
2.80067	4095
2.80133	4096
2.80200	4097
2.80267	4099
2.80333	4100
2.80400	4102
2.80467	4103
2.80533	4104
2.80600	4105
2.80667	4107
2.80733	4108
2.80800	4109
2.80867	4110
2.80933	4111
2.81000	4113
2.81067	4114
2.81133	4115
2.81200	4116
2.81267	4117
2.81333	4118
2.81400	4119
2.81467	4120
2.81533	4121
2.81600	4121
2.81667	4122
2.81733	4123
2.81800	4124
2.81867	4125
2.81933	4126
2.82000	4126
2.82067	4127
2.82133	4128
2.82200	4128
2.82267	4129
2.82333	4129
2.82400	4130
2.82467	4130
2.82533	4131
2.82600	4131
2.82667	4131
2.82733	4132
2.82800	4132
2.82867	4132
2.82933	4132
2.83000	4132
2.83067	4132
2.83133	4133
2.83200	4133
2.83267	4133
2.83333	4133
2.83400	4133
2.83467	4133
2.83533	4132
2.83600	4132
2.83667	4132
2.83733	4132
2.83800	4132
2.83867	4131
2.83933	4131
2.84000	4131
2.84067	4130
2.84133	4130
2.84200	4130
2.84267	4130
2.84333	4129
2.84400	4129
2.84467	4129
2.84533	4128
2.84600	4128
2.84667	4128
2.84733	4127
2.84800	4127
2.84867	4127
2.84933	4126
2.85000	4126
2.85067	4126
2.85133	4125
2.85200	4125
2.85267	4125
2.85333	4124
2.85400	4124
2.85467	4124
2.85533	4123
2.85600	4123
2.85667	4123
2.85733	4122
2.85800	4122
2.85867	4122
2.85933	4121
2.86000	4121
2.86067	4121
2.86133	4121
2.86200	4120
2.86267	4120
2.86333	4120
2.86400	4120
2.86467	4120
2.86533	4119
2.86600	4119
2.86667	4119
2.86733	4119
2.86800	4119
2.86867	4118
2.86933	4118
2.87000	4118
2.87067	4118
2.87133	4118
2.87200	4117
2.87267	4117
2.87333	4117
2.87400	4117
2.87467	4117
2.87533	4117
2.87600	4117
2.87667	4117
2.87733	4116
2.87800	4116
2.87867	4116
2.87933	4116
2.88000	4116
2.88067	4116
2.88133	4116
2.88200	4116
2.88267	4116
2.88333	4116
2.88400	4116
2.88467	4116
2.88533	4117
2.88600	4117
2.88667	4117
2.88733	4117
2.88800	4117
2.88867	4117
2.88933	4118
2.89000	4118
2.89067	4118
2.89133	4118
2.89200	4118
2.89267	4119
2.89333	4119
2.89400	4119
2.89467	4119
2.89533	4120
2.89600	4120
2.89667	4120
2.89733	4120
2.89800	4121
2.89867	4121
2.89933	4121
2.90000	4121
2.90067	4122
2.90133	4122
2.90200	4122
2.90267	4122
2.90333	4122
2.90400	4123
2.90467	4123
2.90533	4123
2.90600	4123
2.90667	4123
2.90733	4123
2.90800	4123
2.90867	4123
2.90933	4123
2.91000	4123
2.91067	4123
2.91133	4123
2.91200	4122
2.91267	4122
2.91333	4122
2.91400	4121
2.91467	4120
2.91533	4120
2.91600	4119
2.91667	4118
2.91733	4117
2.91800	4116
2.91867	4115
2.91933	4114
2.92000	4113
2.92067	4112
2.92133	4110
2.92200	4109
2.92267	4107
2.92333	4105
2.92400	4103
2.92467	4101
2.92533	4099
2.92600	4097
2.92667	4095
2.92733	4093
2.92800	4090
2.92867	4088
2.92933	4085
2.93000	4082
2.93067	4080
2.93133	4077
2.93200	4074
2.93267	4071
2.93333	4068
2.93400	4065
2.93467	4061
2.93533	4058
2.93600	4055
2.93667	4051
2.93733	4048
2.93800	4044
2.93867	4041
2.93933	4037
2.94000	4033
2.94067	4030
2.94133	4026
2.94200	4022
2.94267	4018
2.94333	4014
2.94400	4010
2.94467	4007
2.94533	4003
2.94600	3999
2.94667	3995
2.94733	3991
2.94800	3987
2.94867	3983
2.94933	3979
2.95000	3975
2.95067	3972
2.95133	3968
2.95200	3964
2.95267	3960
2.95333	3957
2.95400	3953
2.95467	3949
2.95533	3945
2.95600	3942
2.95667	3938
2.95733	3935
2.95800	3931
2.95867	3928
2.95933	3924
2.96000	3921
2.96067	3918
2.96133	3914
2.96200	3911
2.96267	3908
2.96333	3904
2.96400	3901
2.96467	3898
2.96533	3895
2.96600	3892
2.96667	3889
2.96733	3886
2.96800	3883
2.96867	3880
2.96933	3878
2.97000	3875
2.97067	3872
2.97133	3869
2.97200	3866
2.97267	3864
2.97333	3861
2.97400	3858
2.97467	3856
2.97533	3853
2.97600	3851
2.97667	3848
2.97733	3846
2.97800	3844
2.97867	3841
2.97933	3839
2.98000	3837
2.98067	3834
2.98133	3832
2.98200	3830
2.98267	3828
2.98333	3825
2.98400	3823
2.98467	3821
2.98533	3819
2.98600	3817
2.98667	3815
2.98733	3813
2.98800	3811
2.98867	3809
2.98933	3807
2.99000	3805
2.99067	3803
2.99133	3802
2.99200	3800
2.99267	3798
2.99333	3796
2.99400	3794
2.99467	3792
2.99533	3791
2.99600	3789
2.99667	3787
2.99733	3786
2.99800	3784
2.99867	3782
2.99933	3781
3.00000	3779
3.00067	3777
3.00133	3776
3.00200	3774
3.00267	3772
3.00333	3771
3.00400	3769
3.00467	3767
3.00533	3766
3.00600	3764
3.00667	3763
3.00733	3761
3.00800	3760
3.00867	3759
3.00933	3757
3.01000	3756
3.01067	3754
3.01133	3753
3.01200	3751
3.01267	3750
3.01333	3749
3.01400	3747
3.01467	3746
3.01533	3745
3.01600	3743
3.01667	3742
3.01733	3741
3.01800	3740
3.01867	3739
3.01933	3738
3.02000	3736
3.02067	3735
3.02133	3734
3.02200	3733
3.02267	3732
3.02333	3731
3.02400	3730
3.02467	3729
3.02533	3728
3.02600	3728
3.02667	3727
3.02733	3726
3.02800	3725
3.02867	3724
3.02933	3723
3.03000	3722
3.03067	3721
3.03133	3721
3.03200	3720
3.03267	3719
3.03333	3718
3.03400	3718
3.03467	3717
3.03533	3716
3.03600	3715
3.03667	3715
3.03733	3714
3.03800	3713
3.03867	3713
3.03933	3712
3.04000	3711
3.04067	3711
3.04133	3710
3.04200	3709
3.04267	3709
3.04333	3708
3.04400	3708
3.04467	3707
3.04533	3707
3.04600	3706
3.04667	3706
3.04733	3706
3.04800	3705
3.04867	3705
3.04933	3704
3.05000	3704
3.05067	3703
3.05133	3703
3.05200	3702
3.05267	3702
3.05333	3702
3.05400	3701
3.05467	3701
3.05533	3701
3.05600	3700
3.05667	3700
3.05733	3700
3.05800	3699
3.05867	3699
3.05933	3699
3.06000	3698
3.06067	3698
3.06133	3698
3.06200	3698
3.06267	3698
3.06333	3697
3.06400	3697
3.06467	3697
3.06533	3697
3.06600	3697
3.06667	3697
3.06733	3696
3.06800	3696
3.06867	3696
3.06933	3696
3.07000	3696
3.07067	3696
3.07133	3696
3.07200	3696
3.07267	3696
3.07333	3696
3.07400	3696
3.07467	3696
3.07533	3696
3.07600	3696
3.07667	3696
3.07733	3696
3.07800	3696
3.07867	3696
3.07933	3696
3.08000	3696
3.08067	3696
3.08133	3696
3.08200	3696
3.08267	3696
3.08333	3696
3.08400	3696
3.08467	3696
3.08533	3696
3.08600	3696
3.08667	3696
3.08733	3696
3.08800	3696
3.08867	3696
3.08933	3696
3.09000	3696
3.09067	3696
3.09133	3696
3.09200	3695
3.09267	3695
3.09333	3695
3.09400	3695
3.09467	3694
3.09533	3694
3.09600	3694
3.09667	3693
3.09733	3693
3.09800	3693
3.09867	3693
3.09933	3692
3.10000	3692
3.10067	3692
3.10133	3691
3.10200	3691
3.10267	3691
3.10333	3691
3.10400	3690
3.10467	3690
3.10533	3690
3.10600	3689
3.10667	3689
3.10733	3689
3.10800	3688
3.10867	3688
3.10933	3688
3.11000	3688
3.11067	3687
3.11133	3687
3.11200	3687
3.11267	3686
3.11333	3686
3.11400	3686
3.11467	3685
3.11533	3685
3.11600	3684
3.11667	3684
3.11733	3683
3.11800	3683
3.11867	3682
3.11933	3682
3.12000	3681
3.12067	3681
3.12133	3680
3.12200	3680
3.12267	3679
3.12333	3679
3.12400	3678
3.12467	3678
3.12533	3678
3.12600	3677
3.12667	3677
3.12733	3677
3.12800	3676
3.12867	3676
3.12933	3676
3.13000	3676
3.13067	3675
3.13133	3675
3.13200	3675
3.13267	3675
3.13333	3674
3.13400	3674
3.13467	3674
3.13533	3674
3.13600	3673
3.13667	3673
3.13733	3673
3.13800	3673
3.13867	3673
3.13933	3673
3.14000	3672
3.14067	3672
3.14133	3672
3.14200	3672
3.14267	3672
3.14333	3672
3.14400	3672
3.14467	3671
3.14533	3671
3.14600	3671
3.14667	3671
3.14733	3671
3.14800	3671
3.14867	3670
3.14933	3670
3.15000	3670
3.15067	3670
3.15133	3670
3.15200	3669
3.15267	3669
3.15333	3669
3.15400	3669
3.15467	3668
3.15533	3668
3.15600	3668
3.15667	3668
3.15733	3668
3.15800	3667
3.15867	3667
3.15933	3667
3.16000	3667
3.16067	3667
3.16133	3667
3.16200	3666
3.16267	3666
3.16333	3666
3.16400	3666
3.16467	3666
3.16533	3666
3.16600	3666
3.16667	3666
3.16733	3665
3.16800	3665
3.16867	3665
3.16933	3665
3.17000	3665
3.17067	3665
3.17133	3665
3.17200	3664
3.17267	3664
3.17333	3664
3.17400	3664
3.17467	3664
3.17533	3664
3.17600	3664
3.17667	3664
3.17733	3664
3.17800	3664
3.17867	3664
3.17933	3664
3.18000	3664
3.18067	3664
3.18133	3664
3.18200	3664
3.18267	3664
3.18333	3664
3.18400	3664
3.18467	3664
3.18533	3664
3.18600	3664
3.18667	3664
3.18733	3665
3.18800	3665
3.18867	3665
3.18933	3665
3.19000	3665
3.19067	3665
3.19133	3666
3.19200	3666
3.19267	3666
3.19333	3666
3.19400	3667
3.19467	3667
3.19533	3667
3.19600	3667
3.19667	3667
3.19733	3668
3.19800	3668
3.19867	3668
3.19933	3669
3.20000	3669
3.20067	3669
3.20133	3670
3.20200	3670
3.20267	3670
3.20333	3671
3.20400	3671
3.20467	3672
3.20533	3672
3.20600	3673
3.20667	3673
3.20733	3674
3.20800	3674
3.20867	3675
3.20933	3675
3.21000	3676
3.21067	3676
3.21133	3677
3.21200	3678
3.21267	3678
3.21333	3679
3.21400	3679
3.21467	3680
3.21533	3681
3.21600	3681
3.21667	3682
3.21733	3682
3.21800	3683
3.21867	3684
3.21933	3684
3.22000	3685
3.22067	3686
3.22133	3686
3.22200	3687
3.22267	3687
3.22333	3688
3.22400	3689
3.22467	3689
3.22533	3690
3.22600	3691
3.22667	3691
3.22733	3692
3.22800	3693
3.22867	3693
3.22933	3694
3.23000	3695
3.23067	3695
3.23133	3696
3.23200	3697
3.23267	3697
3.23333	3698
3.23400	3699
3.23467	3700
3.23533	3700
3.23600	3701
3.23667	3702
3.23733	3703
3.23800	3703
3.23867	3704
3.23933	3705
3.24000	3706
3.24067	3706
3.24133	3707
3.24200	3708
3.24267	3709
3.24333	3709
3.24400	3710
3.24467	3711
3.24533	3712
3.24600	3712
3.24667	3713
3.24733	3714
3.24800	3715
3.24867	3716
3.24933	3716
3.25000	3717
3.25067	3718
3.25133	3719
3.25200	3720
3.25267	3720
3.25333	3721
3.25400	3722
3.25467	3723
3.25533	3724
3.25600	3724
3.25667	3725
3.25733	3726
3.25800	3727
3.25867	3728
3.25933	3729
3.26000	3730
3.26067	3730
3.26133	3731
3.26200	3732
3.26267	3733
3.26333	3734
3.26400	3735
3.26467	3735
3.26533	3736
3.26600	3737
3.26667	3738
3.26733	3739
3.26800	3739
3.26867	3740
3.26933	3741
3.27000	3742
3.27067	3743
3.27133	3744
3.27200	3744
3.27267	3745
3.27333	3746
3.27400	3747
3.27467	3748
3.27533	3748
3.27600	3749
3.27667	3750
3.27733	3751
3.27800	3751
3.27867	3752
3.27933	3753
3.28000	3753
3.28067	3754
3.28133	3755
3.28200	3755
3.28267	3756
3.28333	3757
3.28400	3757
3.28467	3758
3.28533	3758
3.28600	3759
3.28667	3760
3.28733	3760
3.28800	3761
3.28867	3762
3.28933	3762
3.29000	3763
3.29067	3764
3.29133	3765
3.29200	3765
3.29267	3766
3.29333	3767
3.29400	3767
3.29467	3768
3.29533	3769
3.29600	3769
3.29667	3770
3.29733	3771
3.29800	3771
3.29867	3772
3.29933	3773
3.30000	3774
3.30067	3774
3.30133	3775
3.30200	3776
3.30267	3777
3.30333	3777
3.30400	3778
3.30467	3779
3.30533	3779
3.30600	3780
3.30667	3781
3.30733	3781
3.30800	3782
3.30867	3783
3.30933	3783
3.31000	3784
3.31067	3784
3.31133	3785
3.31200	3785
3.31267	3785
3.31333	3786
3.31400	3786
3.31467	3787
3.31533	3787
3.31600	3788
3.31667	3788
3.31733	3789
3.31800	3789
3.31867	3789
3.31933	3790
3.32000	3790
3.32067	3791
3.32133	3791
3.32200	3792
3.32267	3792
3.32333	3793
3.32400	3793
3.32467	3793
3.32533	3794
3.32600	3794
3.32667	3795
3.32733	3795
3.32800	3796
3.32867	3796
3.32933	3796
3.33000	3797
3.33067	3797
3.33133	3798
3.33200	3798
3.33267	3798
3.33333	3799
3.33400	3799
3.33467	3799
3.33533	3800
3.33600	3800
3.33667	3800
3.33733	3801
3.33800	3801
3.33867	3801
3.33933	3802
3.34000	3802
3.34067	3802
3.34133	3803
3.34200	3803
3.34267	3804
3.34333	3804
3.34400	3805
3.34467	3805
3.34533	3806
3.34600	3806
3.34667	3807
3.34733	3807
3.34800	3807
3.34867	3808
3.34933	3808
3.35000	3809
3.35067	3809
3.35133	3809
3.35200	3810
3.35267	3810
3.35333	3811
3.35400	3811
3.35467	3811
3.35533	3812
3.35600	3812
3.35667	3813
3.35733	3813
3.35800	3813
3.35867	3814
3.35933	3814
3.36000	3814
3.36067	3815
3.36133	3815
3.36200	3815
3.36267	3816
3.36333	3816
3.36400	3817
3.36467	3817
3.36533	3818
3.36600	3818
3.36667	3818
3.36733	3819
3.36800	3819
3.36867	3820
3.36933	3820
3.37000	3820
3.37067	3820
3.37133	3821
3.37200	3821
3.37267	3821
3.37333	3821
3.37400	3821
3.37467	3822
3.37533	3822
3.37600	3822
3.37667	3822
3.37733	3822
3.37800	3822
3.37867	3823
3.37933	3823
3.38000	3823
3.38067	3823
3.38133	3823
3.38200	3823
3.38267	3823
3.38333	3823
3.38400	3824
3.38467	3824
3.38533	3824
3.38600	3824
3.38667	3824
3.38733	3824
3.38800	3824
3.38867	3824
3.38933	3824
3.39000	3825
3.39067	3825
3.39133	3825
3.39200	3825
3.39267	3825
3.39333	3825
3.39400	3825
3.39467	3825
3.39533	3825
3.39600	3825
3.39667	3825
3.39733	3825
3.39800	3825
3.39867	3825
3.39933	3826
3.40000	3826
3.40067	3826
3.40133	3826
3.40200	3826
3.40267	3826
3.40333	3826
3.40400	3826
3.40467	3826
3.40533	3826
3.40600	3826
3.40667	3826
3.40733	3826
3.40800	3826
3.40867	3826
3.40933	3826
3.41000	3826
3.41067	3826
3.41133	3826
3.41200	3826
3.41267	3826
3.41333	3826
3.41400	3826
3.41467	3826
3.41533	3826
3.41600	3826
3.41667	3826
3.41733	3826
3.41800	3826
3.41867	3826
3.41933	3826
3.42000	3825
3.42067	3825
3.42133	3825
3.42200	3825
3.42267	3825
3.42333	3825
3.42400	3825
3.42467	3824
3.42533	3824
3.42600	3824
3.42667	3824
3.42733	3824
3.42800	3824
3.42867	3824
3.42933	3824
3.43000	3824
3.43067	3823
3.43133	3823
3.43200	3823
3.43267	3823
3.43333	3823
3.43400	3823
3.43467	3823
3.43533	3822
3.43600	3822
3.43667	3822
3.43733	3822
3.43800	3822
3.43867	3822
3.43933	3822
3.44000	3822
3.44067	3822
3.44133	3822
3.44200	3822
3.44267	3822
3.44333	3823
3.44400	3823
3.44467	3823
3.44533	3823
3.44600	3824
3.44667	3824
3.44733	3824
3.44800	3824
3.44867	3825
3.44933	3825
3.45000	3825
3.45067	3826
3.45133	3826
3.45200	3827
3.45267	3827
3.45333	3828
3.45400	3829
3.45467	3829
3.45533	3830
3.45600	3830
3.45667	3831
3.45733	3832
3.45800	3832
3.45867	3833
3.45933	3834
3.46000	3835
3.46067	3836
3.46133	3836
3.46200	3837
3.46267	3838
3.46333	3839
3.46400	3840
3.46467	3841
3.46533	3842
3.46600	3843
3.46667	3845
3.46733	3846
3.46800	3847
3.46867	3848
3.46933	3850
3.47000	3851
3.47067	3853
3.47133	3855
3.47200	3856
3.47267	3858
3.47333	3860
3.47400	3862
3.47467	3864
3.47533	3866
3.47600	3868
3.47667	3870
3.47733	3872
3.47800	3874
3.47867	3876
3.47933	3878
3.48000	3881
3.48067	3883
3.48133	3885
3.48200	3888
3.48267	3890
3.48333	3893
3.48400	3895
3.48467	3898
3.48533	3900
3.48600	3903
3.48667	3906
3.48733	3908
3.48800	3911
3.48867	3914
3.48933	3917
3.49000	3920
3.49067	3923
3.49133	3927
3.49200	3930
3.49267	3933
3.49333	3937
3.49400	3941
3.49467	3944
3.49533	3948
3.49600	3952
3.49667	3957
3.49733	3961
3.49800	3965
3.49867	3970
3.49933	3975
3.50000	3980
3.50067	3985
3.50133	3991
3.50200	3997
3.50267	4003
3.50333	4009
3.50400	4015
3.50467	4022
3.50533	4029
3.50600	4037
3.50667	4044
3.50733	4052
3.50800	4060
3.50867	4069
3.50933	4078
3.51000	4087
3.51067	4097
3.51133	4106
3.51200	4117
3.51267	4128
3.51333	4139
3.51400	4150
3.51467	4162
3.51533	4175
3.51600	4187
3.51667	4201
3.51733	4215
3.51800	4229
3.51867	4244
3.51933	4260
3.52000	4276
3.52067	4292
3.52133	4309
3.52200	4327
3.52267	4345
3.52333	4364
3.52400	4383
3.52467	4403
3.52533	4423
3.52600	4445
3.52667	4466
3.52733	4489
3.52800	4512
3.52867	4535
3.52933	4559
3.53000	4584
3.53067	4610
3.53133	4635
3.53200	4662
3.53267	4689
3.53333	4717
3.53400	4745
3.53467	4774
3.53533	4803
3.53600	4833
3.53667	4863
3.53733	4894
3.53800	4926
3.53867	4958
3.53933	4990
3.54000	5023
3.54067	5056
3.54133	5090
3.54200	5124
3.54267	5158
3.54333	5193
3.54400	5228
3.54467	5264
3.54533	5300
3.54600	5336
3.54667	5372
3.54733	5408
3.54800	5445
3.54867	5482
3.54933	5519
3.55000	5556
3.55067	5593
3.55133	5631
3.55200	5668
3.55267	5705
3.55333	5743
3.55400	5780
3.55467	5817
3.55533	5854
3.55600	5891
3.55667	5927
3.55733	5964
3.55800	6000
3.55867	6035
3.55933	6071
3.56000	6106
3.56067	6140
3.56133	6175
3.56200	6209
3.56267	6242
3.56333	6275
3.56400	6308
3.56467	6340
3.56533	6371
3.56600	6402
3.56667	6432
3.56733	6462
3.56800	6491
3.56867	6520
3.56933	6548
3.57000	6575
3.57067	6601
3.57133	6627
3.57200	6652
3.57267	6677
3.57333	6701
3.57400	6724
3.57467	6746
3.57533	6768
3.57600	6789
3.57667	6809
3.57733	6828
3.57800	6847
3.57867	6865
3.57933	6883
3.58000	6900
3.58067	6916
3.58133	6931
3.58200	6946
3.58267	6960
3.58333	6974
3.58400	6987
3.58467	6999
3.58533	7011
3.58600	7022
3.58667	7033
3.58733	7043
3.58800	7053
3.58867	7062
3.58933	7071
3.59000	7079
3.59067	7087
3.59133	7094
3.59200	7100
3.59267	7106
3.59333	7112
3.59400	7117
3.59467	7122
3.59533	7126
3.59600	7130
3.59667	7134
3.59733	7136
3.59800	7139
3.59867	7141
3.59933	7143
3.60000	7144
3.60067	7145
3.60133	7146
3.60200	7146
3.60267	7145
3.60333	7145
3.60400	7144
3.60467	7143
3.60533	7141
3.60600	7139
3.60667	7136
3.60733	7133
3.60800	7130
3.60867	7126
3.60933	7122
3.61000	7117
3.61067	7112
3.61133	7107
3.61200	7101
3.61267	7094
3.61333	7088
3.61400	7080
3.61467	7072
3.61533	7064
3.61600	7055
3.61667	7046
3.61733	7036
3.61800	7026
3.61867	7015
3.61933	7004
3.62000	6992
3.62067	6979
3.62133	6966
3.62200	6952
3.62267	6938
3.62333	6923
3.62400	6908
3.62467	6892
3.62533	6876
3.62600	6859
3.62667	6841
3.62733	6823
3.62800	6804
3.62867	6785
3.62933	6766
3.63000	6745
3.63067	6725
3.63133	6704
3.63200	6682
3.63267	6660
3.63333	6638
3.63400	6615
3.63467	6592
3.63533	6568
3.63600	6544
3.63667	6519
3.63733	6494
3.63800	6469
3.63867	6443
3.63933	6417
3.64000	6391
3.64067	6364
3.64133	6337
3.64200	6310
3.64267	6282
3.64333	6254
3.64400	6226
3.64467	6198
3.64533	6170
3.64600	6141
3.64667	6112
3.64733	6083
3.64800	6054
3.64867	6025
3.64933	5995
3.65000	5966
3.65067	5936
3.65133	5907
3.65200	5877
3.65267	5847
3.65333	5818
3.65400	5788
3.65467	5758
3.65533	5728
3.65600	5699
3.65667	5669
3.65733	5640
3.65800	5611
3.65867	5581
3.65933	5552
3.66000	5523
3.66067	5494
3.66133	5465
3.66200	5437
3.66267	5408
3.66333	5380
3.66400	5352
3.66467	5324
3.66533	5296
3.66600	5269
3.66667	5242
3.66733	5215
3.66800	5188
3.66867	5161
3.66933	5135
3.67000	5109
3.67067	5083
3.67133	5058
3.67200	5033
3.67267	5008
3.67333	4983
3.67400	4959
3.67467	4935
3.67533	4911
3.67600	4888
3.67667	4864
3.67733	4841
3.67800	4819
3.67867	4796
3.67933	4774
3.68000	4753
3.68067	4731
3.68133	4710
3.68200	4689
3.68267	4669
3.68333	4648
3.68400	4628
3.68467	4609
3.68533	4589
3.68600	4570
3.68667	4552
3.68733	4533
3.68800	4515
3.68867	4497
3.68933	4480
3.69000	4462
3.69067	4445
3.69133	4428
3.69200	4412
3.69267	4396
3.69333	4380
3.69400	4364
3.69467	4349
3.69533	4333
3.69600	4319
3.69667	4304
3.69733	4289
3.69800	4275
3.69867	4261
3.69933	4248
3.70000	4234
3.70067	4221
3.70133	4208
3.70200	4195
3.70267	4182
3.70333	4170
3.70400	4158
3.70467	4145
3.70533	4134
3.70600	4122
3.70667	4110
3.70733	4099
3.70800	4088
3.70867	4077
3.70933	4067
3.71000	4056
3.71067	4046
3.71133	4036
3.71200	4026
3.71267	4016
3.71333	4006
3.71400	3997
3.71467	3988
3.71533	3978
3.71600	3969
3.71667	3961
3.71733	3952
3.71800	3943
3.71867	3935
3.71933	3927
3.72000	3919
3.72067	3911
3.72133	3903
3.72200	3895
3.72267	3888
3.72333	3881
3.72400	3873
3.72467	3866
3.72533	3859
3.72600	3852
3.72667	3845
3.72733	3839
3.72800	3832
3.72867	3826
3.72933	3820
3.73000	3813
3.73067	3807
3.73133	3801
3.73200	3795
3.73267	3789
3.73333	3783
3.73400	3778
3.73467	3772
3.73533	3766
3.73600	3761
3.73667	3755
3.73733	3750
3.73800	3745
3.73867	3740
3.73933	3735
3.74000	3730
3.74067	3725
3.74133	3720
3.74200	3715
3.74267	3711
3.74333	3706
3.74400	3702
3.74467	3697
3.74533	3693
3.74600	3689
3.74667	3685
3.74733	3681
3.74800	3677
3.74867	3673
3.74933	3669
3.75000	3665
3.75067	3661
3.75133	3658
3.75200	3654
3.75267	3650
3.75333	3647
3.75400	3643
3.75467	3640
3.75533	3636
3.75600	3633
3.75667	3630
3.75733	3626
3.75800	3623
3.75867	3620
3.75933	3617
3.76000	3613
3.76067	3610
3.76133	3607
3.76200	3604
3.76267	3601
3.76333	3598
3.76400	3596
3.76467	3593
3.76533	3590
3.76600	3587
3.76667	3585
3.76733	3582
3.76800	3579
3.76867	3577
3.76933	3574
3.77000	3572
3.77067	3569
3.77133	3567
3.77200	3564
3.77267	3562
3.77333	3559
3.77400	3557
3.77467	3555
3.77533	3552
3.77600	3550
3.77667	3548
3.77733	3545
3.77800	3543
3.77867	3541
3.77933	3539
3.78000	3537
3.78067	3534
3.78133	3532
3.78200	3530
3.78267	3528
3.78333	3525
3.78400	3523
3.78467	3521
3.78533	3519
3.78600	3517
3.78667	3515
3.78733	3513
3.78800	3511
3.78867	3509
3.78933	3507
3.79000	3505
3.79067	3503
3.79133	3501
3.79200	3499
3.79267	3497
3.79333	3495
3.79400	3493
3.79467	3491
3.79533	3489
3.79600	3487
3.79667	3486
3.79733	3484
3.79800	3482
3.79867	3480
3.79933	3479
3.80000	3477
3.80067	3475
3.80133	3474
3.80200	3472
3.80267	3470
3.80333	3469
3.80400	3467
3.80467	3466
3.80533	3464
3.80600	3463
3.80667	3461
3.80733	3460
3.80800	3458
3.80867	3456
3.80933	3455
3.81000	3454
3.81067	3452
3.81133	3451
3.81200	3449
3.81267	3448
3.81333	3446
3.81400	3445
3.81467	3443
3.81533	3442
3.81600	3440
3.81667	3439
3.81733	3437
3.81800	3436
3.81867	3435
3.81933	3433
3.82000	3432
3.82067	3431
3.82133	3429
3.82200	3428
3.82267	3427
3.82333	3426
3.82400	3425
3.82467	3423
3.82533	3422
3.82600	3421
3.82667	3420
3.82733	3418
3.82800	3417
3.82867	3416
3.82933	3415
3.83000	3413
3.83067	3412
3.83133	3411
3.83200	3410
3.83267	3408
3.83333	3407
3.83400	3406
3.83467	3405
3.83533	3404
3.83600	3402
3.83667	3401
3.83733	3400
3.83800	3399
3.83867	3398
3.83933	3396
3.84000	3395
3.84067	3394
3.84133	3393
3.84200	3392
3.84267	3391
3.84333	3390
3.84400	3389
3.84467	3388
3.84533	3387
3.84600	3386
3.84667	3385
3.84733	3384
3.84800	3383
3.84867	3382
3.84933	3381
3.85000	3380
3.85067	3379
3.85133	3378
3.85200	3377
3.85267	3376
3.85333	3375
3.85400	3374
3.85467	3373
3.85533	3372
3.85600	3372
3.85667	3371
3.85733	3370
3.85800	3369
3.85867	3368
3.85933	3368
3.86000	3367
3.86067	3366
3.86133	3365
3.86200	3365
3.86267	3364
3.86333	3363
3.86400	3362
3.86467	3362
3.86533	3361
3.86600	3360
3.86667	3359
3.86733	3359
3.86800	3358
3.86867	3357
3.86933	3357
3.87000	3356
3.87067	3355
3.87133	3355
3.87200	3354
3.87267	3353
3.87333	3353
3.87400	3352
3.87467	3351
3.87533	3350
3.87600	3350
3.87667	3349
3.87733	3348
3.87800	3347
3.87867	3347
3.87933	3346
3.88000	3345
3.88067	3345
3.88133	3344
3.88200	3343
3.88267	3343
3.88333	3342
3.88400	3342
3.88467	3341
3.88533	3341
3.88600	3340
3.88667	3340
3.88733	3339
3.88800	3339
3.88867	3339
3.88933	3338
3.89000	3338
3.89067	3338
3.89133	3338
3.89200	3337
3.89267	3337
3.89333	3337
3.89400	3336
3.89467	3336
3.89533	3336
3.89600	3335
3.89667	3335
3.89733	3335
3.89800	3334
3.89867	3334
3.89933	3334
3.90000	3333
3.90067	3333
3.90133	3333
3.90200	3332
3.90267	3332
3.90333	3332
3.90400	3331
3.90467	3331
3.90533	3331
3.90600	3330
3.90667	3330
3.90733	3330
3.90800	3329
3.90867	3329
3.90933	3329
3.91000	3328
3.91067	3328
3.91133	3328
3.91200	3328
3.91267	3327
3.91333	3327
3.91400	3327
3.91467	3326
3.91533	3326
3.91600	3326
3.91667	3326
3.91733	3325
3.91800	3325
3.91867	3325
3.91933	3324
3.92000	3324
3.92067	3324
3.92133	3324
3.92200	3323
3.92267	3323
3.92333	3323
3.92400	3322
3.92467	3322
3.92533	3322
3.92600	3321
3.92667	3321
3.92733	3321
3.92800	3320
3.92867	3320
3.92933	3320
3.93000	3320
3.93067	3319
3.93133	3319
3.93200	3319
3.93267	3318
3.93333	3318
3.93400	3318
3.93467	3318
3.93533	3317
3.93600	3317
3.93667	3317
3.93733	3316
3.93800	3316
3.93867	3316
3.93933	3316
3.94000	3315
3.94067	3315
3.94133	3315
3.94200	3315
3.94267	3314
3.94333	3314
3.94400	3314
3.94467	3313
3.94533	3313
3.94600	3313
3.94667	3313
3.94733	3312
3.94800	3312
3.94867	3312
3.94933	3312
3.95000	3312
3.95067	3312
3.95133	3311
3.95200	3311
3.95267	3311
3.95333	3311
3.95400	3311
3.95467	3311
3.95533	3311
3.95600	3311
3.95667	3310
3.95733	3310
3.95800	3310
3.95867	3310
3.95933	3310
3.96000	3310
3.96067	3310
3.96133	3310
3.96200	3310
3.96267	3310
3.96333	3310
3.96400	3310
3.96467	3310
3.96533	3310
3.96600	3310
3.96667	3310
3.96733	3310
3.96800	3310
3.96867	3310
3.96933	3310
3.97000	3310
3.97067	3310
3.97133	3310
3.97200	3310
3.97267	3310
3.97333	3310
3.97400	3310
3.97467	3310
3.97533	3310
3.97600	3311
3.97667	3311
3.97733	3311
3.97800	3311
3.97867	3311
3.97933	3311
3.98000	3312
3.98067	3312
3.98133	3312
3.98200	3312
3.98267	3313
3.98333	3313
3.98400	3314
3.98467	3314
3.98533	3314
3.98600	3315
3.98667	3315
3.98733	3316
3.98800	3316
3.98867	3316
3.98933	3317
3.99000	3317
3.99067	3318
3.99133	3318
3.99200	3319
3.99267	3320
3.99333	3320
3.99400	3321
3.99467	3321
3.99533	3322
3.99600	3323
3.99667	3323
3.99733	3324
3.99800	3325
3.99867	3326
3.99933	3326
4.00000	3327
4.00067	3328
4.00133	3329
4.00200	3330
4.00267	3331
4.00333	3332
4.00400	3333
4.00467	3334
4.00533	3335
4.00600	3336
4.00667	3337
4.00733	3338
4.00800	3339
4.00867	3341
4.00933	3342
4.01000	3343
4.01067	3345
4.01133	3346
4.01200	3348
4.01267	3349
4.01333	3351
4.01400	3352
4.01467	3354
4.01533	3356
4.01600	3357
4.01667	3359
4.01733	3361
4.01800	3362
4.01867	3364
4.01933	3366
4.02000	3368
4.02067	3369
4.02133	3371
4.02200	3373
4.02267	3375
4.02333	3377
4.02400	3379
4.02467	3382
4.02533	3384
4.02600	3386
4.02667	3388
4.02733	3391
4.02800	3393
4.02867	3396
4.02933	3398
4.03000	3401
4.03067	3403
4.03133	3406
4.03200	3409
4.03267	3412
4.03333	3415
4.03400	3418
4.03467	3421
4.03533	3424
4.03600	3428
4.03667	3431
4.03733	3434
4.03800	3438
4.03867	3441
4.03933	3445
4.04000	3448
4.04067	3452
4.04133	3456
4.04200	3459
4.04267	3463
4.04333	3467
4.04400	3470
4.04467	3474
4.04533	3478
4.04600	3482
4.04667	3486
4.04733	3490
4.04800	3494
4.04867	3498
4.04933	3502
4.05000	3506
4.05067	3510
4.05133	3515
4.05200	3519
4.05267	3523
4.05333	3527
4.05400	3532
4.05467	3536
4.05533	3540
4.05600	3545
4.05667	3549
4.05733	3554
4.05800	3559
4.05867	3563
4.05933	3568
4.06000	3572
4.06067	3577
4.06133	3582
4.06200	3586
4.06267	3591
4.06333	3596
4.06400	3601
4.06467	3605
4.06533	3610
4.06600	3615
4.06667	3620
4.06733	3625
4.06800	3630
4.06867	3634
4.06933	3639
4.07000	3644
4.07067	3649
4.07133	3653
4.07200	3658
4.07267	3663
4.07333	3668
4.07400	3672
4.07467	3677
4.07533	3682
4.07600	3687
4.07667	3692
4.07733	3696
4.07800	3701
4.07867	3706
4.07933	3711
4.08000	3716
4.08067	3720
4.08133	3725
4.08200	3730
4.08267	3735
4.08333	3739
4.08400	3744
4.08467	3749
4.08533	3753
4.08600	3758
4.08667	3763
4.08733	3767
4.08800	3772
4.08867	3777
4.08933	3781
4.09000	3786
4.09067	3791
4.09133	3795
4.09200	3800
4.09267	3804
4.09333	3809
4.09400	3813
4.09467	3818
4.09533	3822
4.09600	3827
4.09667	3831
4.09733	3835
4.09800	3840
4.09867	3844
4.09933	3848
4.10000	3852
4.10067	3856
4.10133	3860
4.10200	3864
4.10267	3868
4.10333	3872
4.10400	3876
4.10467	3880
4.10533	3884
4.10600	3888
4.10667	3892
4.10733	3895
4.10800	3899
4.10867	3903
4.10933	3906
4.11000	3910
4.11067	3914
4.11133	3917
4.11200	3920
4.11267	3924
4.11333	3927
4.11400	3930
4.11467	3933
4.11533	3936
4.11600	3939
4.11667	3942
4.11733	3944
4.11800	3947
4.11867	3950
4.11933	3952
4.12000	3955
4.12067	3957
4.12133	3959
4.12200	3962
4.12267	3964
4.12333	3966
4.12400	3968
4.12467	3970
4.12533	3971
4.12600	3973
4.12667	3975
4.12733	3976
4.12800	3978
4.12867	3979
4.12933	3980
4.13000	3982
4.13067	3983
4.13133	3984
4.13200	3985
4.13267	3986
4.13333	3987
4.13400	3987
4.13467	3988
4.13533	3989
4.13600	3989
4.13667	3990
4.13733	3990
4.13800	3990
4.13867	3991
4.13933	3991
4.14000	3991
4.14067	3991
4.14133	3991
4.14200	3991
4.14267	3990
4.14333	3990
4.14400	3990
4.14467	3989
4.14533	3989
4.14600	3989
4.14667	3988
4.14733	3987
4.14800	3987
4.14867	3986
4.14933	3985
4.15000	3985
4.15067	3984
4.15133	3983
4.15200	3982
4.15267	3981
4.15333	3980
4.15400	3979
4.15467	3978
4.15533	3977
4.15600	3976
4.15667	3975
4.15733	3973
4.15800	3972
4.15867	3971
4.15933	3970
4.16000	3969
4.16067	3968
4.16133	3967
4.16200	3966
4.16267	3965
4.16333	3964
4.16400	3963
4.16467	3962
4.16533	3962
4.16600	3961
4.16667	3960
4.16733	3959
4.16800	3959
4.16867	3958
4.16933	3957
4.17000	3957
4.17067	3956
4.17133	3956
4.17200	3956
4.17267	3955
4.17333	3955
4.17400	3955
4.17467	3955
4.17533	3955
4.17600	3955
4.17667	3956
4.17733	3956
4.17800	3956
4.17867	3957
4.17933	3957
4.18000	3958
4.18067	3959
4.18133	3960
4.18200	3961
4.18267	3962
4.18333	3964
4.18400	3965
4.18467	3967
4.18533	3969
4.18600	3971
4.18667	3973
4.18733	3975
4.18800	3978
4.18867	3980
4.18933	3983
4.19000	3986
4.19067	3989
4.19133	3993
4.19200	3996
4.19267	4000
4.19333	4003
4.19400	4007
4.19467	4011
4.19533	4016
4.19600	4020
4.19667	4025
4.19733	4030
4.19800	4035
4.19867	4040
4.19933	4046
4.20000	4052
4.20067	4058
4.20133	4064
4.20200	4071
4.20267	4078
4.20333	4085
4.20400	4092
4.20467	4100
4.20533	4108
4.20600	4117
4.20667	4126
4.20733	4135
4.20800	4144
4.20867	4154
4.20933	4164
4.21000	4174
4.21067	4185
4.21133	4196
4.21200	4208
4.21267	4220
4.21333	4233
4.21400	4245
4.21467	4259
4.21533	4272
4.21600	4286
4.21667	4301
4.21733	4316
4.21800	4331
4.21867	4347
4.21933	4363
4.22000	4380
4.22067	4397
4.22133	4415
4.22200	4433
4.22267	4452
4.22333	4471
4.22400	4490
4.22467	4510
4.22533	4531
4.22600	4552
4.22667	4574
4.22733	4596
4.22800	4619
4.22867	4643
4.22933	4667
4.23000	4692
4.23067	4717
4.23133	4743
4.23200	4770
4.23267	4797
4.23333	4825
4.23400	4854
4.23467	4884
4.23533	4914
4.23600	4945
4.23667	4976
4.23733	5008
4.23800	5041
4.23867	5075
4.23933	5109
4.24000	5144
4.24067	5179
4.24133	5215
4.24200	5252
4.24267	5290
4.24333	5328
4.24400	5368
4.24467	5408
4.24533	5448
4.24600	5489
4.24667	5531
4.24733	5574
4.24800	5618
4.24867	5662
4.24933	5707
4.25000	5752
4.25067	5799
4.25133	5846
4.25200	5893
4.25267	5942
4.25333	5991
4.25400	6041
4.25467	6091
4.25533	6142
4.25600	6193
4.25667	6245
4.25733	6298
4.25800	6351
4.25867	6405
4.25933	6459
4.26000	6514
4.26067	6570
4.26133	6626
4.26200	6682
4.26267	6739
4.26333	6796
4.26400	6854
4.26467	6912
4.26533	6970
4.26600	7029
4.26667	7088
4.26733	7147
4.26800	7207
4.26867	7267
4.26933	7327
4.27000	7388
4.27067	7448
4.27133	7509
4.27200	7569
4.27267	7630
4.27333	7691
4.27400	7752
4.27467	7814
4.27533	7875
4.27600	7936
4.27667	7997
4.27733	8058
4.27800	8120
4.27867	8181
4.27933	8242
4.28000	8303
4.28067	8364
4.28133	8425
4.28200	8487
4.28267	8547
4.28333	8608
4.28400	8669
4.28467	8730
4.28533	8790
4.28600	8850
4.28667	8910
4.28733	8970
4.28800	9029
4.28867	9088
4.28933	9146
4.29000	9204
4.29067	9262
4.29133	9319
4.29200	9376
4.29267	9433
4.29333	9489
4.29400	9544
4.29467	9599
4.29533	9654
4.29600	9708
4.29667	9761
4.29733	9814
4.29800	9867
4.29867	9918
4.29933	9970
4.30000	10021
4.30067	10071
4.30133	10120
4.30200	10169
4.30267	10218
4.30333	10266
4.30400	10313
4.30467	10359
4.30533	10405
4.30600	10450
4.30667	10494
4.30733	10538
4.30800	10581
4.30867	10623
4.30933	10664
4.31000	10705
4.31067	10745
4.31133	10784
4.31200	10822
4.31267	10859
4.31333	10896
4.31400	10931
4.31467	10966
4.31533	11000
4.31600	11034
4.31667	11066
4.31733	11098
4.31800	11129
4.31867	11159
4.31933	11188
4.32000	11216
4.32067	11243
4.32133	11270
4.32200	11295
4.32267	11319
4.32333	11343
4.32400	11366
4.32467	11387
4.32533	11408
4.32600	11427
4.32667	11446
4.32733	11463
4.32800	11480
4.32867	11495
4.32933	11509
4.33000	11522
4.33067	11534
4.33133	11545
4.33200	11555
4.33267	11563
4.33333	11570
4.33400	11576
4.33467	11581
4.33533	11585
4.33600	11587
4.33667	11588
4.33733	11588
4.33800	11587
4.33867	11585
4.33933	11581
4.34000	11577
4.34067	11571
4.34133	11564
4.34200	11556
4.34267	11546
4.34333	11535
4.34400	11524
4.34467	11511
4.34533	11496
4.34600	11481
4.34667	11465
4.34733	11447
4.34800	11429
4.34867	11409
4.34933	11389
4.35000	11367
4.35067	11345
4.35133	11321
4.35200	11296
4.35267	11271
4.35333	11244
4.35400	11217
4.35467	11188
4.35533	11159
4.35600	11129
4.35667	11099
4.35733	11067
4.35800	11035
4.35867	11002
4.35933	10968
4.36000	10933
4.36067	10898
4.36133	10862
4.36200	10825
4.36267	10788
4.36333	10750
4.36400	10712
4.36467	10672
4.36533	10633
4.36600	10592
4.36667	10552
4.36733	10510
4.36800	10469
4.36867	10427
4.36933	10384
4.37000	10341
4.37067	10298
4.37133	10254
4.37200	10210
4.37267	10166
4.37333	10122
4.37400	10077
4.37467	10032
4.37533	9988
4.37600	9942
4.37667	9897
4.37733	9852
4.37800	9807
4.37867	9761
4.37933	9716
4.38000	9671
4.38067	9626
4.38133	9580
4.38200	9535
4.38267	9490
4.38333	9445
4.38400	9400
4.38467	9356
4.38533	9311
4.38600	9267
4.38667	9223
4.38733	9180
4.38800	9136
4.38867	9093
4.38933	9050
4.39000	9008
4.39067	8966
4.39133	8924
4.39200	8883
4.39267	8842
4.39333	8802
4.39400	8762
4.39467	8722
4.39533	8683
4.39600	8644
4.39667	8605
4.39733	8567
4.39800	8530
4.39867	8493
4.39933	8456
4.40000	8420
4.40067	8384
4.40133	8348
4.40200	8313
4.40267	8279
4.40333	8244
4.40400	8211
4.40467	8177
4.40533	8144
4.40600	8112
4.40667	8080
4.40733	8048
4.40800	8017
4.40867	7987
4.40933	7957
4.41000	7927
4.41067	7898
4.41133	7869
4.41200	7841
4.41267	7813
4.41333	7786
4.41400	7759
4.41467	7732
4.41533	7707
4.41600	7681
4.41667	7656
4.41733	7632
4.41800	7608
4.41867	7584
4.41933	7561
4.42000	7539
4.42067	7517
4.42133	7495
4.42200	7474
4.42267	7453
4.42333	7432
4.42400	7412
4.42467	7392
4.42533	7373
4.42600	7354
4.42667	7336
4.42733	7318
4.42800	7300
4.42867	7283
4.42933	7266
4.43000	7250
4.43067	7234
4.43133	7218
4.43200	7203
4.43267	7188
4.43333	7173
4.43400	7159
4.43467	7145
4.43533	7132
4.43600	7119
4.43667	7106
4.43733	7093
4.43800	7081
4.43867	7069
4.43933	7057
4.44000	7045
4.44067	7034
4.44133	7023
4.44200	7013
4.44267	7002
4.44333	6992
4.44400	6982
4.44467	6973
4.44533	6963
4.44600	6954
4.44667	6945
4.44733	6937
4.44800	6928
4.44867	6920
4.44933	6911
4.45000	6903
4.45067	6896
4.45133	6888
4.45200	6880
4.45267	6873
4.45333	6866
4.45400	6859
4.45467	6852
4.45533	6846
4.45600	6839
4.45667	6833
4.45733	6827
4.45800	6822
4.45867	6816
4.45933	6811
4.46000	6806
4.46067	6801
4.46133	6796
4.46200	6792
4.46267	6787
4.46333	6783
4.46400	6779
4.46467	6776
4.46533	6772
4.46600	6768
4.46667	6765
4.46733	6762
4.46800	6759
4.46867	6756
4.46933	6753
4.47000	6750
4.47067	6748
4.47133	6746
4.47200	6743
4.47267	6741
4.47333	6739
4.47400	6738
4.47467	6736
4.47533	6734
4.47600	6733
4.47667	6732
4.47733	6730
4.47800	6729
4.47867	6728
4.47933	6728
4.48000	6727
4.48067	6726
4.48133	6725
4.48200	6725
4.48267	6724
4.48333	6724
4.48400	6723
4.48467	6723
4.48533	6723
4.48600	6723
4.48667	6722
4.48733	6722
4.48800	6722
4.48867	6722
4.48933	6722
4.49000	6722
4.49067	6722
4.49133	6722
4.49200	6722
4.49267	6723
4.49333	6723
4.49400	6723
4.49467	6723
4.49533	6724
4.49600	6724
4.49667	6725
4.49733	6725
4.49800	6726
4.49867	6727
4.49933	6727
4.50000	6728
4.50067	6729
4.50133	6730
4.50200	6731
4.50267	6732
4.50333	6733
4.50400	6734
4.50467	6735
4.50533	6736
4.50600	6737
4.50667	6738
4.50733	6739
4.50800	6741
4.50867	6742
4.50933	6743
4.51000	6745
4.51067	6746
4.51133	6748
4.51200	6749
4.51267	6751
4.51333	6753
4.51400	6755
4.51467	6756
4.51533	6758
4.51600	6761
4.51667	6763
4.51733	6765
4.51800	6768
4.51867	6770
4.51933	6773
4.52000	6776
4.52067	6779
4.52133	6782
4.52200	6785
4.52267	6789
4.52333	6793
4.52400	6797
4.52467	6801
4.52533	6806
4.52600	6811
4.52667	6816
4.52733	6822
4.52800	6827
4.52867	6834
4.52933	6840
4.53000	6847
4.53067	6854
4.53133	6862
4.53200	6870
4.53267	6879
4.53333	6888
4.53400	6897
4.53467	6907
4.53533	6917
4.53600	6927
4.53667	6938
4.53733	6950
4.53800	6961
4.53867	6974
4.53933	6987
4.54000	7000
4.54067	7014
4.54133	7028
4.54200	7043
4.54267	7059
4.54333	7075
4.54400	7091
4.54467	7108
4.54533	7126
4.54600	7144
4.54667	7163
4.54733	7182
4.54800	7202
4.54867	7223
4.54933	7244
4.55000	7266
4.55067	7289
4.55133	7312
4.55200	7336
4.55267	7360
4.55333	7385
4.55400	7411
4.55467	7437
4.55533	7464
4.55600	7491
4.55667	7519
4.55733	7548
4.55800	7577
4.55867	7607
4.55933	7637
4.56000	7668
4.56067	7699
4.56133	7731
4.56200	7764
4.56267	7797
4.56333	7830
4.56400	7864
4.56467	7899
4.56533	7934
4.56600	7969
4.56667	8005
4.56733	8041
4.56800	8077
4.56867	8114
4.56933	8151
4.57000	8188
4.57067	8226
4.57133	8264
4.57200	8302
4.57267	8341
4.57333	8380
4.57400	8420
4.57467	8460
4.57533	8499
4.57600	8540
4.57667	8580
4.57733	8620
4.57800	8661
4.57867	8702
4.57933	8742
4.58000	8783
4.58067	8824
4.58133	8864
4.58200	8905
4.58267	8945
4.58333	8986
4.58400	9026
4.58467	9066
4.58533	9106
4.58600	9145
4.58667	9185
4.58733	9224
4.58800	9263
4.58867	9302
4.58933	9340
4.59000	9379
4.59067	9417
4.59133	9454
4.59200	9491
4.59267	9528
4.59333	9565
4.59400	9601
4.59467	9636
4.59533	9672
4.59600	9706
4.59667	9740
4.59733	9774
4.59800	9807
4.59867	9839
4.59933	9871
4.60000	9903
4.60067	9933
4.60133	9964
4.60200	9993
4.60267	10022
4.60333	10050
4.60400	10078
4.60467	10105
4.60533	10131
4.60600	10156
4.60667	10181
4.60733	10205
4.60800	10229
4.60867	10251
4.60933	10273
4.61000	10295
4.61067	10315
4.61133	10335
4.61200	10354
4.61267	10372
4.61333	10390
4.61400	10407
4.61467	10423
4.61533	10438
4.61600	10453
4.61667	10466
4.61733	10479
4.61800	10491
4.61867	10502
4.61933	10513
4.62000	10522
4.62067	10531
4.62133	10539
4.62200	10546
4.62267	10552
4.62333	10558
4.62400	10563
4.62467	10567
4.62533	10570
4.62600	10573
4.62667	10574
4.62733	10575
4.62800	10576
4.62867	10576
4.62933	10575
4.63000	10573
4.63067	10571
4.63133	10568
4.63200	10564
4.63267	10560
4.63333	10555
4.63400	10549
4.63467	10543
4.63533	10536
4.63600	10529
4.63667	10521
4.63733	10513
4.63800	10504
4.63867	10494
4.63933	10484
4.64000	10474
4.64067	10463
4.64133	10452
4.64200	10440
4.64267	10428
4.64333	10416
4.64400	10403
4.64467	10390
4.64533	10377
4.64600	10363
4.64667	10349
4.64733	10335
4.64800	10320
4.64867	10305
4.64933	10290
4.65000	10275
4.65067	10259
4.65133	10243
4.65200	10227
4.65267	10211
4.65333	10194
4.65400	10178
4.65467	10161
4.65533	10144
4.65600	10127
4.65667	10110
4.65733	10093
4.65800	10075
4.65867	10058
4.65933	10040
4.66000	10022
4.66067	10004
4.66133	9986
4.66200	9968
4.66267	9949
4.66333	9931
4.66400	9912
4.66467	9894
4.66533	9875
4.66600	9857
4.66667	9838
4.66733	9819
4.66800	9800
4.66867	9781
4.66933	9762
4.67000	9743
4.67067	9724
4.67133	9705
4.67200	9685
4.67267	9666
4.67333	9646
4.67400	9626
4.67467	9607
4.67533	9587
4.67600	9568
4.67667	9548
4.67733	9528
4.67800	9509
4.67867	9489
4.67933	9470
4.68000	9450
4.68067	9431
4.68133	9412
4.68200	9393
4.68267	9374
4.68333	9355
4.68400	9336
4.68467	9317
4.68533	9298
4.68600	9279
4.68667	9261
4.68733	9242
4.68800	9224
4.68867	9205
4.68933	9187
4.69000	9169
4.69067	9151
4.69133	9133
4.69200	9115
4.69267	9098
4.69333	9080
4.69400	9063
4.69467	9045
4.69533	9028
4.69600	9011
4.69667	8994
4.69733	8977
4.69800	8960
4.69867	8944
4.69933	8927
4.70000	8911
4.70067	8894
4.70133	8878
4.70200	8862
4.70267	8845
4.70333	8829
4.70400	8813
4.70467	8798
4.70533	8782
4.70600	8766
4.70667	8751
4.70733	8736
4.70800	8720
4.70867	8705
4.70933	8690
4.71000	8676
4.71067	8661
4.71133	8646
4.71200	8632
4.71267	8618
4.71333	8604
4.71400	8590
4.71467	8576
4.71533	8562
4.71600	8549
4.71667	8535
4.71733	8522
4.71800	8509
4.71867	8496
4.71933	8483
4.72000	8470
4.72067	8458
4.72133	8445
4.72200	8433
4.72267	8421
4.72333	8408
4.72400	8396
4.72467	8384
4.72533	8372
4.72600	8361
4.72667	8349
4.72733	8337
4.72800	8326
4.72867	8314
4.72933	8303
4.73000	8292
4.73067	8281
4.73133	8270
4.73200	8259
4.73267	8248
4.73333	8237
4.73400	8226
4.73467	8216
4.73533	8205
4.73600	8195
4.73667	8184
4.73733	8174
4.73800	8164
4.73867	8153
4.73933	8143
4.74000	8133
4.74067	8123
4.74133	8113
4.74200	8103
4.74267	8094
4.74333	8084
4.74400	8074
4.74467	8065
4.74533	8056
4.74600	8046
4.74667	8037
4.74733	8028
4.74800	8019
4.74867	8010
4.74933	8002
4.75000	7993
4.75067	7984
4.75133	7976
4.75200	7967
4.75267	7959
4.75333	7951
4.75400	7943
4.75467	7934
4.75533	7926
4.75600	7919
4.75667	7911
4.75733	7903
4.75800	7895
4.75867	7888
4.75933	7880
4.76000	7873
4.76067	7865
4.76133	7858
4.76200	7850
4.76267	7843
4.76333	7836
4.76400	7829
4.76467	7822
4.76533	7815
4.76600	7808
4.76667	7801
4.76733	7794
4.76800	7787
4.76867	7781
4.76933	7774
4.77000	7768
4.77067	7761
4.77133	7755
4.77200	7749
4.77267	7742
4.77333	7736
4.77400	7730
4.77467	7724
4.77533	7718
4.77600	7712
4.77667	7706
4.77733	7700
4.77800	7694
4.77867	7688
4.77933	7682
4.78000	7676
4.78067	7670
4.78133	7665
4.78200	7659
4.78267	7653
4.78333	7647
4.78400	7641
4.78467	7636
4.78533	7630
4.78600	7624
4.78667	7618
4.78733	7613
4.78800	7607
4.78867	7601
4.78933	7595
4.79000	7590
4.79067	7584
4.79133	7579
4.79200	7573
4.79267	7568
4.79333	7562
4.79400	7557
4.79467	7551
4.79533	7546
4.79600	7540
4.79667	7535
4.79733	7530
4.79800	7524
4.79867	7519
4.79933	7514
4.80000	7508
4.80067	7503
4.80133	7498
4.80200	7492
4.80267	7487
4.80333	7482
4.80400	7476
4.80467	7471
4.80533	7466
4.80600	7460
4.80667	7455
4.80733	7450
4.80800	7444
4.80867	7439
4.80933	7433
4.81000	7428
4.81067	7423
4.81133	7417
4.81200	7412
4.81267	7406
4.81333	7400
4.81400	7395
4.81467	7389
4.81533	7384
4.81600	7378
4.81667	7373
4.81733	7367
4.81800	7361
4.81867	7356
4.81933	7350
4.82000	7344
4.82067	7339
4.82133	7333
4.82200	7327
4.82267	7322
4.82333	7316
4.82400	7311
4.82467	7305
4.82533	7299
4.82600	7294
4.82667	7289
4.82733	7283
4.82800	7278
4.82867	7272
4.82933	7267
4.83000	7262
4.83067	7257
4.83133	7251
4.83200	7246
4.83267	7241
4.83333	7236
4.83400	7231
4.83467	7226
4.83533	7221
4.83600	7216
4.83667	7211
4.83733	7206
4.83800	7201
4.83867	7196
4.83933	7191
4.84000	7186
4.84067	7181
4.84133	7176
4.84200	7171
4.84267	7166
4.84333	7161
4.84400	7156
4.84467	7151
4.84533	7147
4.84600	7142
4.84667	7137
4.84733	7132
4.84800	7127
4.84867	7122
4.84933	7117
4.85000	7113
4.85067	7108
4.85133	7103
4.85200	7098
4.85267	7093
4.85333	7089
4.85400	7084
4.85467	7079
4.85533	7075
4.85600	7070
4.85667	7065
4.85733	7061
4.85800	7056
4.85867	7052
4.85933	7047
4.86000	7043
4.86067	7039
4.86133	7034
4.86200	7030
4.86267	7026
4.86333	7021
4.86400	7017
4.86467	7013
4.86533	7008
4.86600	7004
4.86667	7000
4.86733	6996
4.86800	6992
4.86867	6988
4.86933	6984
4.87000	6980
4.87067	6976
4.87133	6972
4.87200	6968
4.87267	6964
4.87333	6960
4.87400	6956
4.87467	6952
4.87533	6948
4.87600	6944
4.87667	6940
4.87733	6936
4.87800	6931
4.87867	6927
4.87933	6923
4.88000	6919
4.88067	6915
4.88133	6911
4.88200	6907
4.88267	6902
4.88333	6898
4.88400	6894
4.88467	6890
4.88533	6885
4.88600	6881
4.88667	6877
4.88733	6872
4.88800	6868
4.88867	6864
4.88933	6859
4.89000	6855
4.89067	6850
4.89133	6846
4.89200	6841
4.89267	6837
4.89333	6833
4.89400	6828
4.89467	6824
4.89533	6820
4.89600	6815
4.89667	6811
4.89733	6807
4.89800	6802
4.89867	6798
4.89933	6793
4.90000	6789
4.90067	6785
4.90133	6780
4.90200	6776
4.90267	6771
4.90333	6767
4.90400	6762
4.90467	6758
4.90533	6754
4.90600	6749
4.90667	6745
4.90733	6741
4.90800	6736
4.90867	6732
4.90933	6728
4.91000	6723
4.91067	6719
4.91133	6715
4.91200	6711
4.91267	6707
4.91333	6703
4.91400	6699
4.91467	6695
4.91533	6691
4.91600	6687
4.91667	6683
4.91733	6679
4.91800	6675
4.91867	6671
4.91933	6667
4.92000	6664
4.92067	6660
4.92133	6656
4.92200	6653
4.92267	6649
4.92333	6645
4.92400	6642
4.92467	6638
4.92533	6635
4.92600	6631
4.92667	6628
4.92733	6624
4.92800	6621
4.92867	6617
4.92933	6614
4.93000	6611
4.93067	6608
4.93133	6604
4.93200	6601
4.93267	6598
4.93333	6595
4.93400	6592
4.93467	6589
4.93533	6586
4.93600	6583
4.93667	6580
4.93733	6577
4.93800	6574
4.93867	6571
4.93933	6569
4.94000	6566
4.94067	6563
4.94133	6561
4.94200	6558
4.94267	6555
4.94333	6553
4.94400	6550
4.94467	6548
4.94533	6545
4.94600	6543
4.94667	6540
4.94733	6538
4.94800	6536
4.94867	6533
4.94933	6531
4.95000	6529
4.95067	6526
4.95133	6524
4.95200	6522
4.95267	6520
4.95333	6518
4.95400	6516
4.95467	6514
4.95533	6512
4.95600	6510
4.95667	6508
4.95733	6506
4.95800	6504
4.95867	6502
4.95933	6500
4.96000	6498
4.96067	6496
4.96133	6494
4.96200	6492
4.96267	6490
4.96333	6488
4.96400	6486
4.96467	6483
4.96533	6481
4.96600	6479
4.96667	6477
4.96733	6475
4.96800	6473
4.96867	6471
4.96933	6469
4.97000	6467
4.97067	6465
4.97133	6463
4.97200	6461
4.97267	6459
4.97333	6456
4.97400	6454
4.97467	6452
4.97533	6450
4.97600	6448
4.97667	6445
4.97733	6443
4.97800	6441
4.97867	6439
4.97933	6436
4.98000	6434
4.98067	6432
4.98133	6429
4.98200	6427
4.98267	6425
4.98333	6422
4.98400	6420
4.98467	6418
4.98533	6415
4.98600	6413
4.98667	6410
4.98733	6408
4.98800	6405
4.98867	6402
4.98933	6400
4.99000	6397
4.99067	6394
4.99133	6392
4.99200	6389
4.99267	6386
4.99333	6383
4.99400	6380
4.99467	6378
4.99533	6375
4.99600	6372
4.99667	6369
4.99733	6366
4.99800	6363
4.99867	6360
4.99933	6358
5.00000	6355
5.00067	6352
5.00133	6349
5.00200	6346
5.00267	6343
5.00333	6340
5.00400	6337
5.00467	6335
5.00533	6332
5.00600	6329
5.00667	6326
5.00733	6323
5.00800	6320
5.00867	6317
5.00933	6314
5.01000	6312
5.01067	6309
5.01133	6306
5.01200	6303
5.01267	6301
5.01333	6298
5.01400	6295
5.01467	6293
5.01533	6290
5.01600	6288
5.01667	6285
5.01733	6282
5.01800	6280
5.01867	6277
5.01933	6274
5.02000	6272
5.02067	6269
5.02133	6266
5.02200	6263
5.02267	6261
5.02333	6258
5.02400	6255
5.02467	6252
5.02533	6250
5.02600	6247
5.02667	6244
5.02733	6241
5.02800	6239
5.02867	6236
5.02933	6233
5.03000	6231
5.03067	6228
5.03133	6225
5.03200	6223
5.03267	6220
5.03333	6217
5.03400	6215
5.03467	6212
5.03533	6209
5.03600	6206
5.03667	6204
5.03733	6201
5.03800	6198
5.03867	6195
5.03933	6193
5.04000	6190
5.04067	6187
5.04133	6184
5.04200	6182
5.04267	6179
5.04333	6176
5.04400	6174
5.04467	6171
5.04533	6168
5.04600	6165
5.04667	6163
5.04733	6160
5.04800	6157
5.04867	6155
5.04933	6152
5.05000	6150
5.05067	6147
5.05133	6144
5.05200	6142
5.05267	6139
5.05333	6137
5.05400	6134
5.05467	6132
5.05533	6129
5.05600	6127
5.05667	6124
5.05733	6122
5.05800	6119
5.05867	6117
5.05933	6114
5.06000	6111
5.06067	6109
5.06133	6106
5.06200	6104
5.06267	6101
5.06333	6098
5.06400	6096
5.06467	6093
5.06533	6090
5.06600	6088
5.06667	6085
5.06733	6083
5.06800	6080
5.06867	6078
5.06933	6075
5.07000	6073
5.07067	6070
5.07133	6068
5.07200	6065
5.07267	6063
5.07333	6061
5.07400	6058
5.07467	6056
5.07533	6054
5.07600	6051
5.07667	6049
5.07733	6047
5.07800	6045
5.07867	6042
5.07933	6040
5.08000	6038
5.08067	6035
5.08133	6033
5.08200	6030
5.08267	6028
5.08333	6026
5.08400	6023
5.08467	6021
5.08533	6018
5.08600	6016
5.08667	6013
5.08733	6011
5.08800	6008
5.08867	6006
5.08933	6003
5.09000	6001
5.09067	5998
5.09133	5996
5.09200	5993
5.09267	5991
5.09333	5988
5.09400	5986
5.09467	5984
5.09533	5981
5.09600	5979
5.09667	5977
5.09733	5974
5.09800	5972
5.09867	5970
5.09933	5968
5.10000	5966
5.10067	5964
5.10133	5961
5.10200	5959
5.10267	5957
5.10333	5955
5.10400	5954
5.10467	5952
5.10533	5950
5.10600	5948
5.10667	5947
5.10733	5945
5.10800	5944
5.10867	5942
5.10933	5941
5.11000	5940
5.11067	5938
5.11133	5937
5.11200	5936
5.11267	5935
5.11333	5933
5.11400	5932
5.11467	5931
5.11533	5930
5.11600	5930
5.11667	5929
5.11733	5928
5.11800	5927
5.11867	5927
5.11933	5926
5.12000	5925
5.12067	5925
5.12133	5924
5.12200	5923
5.12267	5923
5.12333	5922
5.12400	5922
5.12467	5921
5.12533	5921
5.12600	5921
5.12667	5920
5.12733	5920
5.12800	5920
5.12867	5920
5.12933	5920
5.13000	5920
5.13067	5920
5.13133	5920
5.13200	5920
5.13267	5921
5.13333	5921
5.13400	5922
5.13467	5922
5.13533	5923
5.13600	5923
5.13667	5924
5.13733	5925
5.13800	5926
5.13867	5927
5.13933	5928
5.14000	5929
5.14067	5930
5.14133	5931
5.14200	5933
5.14267	5934
5.14333	5936
5.14400	5937
5.14467	5939
5.14533	5941
5.14600	5943
5.14667	5944
5.14733	5946
5.14800	5948
5.14867	5951
5.14933	5953
5.15000	5955
5.15067	5957
5.15133	5960
5.15200	5962
5.15267	5965
5.15333	5967
5.15400	5970
5.15467	5973
5.15533	5976
5.15600	5979
5.15667	5982
5.15733	5985
5.15800	5989
5.15867	5992
5.15933	5996
5.16000	5999
5.16067	6003
5.16133	6007
5.16200	6011
5.16267	6015
5.16333	6019
5.16400	6024
5.16467	6028
5.16533	6032
5.16600	6037
5.16667	6042
5.16733	6047
5.16800	6052
5.16867	6057
5.16933	6062
5.17000	6067
5.17067	6073
5.17133	6078
5.17200	6084
5.17267	6090
5.17333	6096
5.17400	6102
5.17467	6108
5.17533	6114
5.17600	6120
5.17667	6127
5.17733	6133
5.17800	6140
5.17867	6147
5.17933	6154
5.18000	6161
5.18067	6167
5.18133	6174
5.18200	6181
5.18267	6189
5.18333	6196
5.18400	6203
5.18467	6210
5.18533	6217
5.18600	6225
5.18667	6232
5.18733	6239
5.18800	6246
5.18867	6254
5.18933	6261
5.19000	6268
5.19067	6276
5.19133	6283
5.19200	6290
5.19267	6298
5.19333	6305
5.19400	6312
5.19467	6320
5.19533	6327
5.19600	6334
5.19667	6341
5.19733	6348
5.19800	6356
5.19867	6363
5.19933	6370
5.20000	6377
5.20067	6384
5.20133	6391
5.20200	6398
5.20267	6405
5.20333	6412
5.20400	6419
5.20467	6426
5.20533	6433
5.20600	6440
5.20667	6447
5.20733	6453
5.20800	6460
5.20867	6466
5.20933	6473
5.21000	6479
5.21067	6486
5.21133	6492
5.21200	6498
5.21267	6505
5.21333	6511
5.21400	6517
5.21467	6523
5.21533	6528
5.21600	6534
5.21667	6540
5.21733	6545
5.21800	6551
5.21867	6556
5.21933	6561
5.22000	6566
5.22067	6571
5.22133	6576
5.22200	6580
5.22267	6585
5.22333	6589
5.22400	6593
5.22467	6597
5.22533	6601
5.22600	6605
5.22667	6608
5.22733	6611
5.22800	6614
5.22867	6617
5.22933	6620
5.23000	6623
5.23067	6625
5.23133	6627
5.23200	6629
5.23267	6631
5.23333	6633
5.23400	6634
5.23467	6635
5.23533	6636
5.23600	6637
5.23667	6638
5.23733	6639
5.23800	6639
5.23867	6639
5.23933	6639
5.24000	6639
5.24067	6639
5.24133	6639
5.24200	6638
5.24267	6637
5.24333	6636
5.24400	6635
5.24467	6634
5.24533	6633
5.24600	6631
5.24667	6630
5.24733	6628
5.24800	6626
5.24867	6624
5.24933	6622
5.25000	6619
5.25067	6617
5.25133	6614
5.25200	6611
5.25267	6608
5.25333	6605
5.25400	6602
5.25467	6599
5.25533	6596
5.25600	6592
5.25667	6589
5.25733	6585
5.25800	6582
5.25867	6578
5.25933	6574
5.26000	6570
5.26067	6566
5.26133	6561
5.26200	6557
5.26267	6553
5.26333	6549
5.26400	6544
5.26467	6540
5.26533	6535
5.26600	6530
5.26667	6526
5.26733	6521
5.26800	6516
5.26867	6511
5.26933	6506
5.27000	6501
5.27067	6496
5.27133	6491
5.27200	6486
5.27267	6480
5.27333	6475
5.27400	6470
5.27467	6464
5.27533	6459
5.27600	6454
5.27667	6448
5.27733	6443
5.27800	6437
5.27867	6431
5.27933	6426
5.28000	6420
5.28067	6415
5.28133	6409
5.28200	6403
5.28267	6398
5.28333	6392
5.28400	6386
5.28467	6380
5.28533	6375
5.28600	6369
5.28667	6363
5.28733	6357
5.28800	6351
5.28867	6346
5.28933	6340
5.29000	6334
5.29067	6328
5.29133	6322
5.29200	6316
5.29267	6311
5.29333	6305
5.29400	6299
5.29467	6293
5.29533	6287
5.29600	6281
5.29667	6276
5.29733	6270
5.29800	6264
5.29867	6258
5.29933	6252
5.30000	6247
5.30067	6241
5.30133	6235
5.30200	6230
5.30267	6224
5.30333	6218
5.30400	6213
5.30467	6207
5.30533	6202
5.30600	6196
5.30667	6191
5.30733	6185
5.30800	6180
5.30867	6174
5.30933	6169
5.31000	6163
5.31067	6158
5.31133	6153
5.31200	6147
5.31267	6142
5.31333	6137
5.31400	6131
5.31467	6126
5.31533	6121
5.31600	6116
5.31667	6111
5.31733	6106
5.31800	6101
5.31867	6096
5.31933	6091
5.32000	6086
5.32067	6081
5.32133	6076
5.32200	6071
5.32267	6066
5.32333	6061
5.32400	6057
5.32467	6052
5.32533	6047
5.32600	6042
5.32667	6038
5.32733	6033
5.32800	6029
5.32867	6024
5.32933	6019
5.33000	6015
5.33067	6010
5.33133	6006
5.33200	6002
5.33267	5997
5.33333	5993
5.33400	5989
5.33467	5985
5.33533	5981
5.33600	5977
5.33667	5973
5.33733	5969
5.33800	5965
5.33867	5961
5.33933	5957
5.34000	5953
5.34067	5949
5.34133	5945
5.34200	5942
5.34267	5938
5.34333	5935
5.34400	5931
5.34467	5927
5.34533	5924
5.34600	5920
5.34667	5917
5.34733	5914
5.34800	5910
5.34867	5907
5.34933	5903
5.35000	5900
5.35067	5897
5.35133	5894
5.35200	5890
5.35267	5887
5.35333	5884
5.35400	5881
5.35467	5878
5.35533	5875
5.35600	5872
5.35667	5869
5.35733	5866
5.35800	5863
5.35867	5860
5.35933	5858
5.36000	5855
5.36067	5852
5.36133	5849
5.36200	5847
5.36267	5844
5.36333	5841
5.36400	5839
5.36467	5836
5.36533	5833
5.36600	5831
5.36667	5828
5.36733	5826
5.36800	5823
5.36867	5821
5.36933	5819
5.37000	5817
5.37067	5815
5.37133	5813
5.37200	5810
5.37267	5808
5.37333	5806
5.37400	5804
5.37467	5802
5.37533	5800
5.37600	5799
5.37667	5797
5.37733	5795
5.37800	5793
5.37867	5792
5.37933	5790
5.38000	5788
5.38067	5787
5.38133	5785
5.38200	5784
5.38267	5782
5.38333	5781
5.38400	5780
5.38467	5778
5.38533	5777
5.38600	5776
5.38667	5774
5.38733	5773
5.38800	5772
5.38867	5771
5.38933	5769
5.39000	5768
5.39067	5767
5.39133	5766
5.39200	5765
5.39267	5764
5.39333	5763
5.39400	5762
5.39467	5760
5.39533	5759
5.39600	5758
5.39667	5757
5.39733	5757
5.39800	5756
5.39867	5755
5.39933	5754
5.40000	5753
5.40067	5752
5.40133	5751
5.40200	5750
5.40267	5749
5.40333	5748
5.40400	5747
5.40467	5746
5.40533	5745
5.40600	5744
5.40667	5743
5.40733	5742
5.40800	5741
5.40867	5740
5.40933	5739
5.41000	5738
5.41067	5736
5.41133	5735
5.41200	5734
5.41267	5733
5.41333	5732
5.41400	5731
5.41467	5730
5.41533	5729
5.41600	5728
5.41667	5727
5.41733	5726
5.41800	5725
5.41867	5724
5.41933	5723
5.42000	5722
5.42067	5721
5.42133	5719
5.42200	5718
5.42267	5717
5.42333	5716
5.42400	5715
5.42467	5714
5.42533	5712
5.42600	5711
5.42667	5710
5.42733	5709
5.42800	5708
5.42867	5706
5.42933	5705
5.43000	5704
5.43067	5703
5.43133	5702
5.43200	5700
5.43267	5699
5.43333	5698
5.43400	5697
5.43467	5695
5.43533	5694
5.43600	5693
5.43667	5691
5.43733	5690
5.43800	5689
5.43867	5687
5.43933	5686
5.44000	5684
5.44067	5683
5.44133	5682
5.44200	5681
5.44267	5679
5.44333	5678
5.44400	5677
5.44467	5675
5.44533	5674
5.44600	5672
5.44667	5671
5.44733	5669
5.44800	5668
5.44867	5667
5.44933	5665
5.45000	5664
5.45067	5662
5.45133	5660
5.45200	5659
5.45267	5657
5.45333	5656
5.45400	5654
5.45467	5652
5.45533	5651
5.45600	5649
5.45667	5647
5.45733	5645
5.45800	5644
5.45867	5642
5.45933	5640
5.46000	5638
5.46067	5637
5.46133	5635
5.46200	5633
5.46267	5631
5.46333	5629
5.46400	5627
5.46467	5626
5.46533	5624
5.46600	5622
5.46667	5620
5.46733	5618
5.46800	5616
5.46867	5614
5.46933	5612
5.47000	5610
5.47067	5608
5.47133	5606
5.47200	5604
5.47267	5602
5.47333	5600
5.47400	5598
5.47467	5596
5.47533	5594
5.47600	5592
5.47667	5589
5.47733	5587
5.47800	5585
5.47867	5583
5.47933	5581
5.48000	5578
5.48067	5576
5.48133	5574
5.48200	5572
5.48267	5569
5.48333	5567
5.48400	5565
5.48467	5563
5.48533	5561
5.48600	5559
5.48667	5556
5.48733	5554
5.48800	5552
5.48867	5550
5.48933	5548
5.49000	5546
5.49067	5543
5.49133	5541
5.49200	5539
5.49267	5537
5.49333	5534
5.49400	5532
5.49467	5530
5.49533	5528
5.49600	5526
5.49667	5523
5.49733	5521
5.49800	5519
5.49867	5517
5.49933	5515
5.50000	5513
5.50067	5511
5.50133	5509
5.50200	5507
5.50267	5505
5.50333	5503
5.50400	5501
5.50467	5499
5.50533	5497
5.50600	5495
5.50667	5493
5.50733	5491
5.50800	5489
5.50867	5487
5.50933	5485
5.51000	5483
5.51067	5481
5.51133	5479
5.51200	5477
5.51267	5475
5.51333	5473
5.51400	5471
5.51467	5470
5.51533	5468
5.51600	5466
5.51667	5464
5.51733	5462
5.51800	5461
5.51867	5459
5.51933	5457
5.52000	5455
5.52067	5453
5.52133	5452
5.52200	5450
5.52267	5448
5.52333	5447
5.52400	5445
5.52467	5443
5.52533	5442
5.52600	5440
5.52667	5439
5.52733	5438
5.52800	5436
5.52867	5435
5.52933	5433
5.53000	5432
5.53067	5431
5.53133	5430
5.53200	5429
5.53267	5428
5.53333	5426
5.53400	5425
5.53467	5424
5.53533	5423
5.53600	5422
5.53667	5421
5.53733	5420
5.53800	5419
5.53867	5418
5.53933	5417
5.54000	5416
5.54067	5415
5.54133	5414
5.54200	5413
5.54267	5412
5.54333	5411
5.54400	5410
5.54467	5409
5.54533	5408
5.54600	5407
5.54667	5406
5.54733	5405
5.54800	5404
5.54867	5403
5.54933	5402
5.55000	5401
5.55067	5400
5.55133	5399
5.55200	5398
5.55267	5397
5.55333	5397
5.55400	5396
5.55467	5395
5.55533	5394
5.55600	5393
5.55667	5392
5.55733	5391
5.55800	5390
5.55867	5389
5.55933	5389
5.56000	5388
5.56067	5387
5.56133	5386
5.56200	5385
5.56267	5385
5.56333	5384
5.56400	5383
5.56467	5382
5.56533	5381
5.56600	5381
5.56667	5380
5.56733	5379
5.56800	5378
5.56867	5377
5.56933	5377
5.57000	5376
5.57067	5375
5.57133	5374
5.57200	5373
5.57267	5373
5.57333	5372
5.57400	5371
5.57467	5370
5.57533	5369
5.57600	5369
5.57667	5368
5.57733	5367
5.57800	5366
5.57867	5366
5.57933	5365
5.58000	5364
5.58067	5364
5.58133	5363
5.58200	5362
5.58267	5362
5.58333	5361
5.58400	5360
5.58467	5360
5.58533	5359
5.58600	5359
5.58667	5358
5.58733	5358
5.58800	5357
5.58867	5357
5.58933	5356
5.59000	5356
5.59067	5355
5.59133	5355
5.59200	5354
5.59267	5354
5.59333	5353
5.59400	5352
5.59467	5352
5.59533	5351
5.59600	5351
5.59667	5350
5.59733	5349
5.59800	5349
5.59867	5348
5.59933	5347
5.60000	5346
5.60067	5346
5.60133	5345
5.60200	5344
5.60267	5343
5.60333	5342
5.60400	5342
5.60467	5341
5.60533	5340
5.60600	5339
5.60667	5338
5.60733	5337
5.60800	5336
5.60867	5335
5.60933	5334
5.61000	5333
5.61067	5332
5.61133	5331
5.61200	5330
5.61267	5329
5.61333	5328
5.61400	5327
5.61467	5326
5.61533	5325
5.61600	5324
5.61667	5323
5.61733	5322
5.61800	5320
5.61867	5319
5.61933	5318
5.62000	5317
5.62067	5316
5.62133	5315
5.62200	5314
5.62267	5313
5.62333	5311
5.62400	5310
5.62467	5309
5.62533	5308
5.62600	5307
5.62667	5305
5.62733	5304
5.62800	5303
5.62867	5302
5.62933	5301
5.63000	5299
5.63067	5298
5.63133	5297
5.63200	5296
5.63267	5295
5.63333	5294
5.63400	5293
5.63467	5292
5.63533	5290
5.63600	5289
5.63667	5288
5.63733	5287
5.63800	5286
5.63867	5285
5.63933	5284
5.64000	5283
5.64067	5282
5.64133	5281
5.64200	5280
5.64267	5279
5.64333	5278
5.64400	5277
5.64467	5276
5.64533	5275
5.64600	5274
5.64667	5273
5.64733	5272
5.64800	5271
5.64867	5270
5.64933	5268
5.65000	5267
5.65067	5266
5.65133	5265
5.65200	5265
5.65267	5264
5.65333	5263
5.65400	5262
5.65467	5261
5.65533	5260
5.65600	5259
5.65667	5258
5.65733	5257
5.65800	5256
5.65867	5255
5.65933	5254
5.66000	5253
5.66067	5252
5.66133	5251
5.66200	5250
5.66267	5248
5.66333	5247
5.66400	5246
5.66467	5245
5.66533	5244
5.66600	5243
5.66667	5242
5.66733	5241
5.66800	5240
5.66867	5239
5.66933	5237
5.67000	5236
5.67067	5235
5.67133	5234
5.67200	5232
5.67267	5231
5.67333	5230
5.67400	5228
5.67467	5227
5.67533	5226
5.67600	5224
5.67667	5223
5.67733	5222
5.67800	5220
5.67867	5219
5.67933	5218
5.68000	5216
5.68067	5215
5.68133	5214
5.68200	5212
5.68267	5211
5.68333	5210
5.68400	5209
5.68467	5208
5.68533	5207
5.68600	5205
5.68667	5204
5.68733	5203
5.68800	5202
5.68867	5201
5.68933	5200
5.69000	5199
5.69067	5198
5.69133	5197
5.69200	5196
5.69267	5195
5.69333	5194
5.69400	5193
5.69467	5193
5.69533	5192
5.69600	5191
5.69667	5190
5.69733	5189
5.69800	5188
5.69867	5187
5.69933	5186
5.70000	5185
5.70067	5185
5.70133	5184
5.70200	5183
5.70267	5182
5.70333	5181
5.70400	5180
5.70467	5179
5.70533	5179
5.70600	5178
5.70667	5177
5.70733	5176
5.70800	5175
5.70867	5174
5.70933	5174
5.71000	5173
5.71067	5172
5.71133	5171
5.71200	5171
5.71267	5170
5.71333	5169
5.71400	5169
5.71467	5168
5.71533	5167
5.71600	5167
5.71667	5166
5.71733	5165
5.71800	5164
5.71867	5164
5.71933	5163
5.72000	5162
5.72067	5162
5.72133	5161
5.72200	5160
5.72267	5159
5.72333	5159
5.72400	5158
5.72467	5157
5.72533	5156
5.72600	5156
5.72667	5155
5.72733	5154
5.72800	5153
5.72867	5152
5.72933	5152
5.73000	5151
5.73067	5150
5.73133	5149
5.73200	5148
5.73267	5148
5.73333	5147
5.73400	5146
5.73467	5145
5.73533	5144
5.73600	5143
5.73667	5142
5.73733	5142
5.73800	5141
5.73867	5140
5.73933	5139
5.74000	5138
5.74067	5137
5.74133	5136
5.74200	5136
5.74267	5135
5.74333	5134
5.74400	5133
5.74467	5132
5.74533	5132
5.74600	5131
5.74667	5130
5.74733	5130
5.74800	5129
5.74867	5128
5.74933	5128
5.75000	5127
5.75067	5126
5.75133	5126
5.75200	5125
5.75267	5125
5.75333	5124
5.75400	5124
5.75467	5123
5.75533	5123
5.75600	5122
5.75667	5122
5.75733	5122
5.75800	5121
5.75867	5121
5.75933	5120
5.76000	5120
5.76067	5120
5.76133	5120
5.76200	5119
5.76267	5119
5.76333	5119
5.76400	5119
5.76467	5118
5.76533	5118
5.76600	5118
5.76667	5118
5.76733	5117
5.76800	5117
5.76867	5117
5.76933	5117
5.77000	5117
5.77067	5116
5.77133	5116
5.77200	5116
5.77267	5116
5.77333	5116
5.77400	5116
5.77467	5115
5.77533	5115
5.77600	5115
5.77667	5115
5.77733	5115
5.77800	5115
5.77867	5115
5.77933	5115
5.78000	5115
5.78067	5115
5.78133	5115
5.78200	5115
5.78267	5115
5.78333	5115
5.78400	5115
5.78467	5115
5.78533	5115
5.78600	5116
5.78667	5116
5.78733	5116
5.78800	5116
5.78867	5116
5.78933	5116
5.79000	5116
5.79067	5117
5.79133	5117
5.79200	5117
5.79267	5117
5.79333	5117
5.79400	5117
5.79467	5118
5.79533	5118
5.79600	5118
5.79667	5118
5.79733	5118
5.79800	5118
5.79867	5118
5.79933	5119
5.80000	5119
5.80067	5119
5.80133	5119
5.80200	5119
5.80267	5120
5.80333	5120
5.80400	5120
5.80467	5120
5.80533	5121
5.80600	5121
5.80667	5121
5.80733	5121
5.80800	5121
5.80867	5122
5.80933	5122
5.81000	5122
5.81067	5122
5.81133	5122
5.81200	5122
5.81267	5123
5.81333	5123
5.81400	5123
5.81467	5123
5.81533	5123
5.81600	5123
5.81667	5123
5.81733	5123
5.81800	5123
5.81867	5124
5.81933	5124
5.82000	5124
5.82067	5124
5.82133	5124
5.82200	5124
5.82267	5124
5.82333	5125
5.82400	5125
5.82467	5125
5.82533	5125
5.82600	5125
5.82667	5126
5.82733	5126
5.82800	5126
5.82867	5126
5.82933	5126
5.83000	5126
5.83067	5127
5.83133	5127
5.83200	5127
5.83267	5127
5.83333	5127
5.83400	5127
5.83467	5127
5.83533	5127
5.83600	5127
5.83667	5127
5.83733	5127
5.83800	5127
5.83867	5127
5.83933	5127
5.84000	5127
5.84067	5127
5.84133	5127
5.84200	5127
5.84267	5126
5.84333	5126
5.84400	5126
5.84467	5126
5.84533	5126
5.84600	5126
5.84667	5126
5.84733	5126
5.84800	5126
5.84867	5127
5.84933	5127
5.85000	5127
5.85067	5127
5.85133	5127
5.85200	5127
5.85267	5127
5.85333	5127
5.85400	5128
5.85467	5128
5.85533	5128
5.85600	5128
5.85667	5128
5.85733	5128
5.85800	5128
5.85867	5128
5.85933	5128
5.86000	5128
5.86067	5128
5.86133	5128
5.86200	5128
5.86267	5128
5.86333	5128
5.86400	5128
5.86467	5128
5.86533	5128
5.86600	5128
5.86667	5128
5.86733	5128
5.86800	5127
5.86867	5127
5.86933	5127
5.87000	5127
5.87067	5127
5.87133	5127
5.87200	5127
5.87267	5127
5.87333	5127
5.87400	5127
5.87467	5127
5.87533	5127
5.87600	5127
5.87667	5127
5.87733	5127
5.87800	5126
5.87867	5126
5.87933	5126
5.88000	5126
5.88067	5126
5.88133	5126
5.88200	5126
5.88267	5126
5.88333	5126
5.88400	5125
5.88467	5125
5.88533	5125
5.88600	5125
5.88667	5125
5.88733	5125
5.88800	5125
5.88867	5124
5.88933	5124
5.89000	5124
5.89067	5124
5.89133	5123
5.89200	5123
5.89267	5123
5.89333	5122
5.89400	5122
5.89467	5121
5.89533	5121
5.89600	5121
5.89667	5120
5.89733	5120
5.89800	5119
5.89867	5119
5.89933	5118
5.90000	5117
5.90067	5117
5.90133	5116
5.90200	5116
5.90267	5115
5.90333	5115
5.90400	5114
5.90467	5114
5.90533	5113
5.90600	5113
5.90667	5112
5.90733	5112
5.90800	5111
5.90867	5111
5.90933	5111
5.91000	5110
5.91067	5110
5.91133	5110
5.91200	5109
5.91267	5109
5.91333	5109
5.91400	5108
5.91467	5108
5.91533	5108
5.91600	5107
5.91667	5107
5.91733	5107
5.91800	5106
5.91867	5106
5.91933	5106
5.92000	5106
5.92067	5105
5.92133	5105
5.92200	5105
5.92267	5105
5.92333	5104
5.92400	5104
5.92467	5104
5.92533	5104
5.92600	5103
5.92667	5103
5.92733	5103
5.92800	5103
5.92867	5103
5.92933	5103
5.93000	5103
5.93067	5102
5.93133	5102
5.93200	5102
5.93267	5102
5.93333	5102
5.93400	5102
5.93467	5102
5.93533	5102
5.93600	5101
5.93667	5101
5.93733	5101
5.93800	5101
5.93867	5101
5.93933	5101
5.94000	5101
5.94067	5101
5.94133	5101
5.94200	5101
5.94267	5101
5.94333	5101
5.94400	5101
5.94467	5101
5.94533	5101
5.94600	5101
5.94667	5101
5.94733	5100
5.94800	5100
5.94867	5100
5.94933	5100
5.95000	5100
5.95067	5100
5.95133	5100
5.95200	5099
5.95267	5099
5.95333	5099
5.95400	5099
5.95467	5099
5.95533	5099
5.95600	5098
5.95667	5098
5.95733	5098
5.95800	5098
5.95867	5098
5.95933	5098
5.96000	5097
5.96067	5097
5.96133	5097
5.96200	5097
5.96267	5097
5.96333	5097
5.96400	5097
5.96467	5097
5.96533	5097
5.96600	5097
5.96667	5097
5.96733	5096
5.96800	5096
5.96867	5096
5.96933	5096
5.97000	5096
5.97067	5096
5.97133	5096
5.97200	5096
5.97267	5096
5.97333	5096
5.97400	5096
5.97467	5096
5.97533	5096
5.97600	5096
5.97667	5095
5.97733	5095
5.97800	5095
5.97867	5095
5.97933	5095
5.98000	5095
5.98067	5095
5.98133	5095
5.98200	5095
5.98267	5095
5.98333	5095
5.98400	5095
5.98467	5095
5.98533	5095
5.98600	5094
5.98667	5094
5.98733	5095
5.98800	5095
5.98867	5095
5.98933	5095
5.99000	5095
5.99067	5095
5.99133	5095
5.99200	5095
5.99267	5095
5.99333	5095
5.99400	5095
5.99467	5095
5.99533	5095
5.99600	5096
5.99667	5096
5.99733	5096
5.99800	5096
5.99867	5096
5.99933	5096
6.00000	5096
6.00067	5096
6.00133	5096
6.00200	5096
6.00267	5096
6.00333	5096
6.00400	5096
6.00467	5096
6.00533	5096
6.00600	5096
6.00667	5096
6.00733	5096
6.00800	5096
6.00867	5097
6.00933	5097
6.01000	5097
6.01067	5097
6.01133	5097
6.01200	5097
6.01267	5097
6.01333	5097
6.01400	5097
6.01467	5097
6.01533	5098
6.01600	5098
6.01667	5098
6.01733	5098
6.01800	5098
6.01867	5098
6.01933	5098
6.02000	5098
6.02067	5098
6.02133	5098
6.02200	5098
6.02267	5098
6.02333	5098
6.02400	5098
6.02467	5098
6.02533	5098
6.02600	5098
6.02667	5098
6.02733	5098
6.02800	5098
6.02867	5098
6.02933	5098
6.03000	5098
6.03067	5098
6.03133	5098
6.03200	5098
6.03267	5098
6.03333	5098
6.03400	5098
6.03467	5098
6.03533	5098
6.03600	5098
6.03667	5098
6.03733	5098
6.03800	5097
6.03867	5097
6.03933	5097
6.04000	5097
6.04067	5097
6.04133	5096
6.04200	5096
6.04267	5096
6.04333	5096
6.04400	5095
6.04467	5095
6.04533	5095
6.04600	5095
6.04667	5094
6.04733	5094
6.04800	5094
6.04867	5094
6.04933	5094
6.05000	5093
6.05067	5093
6.05133	5093
6.05200	5093
6.05267	5093
6.05333	5093
6.05400	5092
6.05467	5092
6.05533	5092
6.05600	5092
6.05667	5092
6.05733	5091
6.05800	5091
6.05867	5091
6.05933	5091
6.06000	5091
6.06067	5090
6.06133	5090
6.06200	5090
6.06267	5090
6.06333	5090
6.06400	5090
6.06467	5090
6.06533	5090
6.06600	5089
6.06667	5089
6.06733	5089
6.06800	5089
6.06867	5089
6.06933	5089
6.07000	5089
6.07067	5089
6.07133	5088
6.07200	5088
6.07267	5088
6.07333	5088
6.07400	5088
6.07467	5088
6.07533	5088
6.07600	5088
6.07667	5088
6.07733	5088
6.07800	5088
6.07867	5088
6.07933	5088
6.08000	5088
6.08067	5088
6.08133	5088
6.08200	5088
6.08267	5088
6.08333	5088
6.08400	5088
6.08467	5088
6.08533	5088
6.08600	5087
6.08667	5087
6.08733	5087
6.08800	5087
6.08867	5087
6.08933	5087
6.09000	5086
6.09067	5086
6.09133	5086
6.09200	5086
6.09267	5086
6.09333	5085
6.09400	5085
6.09467	5085
6.09533	5085
6.09600	5084
6.09667	5084
6.09733	5084
6.09800	5083
6.09867	5083
6.09933	5083
6.10000	5082
6.10067	5082
6.10133	5082
6.10200	5081
6.10267	5081
6.10333	5081
6.10400	5080
6.10467	5080
6.10533	5080
6.10600	5080
6.10667	5079
6.10733	5079
6.10800	5079
6.10867	5078
6.10933	5078
6.11000	5077
6.11067	5077
6.11133	5077
6.11200	5076
6.11267	5076
6.11333	5075
6.11400	5075
6.11467	5074
6.11533	5074
6.11600	5074
6.11667	5073
6.11733	5073
6.11800	5072
6.11867	5072
6.11933	5071
6.12000	5071
6.12067	5070
6.12133	5070
6.12200	5069
6.12267	5069
6.12333	5068
6.12400	5068
6.12467	5067
6.12533	5067
6.12600	5066
6.12667	5066
6.12733	5065
6.12800	5065
6.12867	5065
6.12933	5064
6.13000	5064
6.13067	5063
6.13133	5063
6.13200	5062
6.13267	5062
6.13333	5061
6.13400	5061
6.13467	5061
6.13533	5060
6.13600	5060
6.13667	5060
6.13733	5059
6.13800	5059
6.13867	5059
6.13933	5058
6.14000	5058
6.14067	5058
6.14133	5057
6.14200	5057
6.14267	5057
6.14333	5057
6.14400	5056
6.14467	5056
6.14533	5056
6.14600	5055
6.14667	5055
6.14733	5054
6.14800	5054
6.14867	5054
6.14933	5053
6.15000	5053
6.15067	5052
6.15133	5052
6.15200	5051
6.15267	5051
6.15333	5050
6.15400	5050
6.15467	5049
6.15533	5049
6.15600	5048
6.15667	5048
6.15733	5047
6.15800	5047
6.15867	5046
6.15933	5046
6.16000	5045
6.16067	5045
6.16133	5044
6.16200	5044
6.16267	5043
6.16333	5043
6.16400	5042
6.16467	5041
6.16533	5041
6.16600	5040
6.16667	5040
6.16733	5039
6.16800	5039
6.16867	5038
6.16933	5037
6.17000	5037
6.17067	5036
6.17133	5036
6.17200	5035
6.17267	5035
6.17333	5034
6.17400	5033
6.17467	5033
6.17533	5032
6.17600	5032
6.17667	5031
6.17733	5031
6.17800	5030
6.17867	5030
6.17933	5029
6.18000	5029
6.18067	5028
6.18133	5028
6.18200	5027
6.18267	5027
6.18333	5027
6.18400	5026
6.18467	5026
6.18533	5026
6.18600	5025
6.18667	5025
6.18733	5025
6.18800	5025
6.18867	5025
6.18933	5024
6.19000	5024
6.19067	5024
6.19133	5024
6.19200	5024
6.19267	5024
6.19333	5024
6.19400	5024
6.19467	5024
6.19533	5023
6.19600	5023
6.19667	5023
6.19733	5023
6.19800	5023
6.19867	5023
6.19933	5023
6.20000	5023
6.20067	5024
6.20133	5024
6.20200	5024
6.20267	5024
6.20333	5024
6.20400	5024
6.20467	5024
6.20533	5024
6.20600	5024
6.20667	5025
6.20733	5025
6.20800	5025
6.20867	5025
6.20933	5025
6.21000	5026
6.21067	5026
6.21133	5026
6.21200	5026
6.21267	5026
6.21333	5027
6.21400	5027
6.21467	5027
6.21533	5027
6.21600	5028
6.21667	5028
6.21733	5028
6.21800	5029
6.21867	5029
6.21933	5029
6.22000	5030
6.22067	5030
6.22133	5030
6.22200	5031
6.22267	5031
6.22333	5032
6.22400	5032
6.22467	5032
6.22533	5033
6.22600	5033
6.22667	5034
6.22733	5034
6.22800	5035
6.22867	5035
6.22933	5035
6.23000	5036
6.23067	5036
6.23133	5036
6.23200	5037
6.23267	5037
6.23333	5037
6.23400	5038
6.23467	5038
6.23533	5038
6.23600	5039
6.23667	5039
6.23733	5040
6.23800	5040
6.23867	5040
6.23933	5041
6.24000	5041
6.24067	5041
6.24133	5041
6.24200	5042
6.24267	5042
6.24333	5042
6.24400	5043
6.24467	5043
6.24533	5043
6.24600	5044
6.24667	5044
6.24733	5044
6.24800	5045
6.24867	5045
6.24933	5045
6.25000	5046
6.25067	5046
6.25133	5046
6.25200	5047
6.25267	5047
6.25333	5047
6.25400	5047
6.25467	5048
6.25533	5048
6.25600	5048
6.25667	5048
6.25733	5049
6.25800	5049
6.25867	5049
6.25933	5049
6.26000	5050
6.26067	5050
6.26133	5050
6.26200	5051
6.26267	5051
6.26333	5051
6.26400	5052
6.26467	5052
6.26533	5052
6.26600	5053
6.26667	5053
6.26733	5054
6.26800	5054
6.26867	5054
6.26933	5055
6.27000	5055
6.27067	5056
6.27133	5056
6.27200	5056
6.27267	5057
6.27333	5057
6.27400	5058
6.27467	5058
6.27533	5058
6.27600	5059
6.27667	5059
6.27733	5059
6.27800	5060
6.27867	5060
6.27933	5060
6.28000	5061
6.28067	5061
6.28133	5061
6.28200	5062
6.28267	5062
6.28333	5062
6.28400	5063
6.28467	5063
6.28533	5063
6.28600	5063
6.28667	5064
6.28733	5064
6.28800	5064
6.28867	5065
6.28933	5065
6.29000	5065
6.29067	5066
6.29133	5066
6.29200	5066
6.29267	5066
6.29333	5067
6.29400	5067
6.29467	5067
6.29533	5067
6.29600	5067
6.29667	5068
6.29733	5068
6.29800	5068
6.29867	5068
6.29933	5068
6.30000	5068
6.30067	5068
6.30133	5068
6.30200	5068
6.30267	5069
6.30333	5069
6.30400	5069
6.30467	5069
6.30533	5069
6.30600	5069
6.30667	5069
6.30733	5069
6.30800	5070
6.30867	5070
6.30933	5069
6.31000	5069
6.31067	5069
6.31133	5069
6.31200	5069
6.31267	5069
6.31333	5069
6.31400	5069
6.31467	5069
6.31533	5069
6.31600	5069
6.31667	5069
6.31733	5069
6.31800	5069
6.31867	5068
6.31933	5068
6.32000	5068
6.32067	5068
6.32133	5068
6.32200	5068
6.32267	5068
6.32333	5068
6.32400	5067
6.32467	5067
6.32533	5067
6.32600	5067
6.32667	5067
6.32733	5067
6.32800	5067
6.32867	5066
6.32933	5066
6.33000	5066
6.33067	5065
6.33133	5065
6.33200	5065
6.33267	5065
6.33333	5064
6.33400	5064
6.33467	5064
6.33533	5063
6.33600	5063
6.33667	5062
6.33733	5062
6.33800	5062
6.33867	5061
6.33933	5061
6.34000	5060
6.34067	5060
6.34133	5060
6.34200	5059
6.34267	5059
6.34333	5058
6.34400	5058
6.34467	5058
6.34533	5057
6.34600	5057
6.34667	5057
6.34733	5057
6.34800	5056
6.34867	5056
6.34933	5056
6.35000	5056
6.35067	5055
6.35133	5055
6.35200	5055
6.35267	5054
6.35333	5054
6.35400	5054
6.35467	5054
6.35533	5053
6.35600	5053
6.35667	5053
6.35733	5052
6.35800	5052
6.35867	5052
6.35933	5051
6.36000	5051
6.36067	5051
6.36133	5050
6.36200	5050
6.36267	5050
6.36333	5049
6.36400	5049
6.36467	5049
6.36533	5048
6.36600	5048
6.36667	5048
6.36733	5047
6.36800	5047
6.36867	5047
6.36933	5046
6.37000	5046
6.37067	5046
6.37133	5045
6.37200	5045
6.37267	5044
6.37333	5044
6.37400	5044
6.37467	5043
6.37533	5043
6.37600	5043
6.37667	5042
6.37733	5042
6.37800	5042
6.37867	5042
6.37933	5041
6.38000	5041
6.38067	5041
6.38133	5041
6.38200	5040
6.38267	5040
6.38333	5040
6.38400	5040
6.38467	5039
6.38533	5039
6.38600	5039
6.38667	5039
6.38733	5039
6.38800	5038
6.38867	5038
6.38933	5038
6.39000	5038
6.39067	5038
6.39133	5037
6.39200	5037
6.39267	5037
6.39333	5037
6.39400	5037
6.39467	5037
6.39533	5036
6.39600	5036
6.39667	5036
6.39733	5036
6.39800	5036
6.39867	5036
6.39933	5036

