[Header]
Application Name	LabSolutions
Version	5.73
Data File Name	C:\LabSolutions\Data\Project1\stephen\2016-01-06\55.gcd
Output Date	1/11/2016
Output Time	1:19:50 PM

[Configuration]
Instrument Name	WEISSTA-PC-Instrument1
Instrument #	1
Line #	1
# of Detectors	1
Detector ID	DET#2
Detector Name	DFID1
# of Channels	1

[Chromatogram (Ch1)]
Interval(msec)	40
# of Points	9600
Start Time(min)	0.000
End Time(min)	6.399
R.Time (min)	Intensity
0.00000	17
0.00067	17
0.00133	17
0.00200	17
0.00267	17
0.00333	17
0.00400	17
0.00467	17
0.00533	17
0.00600	17
0.00667	17
0.00733	17
0.00800	17
0.00867	17
0.00933	16
0.01000	16
0.01067	15
0.01133	15
0.01200	14
0.01267	13
0.01333	12
0.01400	11
0.01467	10
0.01533	8
0.01600	7
0.01667	5
0.01733	3
0.01800	1
0.01867	-1
0.01933	-3
0.02000	-6
0.02067	-8
0.02133	-11
0.02200	-13
0.02267	-16
0.02333	-19
0.02400	-22
0.02467	-25
0.02533	-28
0.02600	-32
0.02667	-35
0.02733	-38
0.02800	-42
0.02867	-45
0.02933	-49
0.03000	-53
0.03067	-56
0.03133	-60
0.03200	-63
0.03267	-66
0.03333	-70
0.03400	-73
0.03467	-76
0.03533	-80
0.03600	-83
0.03667	-86
0.03733	-89
0.03800	-92
0.03867	-95
0.03933	-97
0.04000	-100
0.04067	-103
0.04133	-105
0.04200	-107
0.04267	-110
0.04333	-112
0.04400	-114
0.04467	-116
0.04533	-118
0.04600	-120
0.04667	-122
0.04733	-124
0.04800	-126
0.04867	-128
0.04933	-129
0.05000	-131
0.05067	-133
0.05133	-134
0.05200	-136
0.05267	-137
0.05333	-138
0.05400	-140
0.05467	-141
0.05533	-142
0.05600	-144
0.05667	-145
0.05733	-146
0.05800	-147
0.05867	-148
0.05933	-149
0.06000	-150
0.06067	-151
0.06133	-152
0.06200	-153
0.06267	-154
0.06333	-155
0.06400	-156
0.06467	-157
0.06533	-157
0.06600	-158
0.06667	-159
0.06733	-160
0.06800	-161
0.06867	-161
0.06933	-162
0.07000	-163
0.07067	-163
0.07133	-164
0.07200	-165
0.07267	-165
0.07333	-166
0.07400	-166
0.07467	-167
0.07533	-167
0.07600	-168
0.07667	-169
0.07733	-169
0.07800	-170
0.07867	-170
0.07933	-170
0.08000	-171
0.08067	-171
0.08133	-172
0.08200	-172
0.08267	-173
0.08333	-173
0.08400	-174
0.08467	-174
0.08533	-174
0.08600	-175
0.08667	-175
0.08733	-176
0.08800	-175
0.08867	-171
0.08933	-166
0.09000	-157
0.09067	-144
0.09133	-119
0.09200	-66
0.09267	32
0.09333	150
0.09400	270
0.09467	388
0.09533	521
0.09600	668
0.09667	817
0.09733	978
0.09800	1152
0.09867	1358
0.09933	1574
0.10000	1815
0.10067	2068
0.10133	2317
0.10200	2577
0.10267	2885
0.10333	3246
0.10400	3658
0.10467	4065
0.10533	4459
0.10600	4848
0.10667	5225
0.10733	5603
0.10800	5991
0.10867	6394
0.10933	6802
0.11000	7182
0.11067	7554
0.11133	7927
0.11200	8298
0.11267	8645
0.11333	9006
0.11400	9367
0.11467	9710
0.11533	10067
0.11600	10435
0.11667	10774
0.11733	11113
0.11800	11436
0.11867	11741
0.11933	12059
0.12000	12356
0.12067	12633
0.12133	12913
0.12200	13195
0.12267	13455
0.12333	13707
0.12400	13932
0.12467	14127
0.12533	14293
0.12600	14431
0.12667	14555
0.12733	14661
0.12800	14741
0.12867	14796
0.12933	14828
0.13000	14842
0.13067	14842
0.13133	14849
0.13200	14974
0.13267	15670
0.13333	17841
0.13400	23478
0.13467	36259
0.13533	62258
0.13600	110221
0.13667	192403
0.13733	323924
0.13800	522736
0.13867	807295
0.13933	1196072
0.14000	1705514
0.14067	2350987
0.14133	3145512
0.14200	4100888
0.14267	5226330
0.14333	6529674
0.14400	8016404
0.14467	9690400
0.14533	11553057
0.14600	13604052
0.14667	15840923
0.14733	18259997
0.14800	20856445
0.14867	23623691
0.14933	26554027
0.15000	29639175
0.15067	32869984
0.15133	36236227
0.15200	39726434
0.15267	43328067
0.15333	47027911
0.15400	50812148
0.15467	54666332
0.15533	58575605
0.15600	62524842
0.15667	66498949
0.15733	70482696
0.15800	74461271
0.15867	78419833
0.15933	82344128
0.16000	86220320
0.16067	90035566
0.16133	93777565
0.16200	97435140
0.16267	100998007
0.16333	104457116
0.16400	107804526
0.16467	111033588
0.16533	114138646
0.16600	117114936
0.16667	119958834
0.16733	122667580
0.16800	125239430
0.16867	127673323
0.16933	129969042
0.17000	132126843
0.17067	134147684
0.17133	136032810
0.17200	137784054
0.17267	139403486
0.17333	140893523
0.17400	142256749
0.17467	143496128
0.17533	144614720
0.17600	145615755
0.17667	146502555
0.17733	147278653
0.17800	147947584
0.17867	148512924
0.17933	148978196
0.18000	149346890
0.18067	149622470
0.18133	149808402
0.18200	149908107
0.18267	149924920
0.18333	149862148
0.18400	149722979
0.18467	149510642
0.18533	149228204
0.18600	148878572
0.18667	148464391
0.18733	147988287
0.18800	147452797
0.18867	146860415
0.18933	146213432
0.19000	145514126
0.19067	144764690
0.19133	143967259
0.19200	143123905
0.19267	142236681
0.19333	141307555
0.19400	140338481
0.19467	139331389
0.19533	138288218
0.19600	137210907
0.19667	136101387
0.19733	134961576
0.19800	133793351
0.19867	132598619
0.19933	131379234
0.20000	130137116
0.20067	128874102
0.20133	127591989
0.20200	126292517
0.20267	124977393
0.20333	123648263
0.20400	122306759
0.20467	120954408
0.20533	119592700
0.20600	118223066
0.20667	116846896
0.20733	115465492
0.20800	114080123
0.20867	112692002
0.20933	111302313
0.21000	109912167
0.21067	108522619
0.21133	107134669
0.21200	105749290
0.21267	104367422
0.21333	102989953
0.21400	101617717
0.21467	100251474
0.21533	98891977
0.21600	97539961
0.21667	96196120
0.21733	94861063
0.21800	93535377
0.21867	92219605
0.21933	90914285
0.22000	89619928
0.22067	88337010
0.22133	87065957
0.22200	85807171
0.22267	84561015
0.22333	83327813
0.22400	82107849
0.22467	80901390
0.22533	79708692
0.22600	78529993
0.22667	77365507
0.22733	76215403
0.22800	75079820
0.22867	73958887
0.22933	72852721
0.23000	71761412
0.23067	70685021
0.23133	69623595
0.23200	68577164
0.23267	67545725
0.23333	66529257
0.23400	65527704
0.23467	64541014
0.23533	63569135
0.23600	62612015
0.23667	61669568
0.23733	60741709
0.23800	59828336
0.23867	58929348
0.23933	58044630
0.24000	57174057
0.24067	56317483
0.24133	55474765
0.24200	54645756
0.24267	53830310
0.24333	53028272
0.24400	52239475
0.24467	51463760
0.24533	50700966
0.24600	49950944
0.24667	49213511
0.24733	48488468
0.24800	47775618
0.24867	47074780
0.24933	46385752
0.25000	45708328
0.25067	45042304
0.25133	44387502
0.25200	43743734
0.25267	43110810
0.25333	42488546
0.25400	41876786
0.25467	41275368
0.25533	40684095
0.25600	40102747
0.25667	39531117
0.25733	38969001
0.25800	38416203
0.25867	37872541
0.25933	37337837
0.26000	36811921
0.26067	36294607
0.26133	35785716
0.26200	35285085
0.26267	34792565
0.26333	34308003
0.26400	33831249
0.26467	33362147
0.26533	32900540
0.26600	32446269
0.26667	31999180
0.26733	31559120
0.26800	31125939
0.26867	30699492
0.26933	30279647
0.27000	29866257
0.27067	29459177
0.27133	29058275
0.27200	28663421
0.27267	28274482
0.27333	27891329
0.27400	27513841
0.27467	27141892
0.27533	26775357
0.27600	26414119
0.27667	26058073
0.27733	25707110
0.27800	25361131
0.27867	25020027
0.27933	24683695
0.28000	24352027
0.28067	24024922
0.28133	23702279
0.28200	23383997
0.28267	23069976
0.28333	22760130
0.28400	22454372
0.28467	22152620
0.28533	21854791
0.28600	21560809
0.28667	21270601
0.28733	20984100
0.28800	20701238
0.28867	20421955
0.28933	20146199
0.29000	19873925
0.29067	19605091
0.29133	19339653
0.29200	19077570
0.29267	18818795
0.29333	18563291
0.29400	18311020
0.29467	18061950
0.29533	17816044
0.29600	17573267
0.29667	17333580
0.29733	17096949
0.29800	16863333
0.29867	16632697
0.29933	16405001
0.30000	16180207
0.30067	15958270
0.30133	15739148
0.30200	15522799
0.30267	15309183
0.30333	15098258
0.30400	14889976
0.30467	14684286
0.30533	14481141
0.30600	14280489
0.30667	14082280
0.30733	13886465
0.30800	13692993
0.30867	13501816
0.30933	13312882
0.31000	13126144
0.31067	12941554
0.31133	12759069
0.31200	12578642
0.31267	12400228
0.31333	12223784
0.31400	12049273
0.31467	11876659
0.31533	11705908
0.31600	11536984
0.31667	11369850
0.31733	11204471
0.31800	11040817
0.31867	10878857
0.31933	10718561
0.32000	10559897
0.32067	10402837
0.32133	10247352
0.32200	10093411
0.32267	9940988
0.32333	9790049
0.32400	9640568
0.32467	9492517
0.32533	9345874
0.32600	9200611
0.32667	9056704
0.32733	8914129
0.32800	8772864
0.32867	8632885
0.32933	8494169
0.33000	8356696
0.33067	8220446
0.33133	8085405
0.33200	7951555
0.33267	7818880
0.33333	7687364
0.33400	7556996
0.33467	7427770
0.33533	7299680
0.33600	7172723
0.33667	7046899
0.33733	6922211
0.33800	6798664
0.33867	6676263
0.33933	6555019
0.34000	6434942
0.34067	6316047
0.34133	6198346
0.34200	6081857
0.34267	5966596
0.34333	5852582
0.34400	5739836
0.34467	5628379
0.34533	5518232
0.34600	5409417
0.34667	5301956
0.34733	5195873
0.34800	5091188
0.34867	4987923
0.34933	4886095
0.35000	4785723
0.35067	4686823
0.35133	4589410
0.35200	4493498
0.35267	4399095
0.35333	4306212
0.35400	4214854
0.35467	4125027
0.35533	4036733
0.35600	3949971
0.35667	3864741
0.35733	3781039
0.35800	3698862
0.35867	3618204
0.35933	3539060
0.36000	3461422
0.36067	3385285
0.36133	3310643
0.36200	3237491
0.36267	3165823
0.36333	3095634
0.36400	3026919
0.36467	2959673
0.36533	2893892
0.36600	2829567
0.36667	2766695
0.36733	2705266
0.36800	2645273
0.36867	2586707
0.36933	2529557
0.37000	2473809
0.37067	2419452
0.37133	2366468
0.37200	2314840
0.37267	2264547
0.37333	2215564
0.37400	2167865
0.37467	2121421
0.37533	2076201
0.37600	2032171
0.37667	1989300
0.37733	1947552
0.37800	1906894
0.37867	1867292
0.37933	1828709
0.38000	1791111
0.38067	1754461
0.38133	1718724
0.38200	1683864
0.38267	1649845
0.38333	1616632
0.38400	1584190
0.38467	1552482
0.38533	1521477
0.38600	1491142
0.38667	1461445
0.38733	1432356
0.38800	1403849
0.38867	1375898
0.38933	1348480
0.39000	1321571
0.39067	1295152
0.39133	1269206
0.39200	1243714
0.39267	1218663
0.39333	1194037
0.39400	1169825
0.39467	1146016
0.39533	1122600
0.39600	1099568
0.39667	1076912
0.39733	1054627
0.39800	1032706
0.39867	1011144
0.39933	989939
0.40000	969085
0.40067	948581
0.40133	928423
0.40200	908610
0.40267	889138
0.40333	870007
0.40400	851214
0.40467	832759
0.40533	814638
0.40600	796851
0.40667	779396
0.40733	762271
0.40800	745473
0.40867	729000
0.40933	712851
0.41000	697023
0.41067	681512
0.41133	666317
0.41200	651434
0.41267	636859
0.41333	622591
0.41400	608625
0.41467	594958
0.41533	581586
0.41600	568506
0.41667	555713
0.41733	543203
0.41800	530973
0.41867	519019
0.41933	507335
0.42000	495919
0.42067	484765
0.42133	473869
0.42200	463228
0.42267	452836
0.42333	442689
0.42400	432783
0.42467	423113
0.42533	413676
0.42600	404466
0.42667	395479
0.42733	386712
0.42800	378158
0.42867	369815
0.42933	361678
0.43000	353742
0.43067	346003
0.43133	338458
0.43200	331102
0.43267	323931
0.43333	316941
0.43400	310127
0.43467	303487
0.43533	297016
0.43600	290711
0.43667	284567
0.43733	278581
0.43800	272748
0.43867	267067
0.43933	261531
0.44000	256139
0.44067	250886
0.44133	245770
0.44200	240786
0.44267	235932
0.44333	231205
0.44400	226602
0.44467	222120
0.44533	217758
0.44600	213512
0.44667	209380
0.44733	205359
0.44800	201448
0.44867	197643
0.44933	193943
0.45000	190345
0.45067	186847
0.45133	183447
0.45200	180142
0.45267	176932
0.45333	173813
0.45400	170785
0.45467	167846
0.45533	164994
0.45600	162227
0.45667	159545
0.45733	156947
0.45800	154431
0.45867	151997
0.45933	149644
0.46000	147372
0.46067	145181
0.46133	143070
0.46200	141039
0.46267	139088
0.46333	137214
0.46400	135415
0.46467	133689
0.46533	132032
0.46600	130442
0.46667	128915
0.46733	127450
0.46800	126044
0.46867	124695
0.46933	123399
0.47000	122155
0.47067	120959
0.47133	119810
0.47200	118705
0.47267	117642
0.47333	116619
0.47400	115635
0.47467	114686
0.47533	113772
0.47600	112890
0.47667	112039
0.47733	111217
0.47800	110422
0.47867	109655
0.47933	108912
0.48000	108192
0.48067	107495
0.48133	106819
0.48200	106163
0.48267	105526
0.48333	104906
0.48400	104303
0.48467	103716
0.48533	103143
0.48600	102584
0.48667	102038
0.48733	101504
0.48800	100980
0.48867	100468
0.48933	99965
0.49000	99471
0.49067	98985
0.49133	98507
0.49200	98036
0.49267	97572
0.49333	97115
0.49400	96663
0.49467	96217
0.49533	95777
0.49600	95340
0.49667	94908
0.49733	94480
0.49800	94056
0.49867	93635
0.49933	93216
0.50000	92800
0.50067	92387
0.50133	91975
0.50200	91566
0.50267	91157
0.50333	90750
0.50400	90344
0.50467	89940
0.50533	89535
0.50600	89132
0.50667	88729
0.50733	88327
0.50800	87924
0.50867	87523
0.50933	87121
0.51000	86719
0.51067	86318
0.51133	85917
0.51200	85515
0.51267	85113
0.51333	84712
0.51400	84310
0.51467	83907
0.51533	83505
0.51600	83102
0.51667	82700
0.51733	82297
0.51800	81894
0.51867	81491
0.51933	81088
0.52000	80684
0.52067	80281
0.52133	79878
0.52200	79475
0.52267	79072
0.52333	78669
0.52400	78266
0.52467	77863
0.52533	77461
0.52600	77059
0.52667	76657
0.52733	76255
0.52800	75854
0.52867	75454
0.52933	75054
0.53000	74654
0.53067	74256
0.53133	73857
0.53200	73460
0.53267	73063
0.53333	72667
0.53400	72272
0.53467	71878
0.53533	71485
0.53600	71092
0.53667	70701
0.53733	70311
0.53800	69922
0.53867	69534
0.53933	69148
0.54000	68763
0.54067	68379
0.54133	67997
0.54200	67617
0.54267	67238
0.54333	66862
0.54400	66486
0.54467	66113
0.54533	65742
0.54600	65373
0.54667	65005
0.54733	64640
0.54800	64277
0.54867	63916
0.54933	63558
0.55000	63203
0.55067	62850
0.55133	62499
0.55200	62151
0.55267	61806
0.55333	61464
0.55400	61125
0.55467	60789
0.55533	60455
0.55600	60124
0.55667	59796
0.55733	59471
0.55800	59149
0.55867	58829
0.55933	58512
0.56000	58197
0.56067	57884
0.56133	57574
0.56200	57266
0.56267	56960
0.56333	56657
0.56400	56354
0.56467	56054
0.56533	55756
0.56600	55459
0.56667	55164
0.56733	54870
0.56800	54577
0.56867	54286
0.56933	53997
0.57000	53709
0.57067	53422
0.57133	53136
0.57200	52852
0.57267	52569
0.57333	52287
0.57400	52007
0.57467	51727
0.57533	51449
0.57600	51172
0.57667	50896
0.57733	50622
0.57800	50349
0.57867	50077
0.57933	49806
0.58000	49537
0.58067	49269
0.58133	49002
0.58200	48737
0.58267	48473
0.58333	48210
0.58400	47949
0.58467	47689
0.58533	47431
0.58600	47174
0.58667	46918
0.58733	46664
0.58800	46411
0.58867	46160
0.58933	45911
0.59000	45662
0.59067	45416
0.59133	45170
0.59200	44927
0.59267	44684
0.59333	44443
0.59400	44204
0.59467	43966
0.59533	43730
0.59600	43495
0.59667	43262
0.59733	43030
0.59800	42800
0.59867	42571
0.59933	42344
0.60000	42119
0.60067	41895
0.60133	41672
0.60200	41451
0.60267	41232
0.60333	41014
0.60400	40798
0.60467	40584
0.60533	40371
0.60600	40159
0.60667	39950
0.60733	39741
0.60800	39535
0.60867	39329
0.60933	39126
0.61000	38924
0.61067	38723
0.61133	38525
0.61200	38327
0.61267	38131
0.61333	37937
0.61400	37744
0.61467	37553
0.61533	37363
0.61600	37175
0.61667	36988
0.61733	36803
0.61800	36619
0.61867	36437
0.61933	36256
0.62000	36077
0.62067	35898
0.62133	35722
0.62200	35546
0.62267	35372
0.62333	35200
0.62400	35028
0.62467	34858
0.62533	34689
0.62600	34522
0.62667	34355
0.62733	34190
0.62800	34026
0.62867	33864
0.62933	33702
0.63000	33542
0.63067	33383
0.63133	33226
0.63200	33069
0.63267	32914
0.63333	32759
0.63400	32606
0.63467	32455
0.63533	32304
0.63600	32154
0.63667	32006
0.63733	31858
0.63800	31712
0.63867	31567
0.63933	31423
0.64000	31281
0.64067	31139
0.64133	30999
0.64200	30859
0.64267	30721
0.64333	30584
0.64400	30448
0.64467	30313
0.64533	30180
0.64600	30047
0.64667	29916
0.64733	29785
0.64800	29656
0.64867	29528
0.64933	29401
0.65000	29275
0.65067	29150
0.65133	29026
0.65200	28903
0.65267	28781
0.65333	28660
0.65400	28539
0.65467	28420
0.65533	28301
0.65600	28183
0.65667	28066
0.65733	27950
0.65800	27834
0.65867	27720
0.65933	27606
0.66000	27493
0.66067	27380
0.66133	27268
0.66200	27157
0.66267	27047
0.66333	26938
0.66400	26829
0.66467	26721
0.66533	26613
0.66600	26506
0.66667	26400
0.66733	26294
0.66800	26189
0.66867	26085
0.66933	25981
0.67000	25878
0.67067	25776
0.67133	25674
0.67200	25573
0.67267	25473
0.67333	25373
0.67400	25274
0.67467	25176
0.67533	25079
0.67600	24983
0.67667	24888
0.67733	24793
0.67800	24700
0.67867	24607
0.67933	24516
0.68000	24426
0.68067	24337
0.68133	24250
0.68200	24164
0.68267	24080
0.68333	23997
0.68400	23917
0.68467	23839
0.68533	23763
0.68600	23690
0.68667	23620
0.68733	23553
0.68800	23488
0.68867	23428
0.68933	23371
0.69000	23318
0.69067	23269
0.69133	23224
0.69200	23183
0.69267	23147
0.69333	23116
0.69400	23089
0.69467	23067
0.69533	23050
0.69600	23037
0.69667	23029
0.69733	23025
0.69800	23025
0.69867	23029
0.69933	23037
0.70000	23047
0.70067	23061
0.70133	23077
0.70200	23095
0.70267	23115
0.70333	23136
0.70400	23157
0.70467	23179
0.70533	23201
0.70600	23222
0.70667	23242
0.70733	23261
0.70800	23278
0.70867	23293
0.70933	23305
0.71000	23314
0.71067	23321
0.71133	23324
0.71200	23324
0.71267	23321
0.71333	23313
0.71400	23302
0.71467	23287
0.71533	23268
0.71600	23246
0.71667	23219
0.71733	23189
0.71800	23156
0.71867	23118
0.71933	23078
0.72000	23034
0.72067	22987
0.72133	22937
0.72200	22884
0.72267	22828
0.72333	22769
0.72400	22708
0.72467	22645
0.72533	22580
0.72600	22512
0.72667	22443
0.72733	22372
0.72800	22299
0.72867	22225
0.72933	22149
0.73000	22072
0.73067	21994
0.73133	21915
0.73200	21835
0.73267	21754
0.73333	21673
0.73400	21591
0.73467	21508
0.73533	21424
0.73600	21341
0.73667	21257
0.73733	21172
0.73800	21088
0.73867	21003
0.73933	20918
0.74000	20834
0.74067	20749
0.74133	20664
0.74200	20579
0.74267	20495
0.74333	20410
0.74400	20326
0.74467	20242
0.74533	20159
0.74600	20075
0.74667	19992
0.74733	19910
0.74800	19827
0.74867	19745
0.74933	19664
0.75000	19583
0.75067	19502
0.75133	19422
0.75200	19343
0.75267	19264
0.75333	19185
0.75400	19107
0.75467	19030
0.75533	18953
0.75600	18877
0.75667	18801
0.75733	18726
0.75800	18651
0.75867	18577
0.75933	18503
0.76000	18431
0.76067	18358
0.76133	18287
0.76200	18216
0.76267	18145
0.76333	18076
0.76400	18006
0.76467	17938
0.76533	17870
0.76600	17802
0.76667	17735
0.76733	17669
0.76800	17604
0.76867	17539
0.76933	17474
0.77000	17411
0.77067	17347
0.77133	17285
0.77200	17223
0.77267	17161
0.77333	17100
0.77400	17040
0.77467	16980
0.77533	16920
0.77600	16862
0.77667	16803
0.77733	16745
0.77800	16688
0.77867	16631
0.77933	16575
0.78000	16519
0.78067	16464
0.78133	16409
0.78200	16355
0.78267	16301
0.78333	16248
0.78400	16195
0.78467	16142
0.78533	16090
0.78600	16039
0.78667	15988
0.78733	15937
0.78800	15887
0.78867	15837
0.78933	15788
0.79000	15739
0.79067	15691
0.79133	15643
0.79200	15595
0.79267	15548
0.79333	15501
0.79400	15455
0.79467	15409
0.79533	15363
0.79600	15318
0.79667	15273
0.79733	15228
0.79800	15184
0.79867	15140
0.79933	15096
0.80000	15053
0.80067	15009
0.80133	14967
0.80200	14924
0.80267	14882
0.80333	14841
0.80400	14799
0.80467	14758
0.80533	14717
0.80600	14677
0.80667	14637
0.80733	14597
0.80800	14557
0.80867	14518
0.80933	14479
0.81000	14441
0.81067	14402
0.81133	14364
0.81200	14327
0.81267	14290
0.81333	14253
0.81400	14216
0.81467	14180
0.81533	14145
0.81600	14109
0.81667	14074
0.81733	14039
0.81800	14004
0.81867	13970
0.81933	13936
0.82000	13902
0.82067	13869
0.82133	13835
0.82200	13802
0.82267	13770
0.82333	13737
0.82400	13705
0.82467	13673
0.82533	13641
0.82600	13609
0.82667	13578
0.82733	13547
0.82800	13516
0.82867	13485
0.82933	13455
0.83000	13425
0.83067	13394
0.83133	13365
0.83200	13335
0.83267	13305
0.83333	13276
0.83400	13246
0.83467	13217
0.83533	13188
0.83600	13159
0.83667	13131
0.83733	13102
0.83800	13074
0.83867	13046
0.83933	13018
0.84000	12990
0.84067	12963
0.84133	12935
0.84200	12908
0.84267	12881
0.84333	12854
0.84400	12827
0.84467	12801
0.84533	12774
0.84600	12748
0.84667	12722
0.84733	12696
0.84800	12670
0.84867	12644
0.84933	12619
0.85000	12593
0.85067	12568
0.85133	12543
0.85200	12518
0.85267	12493
0.85333	12469
0.85400	12444
0.85467	12420
0.85533	12395
0.85600	12371
0.85667	12347
0.85733	12324
0.85800	12300
0.85867	12277
0.85933	12253
0.86000	12230
0.86067	12207
0.86133	12184
0.86200	12161
0.86267	12138
0.86333	12116
0.86400	12093
0.86467	12071
0.86533	12049
0.86600	12027
0.86667	12005
0.86733	11983
0.86800	11962
0.86867	11940
0.86933	11919
0.87000	11898
0.87067	11876
0.87133	11855
0.87200	11834
0.87267	11814
0.87333	11793
0.87400	11773
0.87467	11752
0.87533	11732
0.87600	11712
0.87667	11692
0.87733	11672
0.87800	11652
0.87867	11633
0.87933	11613
0.88000	11594
0.88067	11575
0.88133	11555
0.88200	11536
0.88267	11518
0.88333	11499
0.88400	11480
0.88467	11462
0.88533	11443
0.88600	11425
0.88667	11407
0.88733	11389
0.88800	11371
0.88867	11353
0.88933	11335
0.89000	11317
0.89067	11300
0.89133	11282
0.89200	11265
0.89267	11247
0.89333	11230
0.89400	11213
0.89467	11196
0.89533	11179
0.89600	11163
0.89667	11146
0.89733	11129
0.89800	11113
0.89867	11096
0.89933	11080
0.90000	11064
0.90067	11048
0.90133	11031
0.90200	11015
0.90267	10999
0.90333	10984
0.90400	10968
0.90467	10952
0.90533	10936
0.90600	10920
0.90667	10905
0.90733	10889
0.90800	10874
0.90867	10858
0.90933	10843
0.91000	10828
0.91067	10812
0.91133	10797
0.91200	10782
0.91267	10767
0.91333	10752
0.91400	10737
0.91467	10722
0.91533	10707
0.91600	10693
0.91667	10678
0.91733	10663
0.91800	10648
0.91867	10634
0.91933	10619
0.92000	10605
0.92067	10590
0.92133	10576
0.92200	10561
0.92267	10547
0.92333	10533
0.92400	10519
0.92467	10505
0.92533	10491
0.92600	10477
0.92667	10463
0.92733	10449
0.92800	10435
0.92867	10422
0.92933	10408
0.93000	10394
0.93067	10381
0.93133	10368
0.93200	10354
0.93267	10341
0.93333	10328
0.93400	10315
0.93467	10301
0.93533	10288
0.93600	10275
0.93667	10262
0.93733	10250
0.93800	10237
0.93867	10224
0.93933	10211
0.94000	10199
0.94067	10186
0.94133	10173
0.94200	10161
0.94267	10148
0.94333	10136
0.94400	10123
0.94467	10111
0.94533	10099
0.94600	10087
0.94667	10074
0.94733	10062
0.94800	10050
0.94867	10038
0.94933	10026
0.95000	10014
0.95067	10002
0.95133	9991
0.95200	9979
0.95267	9967
0.95333	9956
0.95400	9944
0.95467	9933
0.95533	9921
0.95600	9910
0.95667	9899
0.95733	9888
0.95800	9877
0.95867	9867
0.95933	9856
0.96000	9846
0.96067	9835
0.96133	9825
0.96200	9815
0.96267	9805
0.96333	9795
0.96400	9785
0.96467	9775
0.96533	9765
0.96600	9755
0.96667	9746
0.96733	9736
0.96800	9727
0.96867	9717
0.96933	9708
0.97000	9698
0.97067	9689
0.97133	9679
0.97200	9670
0.97267	9660
0.97333	9651
0.97400	9641
0.97467	9632
0.97533	9622
0.97600	9612
0.97667	9602
0.97733	9592
0.97800	9582
0.97867	9572
0.97933	9562
0.98000	9552
0.98067	9541
0.98133	9531
0.98200	9520
0.98267	9510
0.98333	9499
0.98400	9488
0.98467	9477
0.98533	9466
0.98600	9455
0.98667	9444
0.98733	9433
0.98800	9422
0.98867	9411
0.98933	9400
0.99000	9389
0.99067	9378
0.99133	9367
0.99200	9356
0.99267	9345
0.99333	9334
0.99400	9323
0.99467	9312
0.99533	9301
0.99600	9290
0.99667	9279
0.99733	9268
0.99800	9257
0.99867	9247
0.99933	9236
1.00000	9225
1.00067	9214
1.00133	9204
1.00200	9193
1.00267	9182
1.00333	9172
1.00400	9162
1.00467	9151
1.00533	9141
1.00600	9130
1.00667	9120
1.00733	9110
1.00800	9100
1.00867	9090
1.00933	9080
1.01000	9070
1.01067	9061
1.01133	9051
1.01200	9042
1.01267	9032
1.01333	9023
1.01400	9014
1.01467	9005
1.01533	8996
1.01600	8988
1.01667	8979
1.01733	8971
1.01800	8963
1.01867	8955
1.01933	8948
1.02000	8941
1.02067	8934
1.02133	8927
1.02200	8920
1.02267	8914
1.02333	8908
1.02400	8902
1.02467	8896
1.02533	8891
1.02600	8885
1.02667	8880
1.02733	8875
1.02800	8870
1.02867	8865
1.02933	8861
1.03000	8856
1.03067	8851
1.03133	8847
1.03200	8843
1.03267	8838
1.03333	8834
1.03400	8829
1.03467	8825
1.03533	8820
1.03600	8816
1.03667	8811
1.03733	8806
1.03800	8801
1.03867	8796
1.03933	8791
1.04000	8786
1.04067	8781
1.04133	8775
1.04200	8770
1.04267	8764
1.04333	8758
1.04400	8752
1.04467	8746
1.04533	8740
1.04600	8734
1.04667	8728
1.04733	8721
1.04800	8714
1.04867	8708
1.04933	8701
1.05000	8694
1.05067	8687
1.05133	8680
1.05200	8673
1.05267	8665
1.05333	8658
1.05400	8651
1.05467	8643
1.05533	8636
1.05600	8628
1.05667	8621
1.05733	8613
1.05800	8605
1.05867	8598
1.05933	8590
1.06000	8582
1.06067	8574
1.06133	8566
1.06200	8558
1.06267	8550
1.06333	8542
1.06400	8534
1.06467	8526
1.06533	8518
1.06600	8509
1.06667	8501
1.06733	8493
1.06800	8485
1.06867	8477
1.06933	8468
1.07000	8460
1.07067	8452
1.07133	8444
1.07200	8436
1.07267	8428
1.07333	8419
1.07400	8411
1.07467	8403
1.07533	8395
1.07600	8387
1.07667	8379
1.07733	8371
1.07800	8363
1.07867	8355
1.07933	8347
1.08000	8339
1.08067	8331
1.08133	8323
1.08200	8315
1.08267	8307
1.08333	8299
1.08400	8292
1.08467	8284
1.08533	8276
1.08600	8269
1.08667	8261
1.08733	8254
1.08800	8246
1.08867	8239
1.08933	8231
1.09000	8224
1.09067	8217
1.09133	8210
1.09200	8203
1.09267	8196
1.09333	8189
1.09400	8182
1.09467	8175
1.09533	8168
1.09600	8162
1.09667	8155
1.09733	8149
1.09800	8142
1.09867	8136
1.09933	8130
1.10000	8123
1.10067	8117
1.10133	8111
1.10200	8105
1.10267	8099
1.10333	8092
1.10400	8086
1.10467	8080
1.10533	8074
1.10600	8068
1.10667	8061
1.10733	8055
1.10800	8049
1.10867	8043
1.10933	8037
1.11000	8030
1.11067	8024
1.11133	8018
1.11200	8012
1.11267	8005
1.11333	7999
1.11400	7993
1.11467	7987
1.11533	7981
1.11600	7974
1.11667	7968
1.11733	7962
1.11800	7956
1.11867	7949
1.11933	7943
1.12000	7937
1.12067	7930
1.12133	7924
1.12200	7918
1.12267	7911
1.12333	7905
1.12400	7898
1.12467	7892
1.12533	7886
1.12600	7880
1.12667	7873
1.12733	7867
1.12800	7861
1.12867	7855
1.12933	7849
1.13000	7843
1.13067	7837
1.13133	7831
1.13200	7825
1.13267	7819
1.13333	7813
1.13400	7808
1.13467	7802
1.13533	7796
1.13600	7791
1.13667	7785
1.13733	7780
1.13800	7774
1.13867	7769
1.13933	7764
1.14000	7759
1.14067	7753
1.14133	7748
1.14200	7743
1.14267	7738
1.14333	7734
1.14400	7729
1.14467	7724
1.14533	7719
1.14600	7714
1.14667	7709
1.14733	7705
1.14800	7700
1.14867	7695
1.14933	7690
1.15000	7686
1.15067	7681
1.15133	7676
1.15200	7671
1.15267	7667
1.15333	7662
1.15400	7657
1.15467	7652
1.15533	7647
1.15600	7642
1.15667	7637
1.15733	7632
1.15800	7627
1.15867	7622
1.15933	7617
1.16000	7613
1.16067	7607
1.16133	7602
1.16200	7597
1.16267	7592
1.16333	7587
1.16400	7582
1.16467	7577
1.16533	7572
1.16600	7567
1.16667	7562
1.16733	7557
1.16800	7552
1.16867	7547
1.16933	7542
1.17000	7537
1.17067	7531
1.17133	7526
1.17200	7521
1.17267	7516
1.17333	7511
1.17400	7506
1.17467	7501
1.17533	7496
1.17600	7491
1.17667	7486
1.17733	7481
1.17800	7476
1.17867	7471
1.17933	7466
1.18000	7461
1.18067	7456
1.18133	7451
1.18200	7446
1.18267	7441
1.18333	7437
1.18400	7432
1.18467	7427
1.18533	7422
1.18600	7418
1.18667	7413
1.18733	7408
1.18800	7404
1.18867	7399
1.18933	7395
1.19000	7391
1.19067	7386
1.19133	7382
1.19200	7378
1.19267	7374
1.19333	7370
1.19400	7366
1.19467	7362
1.19533	7359
1.19600	7355
1.19667	7351
1.19733	7348
1.19800	7345
1.19867	7341
1.19933	7338
1.20000	7335
1.20067	7332
1.20133	7329
1.20200	7326
1.20267	7323
1.20333	7320
1.20400	7318
1.20467	7315
1.20533	7312
1.20600	7310
1.20667	7307
1.20733	7305
1.20800	7303
1.20867	7301
1.20933	7299
1.21000	7297
1.21067	7295
1.21133	7293
1.21200	7291
1.21267	7289
1.21333	7288
1.21400	7286
1.21467	7284
1.21533	7283
1.21600	7281
1.21667	7280
1.21733	7279
1.21800	7277
1.21867	7276
1.21933	7275
1.22000	7274
1.22067	7272
1.22133	7271
1.22200	7270
1.22267	7269
1.22333	7268
1.22400	7267
1.22467	7266
1.22533	7265
1.22600	7265
1.22667	7264
1.22733	7263
1.22800	7262
1.22867	7262
1.22933	7261
1.23000	7260
1.23067	7259
1.23133	7259
1.23200	7258
1.23267	7257
1.23333	7257
1.23400	7256
1.23467	7256
1.23533	7255
1.23600	7255
1.23667	7254
1.23733	7254
1.23800	7253
1.23867	7253
1.23933	7252
1.24000	7252
1.24067	7252
1.24133	7251
1.24200	7251
1.24267	7251
1.24333	7251
1.24400	7250
1.24467	7250
1.24533	7250
1.24600	7250
1.24667	7249
1.24733	7249
1.24800	7249
1.24867	7248
1.24933	7248
1.25000	7248
1.25067	7248
1.25133	7248
1.25200	7247
1.25267	7247
1.25333	7247
1.25400	7247
1.25467	7247
1.25533	7247
1.25600	7247
1.25667	7247
1.25733	7247
1.25800	7247
1.25867	7248
1.25933	7248
1.26000	7248
1.26067	7249
1.26133	7249
1.26200	7250
1.26267	7251
1.26333	7251
1.26400	7252
1.26467	7253
1.26533	7254
1.26600	7255
1.26667	7257
1.26733	7258
1.26800	7260
1.26867	7261
1.26933	7263
1.27000	7265
1.27067	7267
1.27133	7270
1.27200	7272
1.27267	7275
1.27333	7278
1.27400	7281
1.27467	7284
1.27533	7288
1.27600	7292
1.27667	7296
1.27733	7300
1.27800	7305
1.27867	7309
1.27933	7314
1.28000	7319
1.28067	7325
1.28133	7330
1.28200	7336
1.28267	7342
1.28333	7348
1.28400	7354
1.28467	7360
1.28533	7366
1.28600	7372
1.28667	7378
1.28733	7384
1.28800	7389
1.28867	7395
1.28933	7401
1.29000	7406
1.29067	7411
1.29133	7417
1.29200	7421
1.29267	7426
1.29333	7431
1.29400	7435
1.29467	7439
1.29533	7443
1.29600	7446
1.29667	7449
1.29733	7452
1.29800	7454
1.29867	7457
1.29933	7459
1.30000	7461
1.30067	7462
1.30133	7463
1.30200	7464
1.30267	7465
1.30333	7465
1.30400	7465
1.30467	7465
1.30533	7464
1.30600	7463
1.30667	7462
1.30733	7461
1.30800	7459
1.30867	7458
1.30933	7455
1.31000	7453
1.31067	7451
1.31133	7448
1.31200	7445
1.31267	7442
1.31333	7438
1.31400	7435
1.31467	7431
1.31533	7427
1.31600	7423
1.31667	7419
1.31733	7414
1.31800	7410
1.31867	7405
1.31933	7400
1.32000	7395
1.32067	7390
1.32133	7384
1.32200	7379
1.32267	7373
1.32333	7367
1.32400	7362
1.32467	7356
1.32533	7349
1.32600	7343
1.32667	7337
1.32733	7330
1.32800	7324
1.32867	7317
1.32933	7311
1.33000	7304
1.33067	7297
1.33133	7290
1.33200	7283
1.33267	7276
1.33333	7269
1.33400	7262
1.33467	7255
1.33533	7248
1.33600	7241
1.33667	7234
1.33733	7226
1.33800	7219
1.33867	7212
1.33933	7204
1.34000	7197
1.34067	7189
1.34133	7182
1.34200	7175
1.34267	7167
1.34333	7160
1.34400	7152
1.34467	7145
1.34533	7138
1.34600	7130
1.34667	7123
1.34733	7116
1.34800	7108
1.34867	7101
1.34933	7094
1.35000	7087
1.35067	7080
1.35133	7073
1.35200	7066
1.35267	7059
1.35333	7052
1.35400	7045
1.35467	7038
1.35533	7031
1.35600	7024
1.35667	7017
1.35733	7011
1.35800	7004
1.35867	6997
1.35933	6991
1.36000	6984
1.36067	6978
1.36133	6971
1.36200	6965
1.36267	6959
1.36333	6953
1.36400	6947
1.36467	6941
1.36533	6935
1.36600	6929
1.36667	6923
1.36733	6917
1.36800	6912
1.36867	6906
1.36933	6901
1.37000	6895
1.37067	6890
1.37133	6884
1.37200	6879
1.37267	6874
1.37333	6869
1.37400	6864
1.37467	6859
1.37533	6855
1.37600	6850
1.37667	6845
1.37733	6841
1.37800	6837
1.37867	6832
1.37933	6828
1.38000	6824
1.38067	6819
1.38133	6815
1.38200	6811
1.38267	6807
1.38333	6804
1.38400	6800
1.38467	6796
1.38533	6792
1.38600	6788
1.38667	6785
1.38733	6781
1.38800	6778
1.38867	6774
1.38933	6771
1.39000	6767
1.39067	6764
1.39133	6760
1.39200	6757
1.39267	6754
1.39333	6750
1.39400	6747
1.39467	6744
1.39533	6740
1.39600	6737
1.39667	6734
1.39733	6731
1.39800	6727
1.39867	6724
1.39933	6721
1.40000	6718
1.40067	6714
1.40133	6711
1.40200	6708
1.40267	6704
1.40333	6701
1.40400	6698
1.40467	6695
1.40533	6691
1.40600	6688
1.40667	6684
1.40733	6681
1.40800	6678
1.40867	6674
1.40933	6671
1.41000	6667
1.41067	6664
1.41133	6660
1.41200	6657
1.41267	6654
1.41333	6650
1.41400	6647
1.41467	6644
1.41533	6640
1.41600	6637
1.41667	6634
1.41733	6631
1.41800	6628
1.41867	6625
1.41933	6622
1.42000	6619
1.42067	6616
1.42133	6613
1.42200	6610
1.42267	6607
1.42333	6604
1.42400	6602
1.42467	6599
1.42533	6597
1.42600	6594
1.42667	6592
1.42733	6590
1.42800	6588
1.42867	6585
1.42933	6583
1.43000	6581
1.43067	6579
1.43133	6578
1.43200	6576
1.43267	6574
1.43333	6572
1.43400	6570
1.43467	6569
1.43533	6567
1.43600	6566
1.43667	6565
1.43733	6563
1.43800	6562
1.43867	6561
1.43933	6560
1.44000	6559
1.44067	6558
1.44133	6558
1.44200	6557
1.44267	6556
1.44333	6555
1.44400	6555
1.44467	6554
1.44533	6554
1.44600	6553
1.44667	6553
1.44733	6552
1.44800	6552
1.44867	6551
1.44933	6551
1.45000	6550
1.45067	6550
1.45133	6549
1.45200	6548
1.45267	6548
1.45333	6547
1.45400	6546
1.45467	6546
1.45533	6545
1.45600	6544
1.45667	6543
1.45733	6542
1.45800	6541
1.45867	6540
1.45933	6539
1.46000	6538
1.46067	6537
1.46133	6535
1.46200	6534
1.46267	6533
1.46333	6531
1.46400	6530
1.46467	6528
1.46533	6527
1.46600	6525
1.46667	6524
1.46733	6522
1.46800	6520
1.46867	6519
1.46933	6517
1.47000	6515
1.47067	6513
1.47133	6511
1.47200	6509
1.47267	6507
1.47333	6505
1.47400	6504
1.47467	6502
1.47533	6500
1.47600	6498
1.47667	6496
1.47733	6494
1.47800	6492
1.47867	6490
1.47933	6488
1.48000	6486
1.48067	6485
1.48133	6483
1.48200	6481
1.48267	6479
1.48333	6477
1.48400	6475
1.48467	6473
1.48533	6471
1.48600	6469
1.48667	6467
1.48733	6465
1.48800	6463
1.48867	6461
1.48933	6458
1.49000	6456
1.49067	6454
1.49133	6451
1.49200	6449
1.49267	6446
1.49333	6444
1.49400	6441
1.49467	6438
1.49533	6435
1.49600	6432
1.49667	6429
1.49733	6426
1.49800	6423
1.49867	6420
1.49933	6417
1.50000	6414
1.50067	6411
1.50133	6408
1.50200	6404
1.50267	6401
1.50333	6398
1.50400	6395
1.50467	6391
1.50533	6388
1.50600	6385
1.50667	6382
1.50733	6378
1.50800	6375
1.50867	6372
1.50933	6369
1.51000	6366
1.51067	6363
1.51133	6360
1.51200	6357
1.51267	6354
1.51333	6351
1.51400	6348
1.51467	6345
1.51533	6342
1.51600	6339
1.51667	6336
1.51733	6333
1.51800	6331
1.51867	6328
1.51933	6326
1.52000	6323
1.52067	6321
1.52133	6318
1.52200	6316
1.52267	6313
1.52333	6311
1.52400	6309
1.52467	6306
1.52533	6304
1.52600	6302
1.52667	6300
1.52733	6298
1.52800	6296
1.52867	6294
1.52933	6292
1.53000	6290
1.53067	6288
1.53133	6286
1.53200	6284
1.53267	6282
1.53333	6280
1.53400	6279
1.53467	6277
1.53533	6275
1.53600	6273
1.53667	6272
1.53733	6270
1.53800	6268
1.53867	6267
1.53933	6265
1.54000	6263
1.54067	6261
1.54133	6260
1.54200	6258
1.54267	6256
1.54333	6254
1.54400	6253
1.54467	6251
1.54533	6249
1.54600	6247
1.54667	6246
1.54733	6244
1.54800	6242
1.54867	6240
1.54933	6238
1.55000	6237
1.55067	6235
1.55133	6233
1.55200	6231
1.55267	6229
1.55333	6227
1.55400	6225
1.55467	6223
1.55533	6221
1.55600	6219
1.55667	6217
1.55733	6215
1.55800	6214
1.55867	6212
1.55933	6210
1.56000	6208
1.56067	6206
1.56133	6204
1.56200	6202
1.56267	6201
1.56333	6199
1.56400	6197
1.56467	6195
1.56533	6194
1.56600	6192
1.56667	6191
1.56733	6189
1.56800	6188
1.56867	6186
1.56933	6185
1.57000	6184
1.57067	6182
1.57133	6181
1.57200	6179
1.57267	6178
1.57333	6176
1.57400	6175
1.57467	6174
1.57533	6172
1.57600	6171
1.57667	6169
1.57733	6168
1.57800	6167
1.57867	6165
1.57933	6164
1.58000	6163
1.58067	6161
1.58133	6160
1.58200	6159
1.58267	6158
1.58333	6156
1.58400	6155
1.58467	6154
1.58533	6153
1.58600	6152
1.58667	6150
1.58733	6149
1.58800	6148
1.58867	6147
1.58933	6145
1.59000	6144
1.59067	6143
1.59133	6142
1.59200	6141
1.59267	6139
1.59333	6138
1.59400	6137
1.59467	6136
1.59533	6135
1.59600	6133
1.59667	6132
1.59733	6131
1.59800	6130
1.59867	6129
1.59933	6128
1.60000	6127
1.60067	6125
1.60133	6124
1.60200	6123
1.60267	6122
1.60333	6121
1.60400	6120
1.60467	6119
1.60533	6118
1.60600	6117
1.60667	6116
1.60733	6115
1.60800	6114
1.60867	6113
1.60933	6113
1.61000	6112
1.61067	6111
1.61133	6110
1.61200	6109
1.61267	6108
1.61333	6108
1.61400	6107
1.61467	6106
1.61533	6105
1.61600	6104
1.61667	6103
1.61733	6102
1.61800	6101
1.61867	6100
1.61933	6099
1.62000	6098
1.62067	6097
1.62133	6096
1.62200	6096
1.62267	6095
1.62333	6094
1.62400	6093
1.62467	6092
1.62533	6091
1.62600	6091
1.62667	6090
1.62733	6089
1.62800	6088
1.62867	6087
1.62933	6087
1.63000	6086
1.63067	6085
1.63133	6084
1.63200	6084
1.63267	6083
1.63333	6082
1.63400	6082
1.63467	6081
1.63533	6080
1.63600	6080
1.63667	6079
1.63733	6079
1.63800	6079
1.63867	6078
1.63933	6078
1.64000	6077
1.64067	6077
1.64133	6077
1.64200	6076
1.64267	6076
1.64333	6076
1.64400	6075
1.64467	6075
1.64533	6074
1.64600	6074
1.64667	6073
1.64733	6073
1.64800	6072
1.64867	6072
1.64933	6071
1.65000	6071
1.65067	6070
1.65133	6070
1.65200	6069
1.65267	6069
1.65333	6068
1.65400	6068
1.65467	6067
1.65533	6067
1.65600	6066
1.65667	6066
1.65733	6065
1.65800	6065
1.65867	6064
1.65933	6063
1.66000	6063
1.66067	6062
1.66133	6062
1.66200	6061
1.66267	6060
1.66333	6060
1.66400	6059
1.66467	6058
1.66533	6057
1.66600	6057
1.66667	6056
1.66733	6055
1.66800	6054
1.66867	6053
1.66933	6053
1.67000	6052
1.67067	6051
1.67133	6050
1.67200	6049
1.67267	6048
1.67333	6047
1.67400	6046
1.67467	6045
1.67533	6044
1.67600	6043
1.67667	6042
1.67733	6041
1.67800	6040
1.67867	6039
1.67933	6038
1.68000	6037
1.68067	6036
1.68133	6035
1.68200	6033
1.68267	6032
1.68333	6031
1.68400	6030
1.68467	6029
1.68533	6028
1.68600	6027
1.68667	6025
1.68733	6024
1.68800	6023
1.68867	6022
1.68933	6021
1.69000	6020
1.69067	6019
1.69133	6018
1.69200	6017
1.69267	6016
1.69333	6016
1.69400	6015
1.69467	6014
1.69533	6013
1.69600	6012
1.69667	6011
1.69733	6010
1.69800	6009
1.69867	6008
1.69933	6007
1.70000	6006
1.70067	6005
1.70133	6004
1.70200	6003
1.70267	6002
1.70333	6001
1.70400	6000
1.70467	5999
1.70533	5998
1.70600	5997
1.70667	5996
1.70733	5995
1.70800	5994
1.70867	5993
1.70933	5992
1.71000	5991
1.71067	5990
1.71133	5990
1.71200	5989
1.71267	5989
1.71333	5988
1.71400	5988
1.71467	5989
1.71533	5989
1.71600	5991
1.71667	5993
1.71733	5995
1.71800	5999
1.71867	6004
1.71933	6011
1.72000	6019
1.72067	6030
1.72133	6044
1.72200	6061
1.72267	6083
1.72333	6110
1.72400	6144
1.72467	6185
1.72533	6235
1.72600	6296
1.72667	6369
1.72733	6458
1.72800	6564
1.72867	6691
1.72933	6841
1.73000	7018
1.73067	7228
1.73133	7473
1.73200	7760
1.73267	8095
1.73333	8485
1.73400	8936
1.73467	9456
1.73533	10054
1.73600	10737
1.73667	11517
1.73733	12402
1.73800	13403
1.73867	14533
1.73933	15802
1.74000	17224
1.74067	18810
1.74133	20575
1.74200	22529
1.74267	24686
1.74333	27061
1.74400	29670
1.74467	32527
1.74533	35647
1.74600	39044
1.74667	42733
1.74733	46728
1.74800	51041
1.74867	55684
1.74933	60668
1.75000	65999
1.75067	71685
1.75133	77732
1.75200	84146
1.75267	90935
1.75333	98104
1.75400	105656
1.75467	113589
1.75533	121897
1.75600	130573
1.75667	139604
1.75733	148974
1.75800	158663
1.75867	168648
1.75933	178901
1.76000	189397
1.76067	200106
1.76133	210997
1.76200	222036
1.76267	233190
1.76333	244424
1.76400	255699
1.76467	266976
1.76533	278215
1.76600	289373
1.76667	300405
1.76733	311266
1.76800	321911
1.76867	332295
1.76933	342377
1.77000	352118
1.77067	361480
1.77133	370428
1.77200	378927
1.77267	386946
1.77333	394456
1.77400	401434
1.77467	407859
1.77533	413719
1.77600	419003
1.77667	423707
1.77733	427828
1.77800	431370
1.77867	434338
1.77933	436741
1.78000	438590
1.78067	439899
1.78133	440682
1.78200	440959
1.78267	440747
1.78333	440068
1.78400	438943
1.78467	437395
1.78533	435445
1.78600	433116
1.78667	430430
1.78733	427411
1.78800	424079
1.78867	420457
1.78933	416566
1.79000	412425
1.79067	408054
1.79133	403474
1.79200	398703
1.79267	393757
1.79333	388655
1.79400	383413
1.79467	378046
1.79533	372570
1.79600	366998
1.79667	361343
1.79733	355619
1.79800	349837
1.79867	344009
1.79933	338145
1.80000	332255
1.80067	326349
1.80133	320435
1.80200	314522
1.80267	308616
1.80333	302726
1.80400	296858
1.80467	291018
1.80533	285212
1.80600	279445
1.80667	273721
1.80733	268046
1.80800	262424
1.80867	256857
1.80933	251351
1.81000	245907
1.81067	240529
1.81133	235218
1.81200	229978
1.81267	224811
1.81333	219717
1.81400	214699
1.81467	209758
1.81533	204895
1.81600	200112
1.81667	195408
1.81733	190784
1.81800	186242
1.81867	181781
1.81933	177401
1.82000	173103
1.82067	168887
1.82133	164751
1.82200	160697
1.82267	156724
1.82333	152831
1.82400	149018
1.82467	145284
1.82533	141629
1.82600	138052
1.82667	134553
1.82733	131129
1.82800	127781
1.82867	124508
1.82933	121309
1.83000	118183
1.83067	115128
1.83133	112145
1.83200	109231
1.83267	106385
1.83333	103608
1.83400	100897
1.83467	98251
1.83533	95670
1.83600	93152
1.83667	90697
1.83733	88302
1.83800	85968
1.83867	83692
1.83933	81473
1.84000	79311
1.84067	77205
1.84133	75153
1.84200	73154
1.84267	71207
1.84333	69311
1.84400	67465
1.84467	65668
1.84533	63919
1.84600	62216
1.84667	60559
1.84733	58947
1.84800	57378
1.84867	55852
1.84933	54367
1.85000	52923
1.85067	51519
1.85133	50154
1.85200	48826
1.85267	47535
1.85333	46281
1.85400	45061
1.85467	43875
1.85533	42723
1.85600	41604
1.85667	40516
1.85733	39459
1.85800	38432
1.85867	37435
1.85933	36466
1.86000	35525
1.86067	34611
1.86133	33723
1.86200	32861
1.86267	32024
1.86333	31211
1.86400	30422
1.86467	29656
1.86533	28913
1.86600	28191
1.86667	27490
1.86733	26810
1.86800	26150
1.86867	25509
1.86933	24888
1.87000	24284
1.87067	23699
1.87133	23131
1.87200	22580
1.87267	22046
1.87333	21527
1.87400	21024
1.87467	20536
1.87533	20063
1.87600	19603
1.87667	19158
1.87733	18726
1.87800	18307
1.87867	17901
1.87933	17507
1.88000	17125
1.88067	16755
1.88133	16396
1.88200	16048
1.88267	15711
1.88333	15384
1.88400	15067
1.88467	14759
1.88533	14461
1.88600	14173
1.88667	13893
1.88733	13622
1.88800	13359
1.88867	13105
1.88933	12858
1.89000	12619
1.89067	12388
1.89133	12163
1.89200	11946
1.89267	11736
1.89333	11532
1.89400	11334
1.89467	11143
1.89533	10958
1.89600	10778
1.89667	10604
1.89733	10436
1.89800	10272
1.89867	10114
1.89933	9961
1.90000	9813
1.90067	9669
1.90133	9530
1.90200	9395
1.90267	9265
1.90333	9138
1.90400	9015
1.90467	8897
1.90533	8782
1.90600	8670
1.90667	8562
1.90733	8458
1.90800	8356
1.90867	8258
1.90933	8163
1.91000	8071
1.91067	7981
1.91133	7895
1.91200	7810
1.91267	7729
1.91333	7650
1.91400	7573
1.91467	7499
1.91533	7427
1.91600	7357
1.91667	7289
1.91733	7223
1.91800	7160
1.91867	7098
1.91933	7037
1.92000	6979
1.92067	6922
1.92133	6867
1.92200	6814
1.92267	6762
1.92333	6712
1.92400	6663
1.92467	6616
1.92533	6570
1.92600	6525
1.92667	6482
1.92733	6440
1.92800	6399
1.92867	6359
1.92933	6321
1.93000	6283
1.93067	6247
1.93133	6212
1.93200	6177
1.93267	6144
1.93333	6112
1.93400	6080
1.93467	6050
1.93533	6020
1.93600	5991
1.93667	5963
1.93733	5936
1.93800	5910
1.93867	5884
1.93933	5859
1.94000	5835
1.94067	5812
1.94133	5789
1.94200	5767
1.94267	5745
1.94333	5724
1.94400	5704
1.94467	5685
1.94533	5666
1.94600	5647
1.94667	5630
1.94733	5612
1.94800	5595
1.94867	5579
1.94933	5563
1.95000	5547
1.95067	5532
1.95133	5518
1.95200	5504
1.95267	5490
1.95333	5476
1.95400	5463
1.95467	5450
1.95533	5438
1.95600	5426
1.95667	5414
1.95733	5403
1.95800	5392
1.95867	5381
1.95933	5370
1.96000	5360
1.96067	5350
1.96133	5340
1.96200	5331
1.96267	5321
1.96333	5312
1.96400	5303
1.96467	5295
1.96533	5287
1.96600	5278
1.96667	5270
1.96733	5263
1.96800	5255
1.96867	5248
1.96933	5240
1.97000	5233
1.97067	5226
1.97133	5219
1.97200	5213
1.97267	5206
1.97333	5200
1.97400	5193
1.97467	5187
1.97533	5181
1.97600	5176
1.97667	5170
1.97733	5164
1.97800	5159
1.97867	5153
1.97933	5148
1.98000	5142
1.98067	5137
1.98133	5132
1.98200	5127
1.98267	5122
1.98333	5117
1.98400	5113
1.98467	5108
1.98533	5103
1.98600	5099
1.98667	5094
1.98733	5090
1.98800	5086
1.98867	5082
1.98933	5078
1.99000	5074
1.99067	5070
1.99133	5066
1.99200	5062
1.99267	5058
1.99333	5054
1.99400	5051
1.99467	5047
1.99533	5044
1.99600	5040
1.99667	5037
1.99733	5034
1.99800	5030
1.99867	5027
1.99933	5024
2.00000	5021
2.00067	5018
2.00133	5015
2.00200	5012
2.00267	5009
2.00333	5006
2.00400	5003
2.00467	5000
2.00533	4997
2.00600	4994
2.00667	4991
2.00733	4989
2.00800	4986
2.00867	4983
2.00933	4980
2.01000	4977
2.01067	4974
2.01133	4971
2.01200	4969
2.01267	4966
2.01333	4963
2.01400	4960
2.01467	4958
2.01533	4955
2.01600	4952
2.01667	4950
2.01733	4947
2.01800	4945
2.01867	4942
2.01933	4940
2.02000	4938
2.02067	4935
2.02133	4933
2.02200	4930
2.02267	4928
2.02333	4926
2.02400	4924
2.02467	4922
2.02533	4920
2.02600	4917
2.02667	4915
2.02733	4913
2.02800	4911
2.02867	4910
2.02933	4908
2.03000	4906
2.03067	4904
2.03133	4902
2.03200	4900
2.03267	4898
2.03333	4896
2.03400	4895
2.03467	4893
2.03533	4891
2.03600	4889
2.03667	4888
2.03733	4886
2.03800	4885
2.03867	4883
2.03933	4881
2.04000	4880
2.04067	4878
2.04133	4877
2.04200	4875
2.04267	4873
2.04333	4872
2.04400	4870
2.04467	4868
2.04533	4867
2.04600	4865
2.04667	4863
2.04733	4862
2.04800	4860
2.04867	4858
2.04933	4857
2.05000	4855
2.05067	4853
2.05133	4852
2.05200	4850
2.05267	4849
2.05333	4847
2.05400	4845
2.05467	4843
2.05533	4842
2.05600	4840
2.05667	4838
2.05733	4837
2.05800	4835
2.05867	4833
2.05933	4831
2.06000	4830
2.06067	4828
2.06133	4826
2.06200	4825
2.06267	4823
2.06333	4822
2.06400	4820
2.06467	4819
2.06533	4817
2.06600	4816
2.06667	4814
2.06733	4813
2.06800	4811
2.06867	4810
2.06933	4808
2.07000	4806
2.07067	4805
2.07133	4803
2.07200	4802
2.07267	4800
2.07333	4799
2.07400	4797
2.07467	4796
2.07533	4795
2.07600	4793
2.07667	4792
2.07733	4791
2.07800	4790
2.07867	4788
2.07933	4787
2.08000	4786
2.08067	4785
2.08133	4783
2.08200	4782
2.08267	4781
2.08333	4779
2.08400	4778
2.08467	4777
2.08533	4776
2.08600	4774
2.08667	4773
2.08733	4772
2.08800	4770
2.08867	4769
2.08933	4768
2.09000	4766
2.09067	4765
2.09133	4764
2.09200	4762
2.09267	4761
2.09333	4760
2.09400	4758
2.09467	4757
2.09533	4756
2.09600	4754
2.09667	4753
2.09733	4751
2.09800	4750
2.09867	4748
2.09933	4747
2.10000	4745
2.10067	4744
2.10133	4742
2.10200	4741
2.10267	4739
2.10333	4738
2.10400	4736
2.10467	4735
2.10533	4733
2.10600	4732
2.10667	4730
2.10733	4729
2.10800	4728
2.10867	4726
2.10933	4725
2.11000	4723
2.11067	4722
2.11133	4721
2.11200	4720
2.11267	4718
2.11333	4717
2.11400	4716
2.11467	4715
2.11533	4713
2.11600	4712
2.11667	4711
2.11733	4710
2.11800	4709
2.11867	4707
2.11933	4706
2.12000	4705
2.12067	4703
2.12133	4702
2.12200	4701
2.12267	4699
2.12333	4698
2.12400	4696
2.12467	4695
2.12533	4693
2.12600	4692
2.12667	4690
2.12733	4689
2.12800	4687
2.12867	4686
2.12933	4685
2.13000	4683
2.13067	4682
2.13133	4680
2.13200	4679
2.13267	4677
2.13333	4676
2.13400	4675
2.13467	4673
2.13533	4672
2.13600	4670
2.13667	4669
2.13733	4668
2.13800	4666
2.13867	4665
2.13933	4663
2.14000	4662
2.14067	4660
2.14133	4659
2.14200	4658
2.14267	4656
2.14333	4655
2.14400	4653
2.14467	4652
2.14533	4650
2.14600	4649
2.14667	4647
2.14733	4646
2.14800	4644
2.14867	4643
2.14933	4641
2.15000	4640
2.15067	4638
2.15133	4637
2.15200	4635
2.15267	4634
2.15333	4632
2.15400	4631
2.15467	4630
2.15533	4628
2.15600	4627
2.15667	4625
2.15733	4624
2.15800	4622
2.15867	4621
2.15933	4620
2.16000	4618
2.16067	4617
2.16133	4615
2.16200	4614
2.16267	4613
2.16333	4611
2.16400	4610
2.16467	4608
2.16533	4607
2.16600	4606
2.16667	4604
2.16733	4603
2.16800	4601
2.16867	4600
2.16933	4599
2.17000	4597
2.17067	4596
2.17133	4594
2.17200	4593
2.17267	4592
2.17333	4590
2.17400	4589
2.17467	4587
2.17533	4586
2.17600	4584
2.17667	4583
2.17733	4581
2.17800	4580
2.17867	4579
2.17933	4577
2.18000	4576
2.18067	4574
2.18133	4573
2.18200	4572
2.18267	4570
2.18333	4569
2.18400	4568
2.18467	4566
2.18533	4565
2.18600	4564
2.18667	4563
2.18733	4561
2.18800	4560
2.18867	4559
2.18933	4558
2.19000	4557
2.19067	4556
2.19133	4555
2.19200	4554
2.19267	4553
2.19333	4552
2.19400	4551
2.19467	4549
2.19533	4548
2.19600	4547
2.19667	4547
2.19733	4546
2.19800	4545
2.19867	4544
2.19933	4543
2.20000	4542
2.20067	4542
2.20133	4541
2.20200	4540
2.20267	4540
2.20333	4539
2.20400	4539
2.20467	4538
2.20533	4538
2.20600	4537
2.20667	4537
2.20733	4537
2.20800	4536
2.20867	4536
2.20933	4536
2.21000	4536
2.21067	4536
2.21133	4536
2.21200	4536
2.21267	4537
2.21333	4537
2.21400	4537
2.21467	4538
2.21533	4538
2.21600	4539
2.21667	4539
2.21733	4540
2.21800	4540
2.21867	4541
2.21933	4542
2.22000	4542
2.22067	4543
2.22133	4544
2.22200	4545
2.22267	4545
2.22333	4546
2.22400	4547
2.22467	4547
2.22533	4548
2.22600	4549
2.22667	4549
2.22733	4550
2.22800	4550
2.22867	4551
2.22933	4551
2.23000	4551
2.23067	4552
2.23133	4552
2.23200	4552
2.23267	4552
2.23333	4552
2.23400	4553
2.23467	4553
2.23533	4553
2.23600	4552
2.23667	4552
2.23733	4552
2.23800	4552
2.23867	4552
2.23933	4551
2.24000	4551
2.24067	4551
2.24133	4550
2.24200	4550
2.24267	4550
2.24333	4549
2.24400	4549
2.24467	4548
2.24533	4548
2.24600	4548
2.24667	4547
2.24733	4547
2.24800	4546
2.24867	4546
2.24933	4545
2.25000	4544
2.25067	4544
2.25133	4543
2.25200	4542
2.25267	4542
2.25333	4541
2.25400	4540
2.25467	4539
2.25533	4539
2.25600	4538
2.25667	4537
2.25733	4536
2.25800	4535
2.25867	4535
2.25933	4534
2.26000	4533
2.26067	4532
2.26133	4531
2.26200	4531
2.26267	4530
2.26333	4529
2.26400	4528
2.26467	4527
2.26533	4526
2.26600	4526
2.26667	4525
2.26733	4524
2.26800	4523
2.26867	4522
2.26933	4521
2.27000	4520
2.27067	4519
2.27133	4518
2.27200	4517
2.27267	4516
2.27333	4515
2.27400	4514
2.27467	4512
2.27533	4511
2.27600	4510
2.27667	4509
2.27733	4507
2.27800	4506
2.27867	4505
2.27933	4503
2.28000	4502
2.28067	4501
2.28133	4499
2.28200	4498
2.28267	4497
2.28333	4495
2.28400	4494
2.28467	4492
2.28533	4491
2.28600	4490
2.28667	4489
2.28733	4487
2.28800	4486
2.28867	4485
2.28933	4483
2.29000	4482
2.29067	4481
2.29133	4480
2.29200	4479
2.29267	4477
2.29333	4476
2.29400	4475
2.29467	4474
2.29533	4473
2.29600	4472
2.29667	4471
2.29733	4470
2.29800	4469
2.29867	4468
2.29933	4467
2.30000	4466
2.30067	4465
2.30133	4465
2.30200	4464
2.30267	4463
2.30333	4462
2.30400	4461
2.30467	4461
2.30533	4460
2.30600	4459
2.30667	4459
2.30733	4458
2.30800	4458
2.30867	4457
2.30933	4456
2.31000	4456
2.31067	4455
2.31133	4455
2.31200	4454
2.31267	4454
2.31333	4453
2.31400	4453
2.31467	4452
2.31533	4452
2.31600	4451
2.31667	4451
2.31733	4450
2.31800	4450
2.31867	4449
2.31933	4449
2.32000	4449
2.32067	4448
2.32133	4448
2.32200	4448
2.32267	4447
2.32333	4447
2.32400	4447
2.32467	4447
2.32533	4446
2.32600	4446
2.32667	4446
2.32733	4446
2.32800	4446
2.32867	4446
2.32933	4446
2.33000	4446
2.33067	4446
2.33133	4446
2.33200	4446
2.33267	4446
2.33333	4446
2.33400	4446
2.33467	4446
2.33533	4446
2.33600	4446
2.33667	4446
2.33733	4447
2.33800	4447
2.33867	4447
2.33933	4447
2.34000	4447
2.34067	4447
2.34133	4447
2.34200	4447
2.34267	4448
2.34333	4448
2.34400	4448
2.34467	4448
2.34533	4448
2.34600	4448
2.34667	4448
2.34733	4448
2.34800	4448
2.34867	4448
2.34933	4449
2.35000	4449
2.35067	4449
2.35133	4449
2.35200	4449
2.35267	4449
2.35333	4450
2.35400	4450
2.35467	4450
2.35533	4450
2.35600	4451
2.35667	4451
2.35733	4451
2.35800	4451
2.35867	4451
2.35933	4452
2.36000	4452
2.36067	4452
2.36133	4452
2.36200	4452
2.36267	4452
2.36333	4452
2.36400	4453
2.36467	4453
2.36533	4453
2.36600	4453
2.36667	4453
2.36733	4454
2.36800	4454
2.36867	4454
2.36933	4454
2.37000	4455
2.37067	4455
2.37133	4455
2.37200	4456
2.37267	4456
2.37333	4456
2.37400	4456
2.37467	4456
2.37533	4457
2.37600	4457
2.37667	4457
2.37733	4457
2.37800	4457
2.37867	4457
2.37933	4457
2.38000	4457
2.38067	4457
2.38133	4456
2.38200	4456
2.38267	4456
2.38333	4456
2.38400	4456
2.38467	4456
2.38533	4455
2.38600	4455
2.38667	4455
2.38733	4454
2.38800	4454
2.38867	4454
2.38933	4453
2.39000	4453
2.39067	4453
2.39133	4452
2.39200	4452
2.39267	4452
2.39333	4451
2.39400	4451
2.39467	4450
2.39533	4450
2.39600	4449
2.39667	4449
2.39733	4448
2.39800	4448
2.39867	4447
2.39933	4447
2.40000	4446
2.40067	4446
2.40133	4445
2.40200	4445
2.40267	4444
2.40333	4444
2.40400	4443
2.40467	4443
2.40533	4442
2.40600	4442
2.40667	4441
2.40733	4441
2.40800	4440
2.40867	4440
2.40933	4439
2.41000	4439
2.41067	4439
2.41133	4438
2.41200	4438
2.41267	4438
2.41333	4437
2.41400	4437
2.41467	4437
2.41533	4436
2.41600	4436
2.41667	4436
2.41733	4435
2.41800	4435
2.41867	4434
2.41933	4434
2.42000	4434
2.42067	4433
2.42133	4433
2.42200	4432
2.42267	4432
2.42333	4431
2.42400	4430
2.42467	4430
2.42533	4429
2.42600	4429
2.42667	4428
2.42733	4427
2.42800	4426
2.42867	4426
2.42933	4425
2.43000	4424
2.43067	4423
2.43133	4422
2.43200	4421
2.43267	4420
2.43333	4419
2.43400	4418
2.43467	4417
2.43533	4416
2.43600	4415
2.43667	4414
2.43733	4413
2.43800	4412
2.43867	4411
2.43933	4410
2.44000	4408
2.44067	4407
2.44133	4406
2.44200	4405
2.44267	4403
2.44333	4402
2.44400	4400
2.44467	4399
2.44533	4398
2.44600	4396
2.44667	4395
2.44733	4393
2.44800	4392
2.44867	4390
2.44933	4389
2.45000	4387
2.45067	4386
2.45133	4384
2.45200	4383
2.45267	4381
2.45333	4380
2.45400	4378
2.45467	4377
2.45533	4375
2.45600	4374
2.45667	4372
2.45733	4370
2.45800	4369
2.45867	4367
2.45933	4365
2.46000	4364
2.46067	4362
2.46133	4361
2.46200	4359
2.46267	4357
2.46333	4356
2.46400	4354
2.46467	4353
2.46533	4351
2.46600	4350
2.46667	4349
2.46733	4347
2.46800	4346
2.46867	4344
2.46933	4343
2.47000	4341
2.47067	4340
2.47133	4339
2.47200	4337
2.47267	4336
2.47333	4334
2.47400	4333
2.47467	4332
2.47533	4330
2.47600	4329
2.47667	4328
2.47733	4326
2.47800	4325
2.47867	4323
2.47933	4322
2.48000	4321
2.48067	4319
2.48133	4318
2.48200	4317
2.48267	4315
2.48333	4314
2.48400	4312
2.48467	4311
2.48533	4310
2.48600	4308
2.48667	4307
2.48733	4305
2.48800	4304
2.48867	4302
2.48933	4301
2.49000	4300
2.49067	4298
2.49133	4297
2.49200	4295
2.49267	4294
2.49333	4293
2.49400	4291
2.49467	4290
2.49533	4288
2.49600	4287
2.49667	4286
2.49733	4284
2.49800	4283
2.49867	4281
2.49933	4280
2.50000	4278
2.50067	4277
2.50133	4276
2.50200	4274
2.50267	4273
2.50333	4271
2.50400	4270
2.50467	4268
2.50533	4267
2.50600	4265
2.50667	4264
2.50733	4262
2.50800	4261
2.50867	4259
2.50933	4258
2.51000	4256
2.51067	4255
2.51133	4253
2.51200	4252
2.51267	4250
2.51333	4249
2.51400	4247
2.51467	4245
2.51533	4244
2.51600	4242
2.51667	4241
2.51733	4239
2.51800	4238
2.51867	4236
2.51933	4235
2.52000	4233
2.52067	4232
2.52133	4230
2.52200	4229
2.52267	4227
2.52333	4226
2.52400	4224
2.52467	4223
2.52533	4221
2.52600	4220
2.52667	4218
2.52733	4217
2.52800	4216
2.52867	4214
2.52933	4213
2.53000	4211
2.53067	4210
2.53133	4208
2.53200	4207
2.53267	4205
2.53333	4204
2.53400	4202
2.53467	4201
2.53533	4199
2.53600	4198
2.53667	4196
2.53733	4195
2.53800	4193
2.53867	4192
2.53933	4190
2.54000	4189
2.54067	4187
2.54133	4185
2.54200	4184
2.54267	4182
2.54333	4181
2.54400	4179
2.54467	4178
2.54533	4176
2.54600	4175
2.54667	4173
2.54733	4172
2.54800	4170
2.54867	4169
2.54933	4168
2.55000	4166
2.55067	4165
2.55133	4163
2.55200	4162
2.55267	4161
2.55333	4160
2.55400	4158
2.55467	4157
2.55533	4156
2.55600	4154
2.55667	4153
2.55733	4152
2.55800	4151
2.55867	4149
2.55933	4148
2.56000	4147
2.56067	4146
2.56133	4144
2.56200	4143
2.56267	4142
2.56333	4141
2.56400	4140
2.56467	4138
2.56533	4137
2.56600	4136
2.56667	4135
2.56733	4134
2.56800	4133
2.56867	4132
2.56933	4131
2.57000	4130
2.57067	4129
2.57133	4128
2.57200	4126
2.57267	4125
2.57333	4124
2.57400	4123
2.57467	4122
2.57533	4121
2.57600	4120
2.57667	4119
2.57733	4119
2.57800	4118
2.57867	4117
2.57933	4116
2.58000	4115
2.58067	4114
2.58133	4114
2.58200	4113
2.58267	4112
2.58333	4111
2.58400	4110
2.58467	4110
2.58533	4109
2.58600	4108
2.58667	4107
2.58733	4106
2.58800	4105
2.58867	4105
2.58933	4104
2.59000	4103
2.59067	4102
2.59133	4101
2.59200	4100
2.59267	4100
2.59333	4099
2.59400	4098
2.59467	4097
2.59533	4097
2.59600	4096
2.59667	4095
2.59733	4094
2.59800	4093
2.59867	4093
2.59933	4092
2.60000	4091
2.60067	4090
2.60133	4090
2.60200	4089
2.60267	4088
2.60333	4087
2.60400	4087
2.60467	4086
2.60533	4085
2.60600	4084
2.60667	4084
2.60733	4083
2.60800	4082
2.60867	4081
2.60933	4081
2.61000	4080
2.61067	4079
2.61133	4078
2.61200	4077
2.61267	4077
2.61333	4076
2.61400	4075
2.61467	4074
2.61533	4074
2.61600	4073
2.61667	4072
2.61733	4071
2.61800	4070
2.61867	4069
2.61933	4069
2.62000	4068
2.62067	4067
2.62133	4066
2.62200	4065
2.62267	4065
2.62333	4064
2.62400	4063
2.62467	4062
2.62533	4062
2.62600	4061
2.62667	4060
2.62733	4059
2.62800	4058
2.62867	4058
2.62933	4057
2.63000	4056
2.63067	4055
2.63133	4054
2.63200	4053
2.63267	4052
2.63333	4051
2.63400	4050
2.63467	4050
2.63533	4049
2.63600	4048
2.63667	4047
2.63733	4046
2.63800	4045
2.63867	4044
2.63933	4043
2.64000	4042
2.64067	4041
2.64133	4040
2.64200	4039
2.64267	4038
2.64333	4037
2.64400	4037
2.64467	4036
2.64533	4035
2.64600	4034
2.64667	4033
2.64733	4032
2.64800	4031
2.64867	4030
2.64933	4029
2.65000	4027
2.65067	4026
2.65133	4025
2.65200	4024
2.65267	4023
2.65333	4022
2.65400	4021
2.65467	4020
2.65533	4018
2.65600	4017
2.65667	4016
2.65733	4015
2.65800	4014
2.65867	4013
2.65933	4012
2.66000	4010
2.66067	4009
2.66133	4008
2.66200	4007
2.66267	4006
2.66333	4005
2.66400	4004
2.66467	4002
2.66533	4001
2.66600	4000
2.66667	3999
2.66733	3998
2.66800	3997
2.66867	3996
2.66933	3995
2.67000	3994
2.67067	3993
2.67133	3991
2.67200	3990
2.67267	3989
2.67333	3988
2.67400	3987
2.67467	3986
2.67533	3985
2.67600	3983
2.67667	3982
2.67733	3981
2.67800	3980
2.67867	3979
2.67933	3978
2.68000	3977
2.68067	3975
2.68133	3974
2.68200	3973
2.68267	3972
2.68333	3971
2.68400	3970
2.68467	3969
2.68533	3968
2.68600	3966
2.68667	3965
2.68733	3964
2.68800	3963
2.68867	3963
2.68933	3962
2.69000	3961
2.69067	3960
2.69133	3959
2.69200	3959
2.69267	3958
2.69333	3957
2.69400	3956
2.69467	3955
2.69533	3954
2.69600	3954
2.69667	3953
2.69733	3952
2.69800	3951
2.69867	3950
2.69933	3950
2.70000	3949
2.70067	3948
2.70133	3947
2.70200	3946
2.70267	3946
2.70333	3945
2.70400	3944
2.70467	3944
2.70533	3943
2.70600	3942
2.70667	3941
2.70733	3940
2.70800	3940
2.70867	3939
2.70933	3938
2.71000	3937
2.71067	3937
2.71133	3936
2.71200	3935
2.71267	3934
2.71333	3933
2.71400	3933
2.71467	3932
2.71533	3931
2.71600	3931
2.71667	3930
2.71733	3929
2.71800	3928
2.71867	3928
2.71933	3927
2.72000	3926
2.72067	3926
2.72133	3925
2.72200	3924
2.72267	3924
2.72333	3923
2.72400	3923
2.72467	3922
2.72533	3922
2.72600	3921
2.72667	3921
2.72733	3920
2.72800	3920
2.72867	3919
2.72933	3919
2.73000	3918
2.73067	3918
2.73133	3917
2.73200	3917
2.73267	3917
2.73333	3916
2.73400	3916
2.73467	3915
2.73533	3915
2.73600	3915
2.73667	3915
2.73733	3914
2.73800	3914
2.73867	3914
2.73933	3914
2.74000	3914
2.74067	3914
2.74133	3913
2.74200	3913
2.74267	3913
2.74333	3913
2.74400	3913
2.74467	3913
2.74533	3913
2.74600	3913
2.74667	3913
2.74733	3913
2.74800	3913
2.74867	3913
2.74933	3913
2.75000	3913
2.75067	3913
2.75133	3913
2.75200	3913
2.75267	3913
2.75333	3913
2.75400	3913
2.75467	3913
2.75533	3913
2.75600	3914
2.75667	3914
2.75733	3914
2.75800	3914
2.75867	3914
2.75933	3915
2.76000	3915
2.76067	3915
2.76133	3916
2.76200	3916
2.76267	3916
2.76333	3917
2.76400	3917
2.76467	3918
2.76533	3918
2.76600	3919
2.76667	3919
2.76733	3920
2.76800	3921
2.76867	3921
2.76933	3922
2.77000	3923
2.77067	3924
2.77133	3924
2.77200	3925
2.77267	3926
2.77333	3927
2.77400	3928
2.77467	3929
2.77533	3930
2.77600	3932
2.77667	3933
2.77733	3934
2.77800	3935
2.77867	3937
2.77933	3938
2.78000	3939
2.78067	3941
2.78133	3942
2.78200	3944
2.78267	3946
2.78333	3947
2.78400	3949
2.78467	3951
2.78533	3953
2.78600	3955
2.78667	3957
2.78733	3959
2.78800	3961
2.78867	3963
2.78933	3965
2.79000	3967
2.79067	3970
2.79133	3972
2.79200	3975
2.79267	3977
2.79333	3980
2.79400	3983
2.79467	3985
2.79533	3988
2.79600	3991
2.79667	3994
2.79733	3998
2.79800	4001
2.79867	4004
2.79933	4008
2.80000	4011
2.80067	4015
2.80133	4018
2.80200	4022
2.80267	4026
2.80333	4029
2.80400	4033
2.80467	4037
2.80533	4041
2.80600	4045
2.80667	4049
2.80733	4054
2.80800	4058
2.80867	4062
2.80933	4066
2.81000	4071
2.81067	4075
2.81133	4079
2.81200	4083
2.81267	4087
2.81333	4092
2.81400	4096
2.81467	4100
2.81533	4104
2.81600	4108
2.81667	4112
2.81733	4116
2.81800	4120
2.81867	4123
2.81933	4127
2.82000	4131
2.82067	4134
2.82133	4138
2.82200	4141
2.82267	4144
2.82333	4147
2.82400	4150
2.82467	4153
2.82533	4156
2.82600	4159
2.82667	4161
2.82733	4164
2.82800	4166
2.82867	4168
2.82933	4170
2.83000	4172
2.83067	4174
2.83133	4175
2.83200	4177
2.83267	4178
2.83333	4179
2.83400	4180
2.83467	4181
2.83533	4182
2.83600	4182
2.83667	4183
2.83733	4183
2.83800	4183
2.83867	4183
2.83933	4182
2.84000	4182
2.84067	4181
2.84133	4181
2.84200	4180
2.84267	4179
2.84333	4178
2.84400	4177
2.84467	4175
2.84533	4174
2.84600	4172
2.84667	4171
2.84733	4169
2.84800	4167
2.84867	4166
2.84933	4164
2.85000	4162
2.85067	4160
2.85133	4158
2.85200	4155
2.85267	4153
2.85333	4151
2.85400	4149
2.85467	4146
2.85533	4144
2.85600	4141
2.85667	4139
2.85733	4136
2.85800	4134
2.85867	4131
2.85933	4128
2.86000	4126
2.86067	4123
2.86133	4121
2.86200	4118
2.86267	4115
2.86333	4113
2.86400	4110
2.86467	4107
2.86533	4105
2.86600	4102
2.86667	4100
2.86733	4097
2.86800	4094
2.86867	4092
2.86933	4089
2.87000	4087
2.87067	4084
2.87133	4082
2.87200	4080
2.87267	4077
2.87333	4075
2.87400	4073
2.87467	4070
2.87533	4068
2.87600	4066
2.87667	4063
2.87733	4061
2.87800	4059
2.87867	4057
2.87933	4055
2.88000	4053
2.88067	4050
2.88133	4048
2.88200	4046
2.88267	4044
2.88333	4042
2.88400	4040
2.88467	4038
2.88533	4036
2.88600	4034
2.88667	4033
2.88733	4031
2.88800	4029
2.88867	4027
2.88933	4025
2.89000	4024
2.89067	4022
2.89133	4021
2.89200	4019
2.89267	4017
2.89333	4016
2.89400	4015
2.89467	4013
2.89533	4012
2.89600	4011
2.89667	4009
2.89733	4008
2.89800	4007
2.89867	4006
2.89933	4004
2.90000	4003
2.90067	4002
2.90133	4001
2.90200	4000
2.90267	3998
2.90333	3997
2.90400	3996
2.90467	3995
2.90533	3993
2.90600	3992
2.90667	3991
2.90733	3990
2.90800	3988
2.90867	3987
2.90933	3986
2.91000	3984
2.91067	3983
2.91133	3982
2.91200	3980
2.91267	3979
2.91333	3977
2.91400	3976
2.91467	3974
2.91533	3972
2.91600	3971
2.91667	3969
2.91733	3967
2.91800	3965
2.91867	3964
2.91933	3962
2.92000	3960
2.92067	3957
2.92133	3955
2.92200	3953
2.92267	3951
2.92333	3948
2.92400	3946
2.92467	3943
2.92533	3941
2.92600	3938
2.92667	3935
2.92733	3933
2.92800	3930
2.92867	3927
2.92933	3924
2.93000	3921
2.93067	3918
2.93133	3915
2.93200	3912
2.93267	3908
2.93333	3905
2.93400	3902
2.93467	3898
2.93533	3895
2.93600	3891
2.93667	3888
2.93733	3884
2.93800	3881
2.93867	3877
2.93933	3874
2.94000	3870
2.94067	3866
2.94133	3863
2.94200	3859
2.94267	3855
2.94333	3852
2.94400	3848
2.94467	3845
2.94533	3841
2.94600	3837
2.94667	3834
2.94733	3830
2.94800	3827
2.94867	3823
2.94933	3819
2.95000	3816
2.95067	3812
2.95133	3809
2.95200	3805
2.95267	3801
2.95333	3798
2.95400	3794
2.95467	3791
2.95533	3787
2.95600	3784
2.95667	3780
2.95733	3777
2.95800	3773
2.95867	3770
2.95933	3767
2.96000	3763
2.96067	3760
2.96133	3757
2.96200	3754
2.96267	3751
2.96333	3748
2.96400	3745
2.96467	3742
2.96533	3739
2.96600	3736
2.96667	3733
2.96733	3730
2.96800	3727
2.96867	3724
2.96933	3721
2.97000	3719
2.97067	3716
2.97133	3713
2.97200	3710
2.97267	3708
2.97333	3705
2.97400	3702
2.97467	3700
2.97533	3697
2.97600	3695
2.97667	3692
2.97733	3690
2.97800	3687
2.97867	3685
2.97933	3683
2.98000	3681
2.98067	3678
2.98133	3676
2.98200	3674
2.98267	3672
2.98333	3670
2.98400	3667
2.98467	3665
2.98533	3663
2.98600	3662
2.98667	3660
2.98733	3658
2.98800	3656
2.98867	3654
2.98933	3652
2.99000	3650
2.99067	3649
2.99133	3647
2.99200	3645
2.99267	3643
2.99333	3641
2.99400	3640
2.99467	3638
2.99533	3636
2.99600	3635
2.99667	3633
2.99733	3631
2.99800	3630
2.99867	3628
2.99933	3626
3.00000	3625
3.00067	3623
3.00133	3621
3.00200	3620
3.00267	3618
3.00333	3616
3.00400	3615
3.00467	3613
3.00533	3612
3.00600	3610
3.00667	3609
3.00733	3607
3.00800	3606
3.00867	3604
3.00933	3603
3.01000	3601
3.01067	3600
3.01133	3598
3.01200	3597
3.01267	3596
3.01333	3594
3.01400	3593
3.01467	3591
3.01533	3590
3.01600	3589
3.01667	3587
3.01733	3586
3.01800	3585
3.01867	3583
3.01933	3582
3.02000	3581
3.02067	3580
3.02133	3579
3.02200	3577
3.02267	3576
3.02333	3575
3.02400	3574
3.02467	3573
3.02533	3572
3.02600	3570
3.02667	3569
3.02733	3568
3.02800	3567
3.02867	3566
3.02933	3564
3.03000	3563
3.03067	3562
3.03133	3561
3.03200	3560
3.03267	3559
3.03333	3558
3.03400	3557
3.03467	3555
3.03533	3554
3.03600	3553
3.03667	3553
3.03733	3552
3.03800	3551
3.03867	3550
3.03933	3549
3.04000	3548
3.04067	3547
3.04133	3546
3.04200	3545
3.04267	3544
3.04333	3543
3.04400	3543
3.04467	3542
3.04533	3541
3.04600	3540
3.04667	3539
3.04733	3539
3.04800	3538
3.04867	3537
3.04933	3537
3.05000	3536
3.05067	3535
3.05133	3535
3.05200	3534
3.05267	3533
3.05333	3533
3.05400	3532
3.05467	3531
3.05533	3531
3.05600	3530
3.05667	3530
3.05733	3529
3.05800	3528
3.05867	3528
3.05933	3527
3.06000	3527
3.06067	3526
3.06133	3526
3.06200	3525
3.06267	3525
3.06333	3524
3.06400	3524
3.06467	3524
3.06533	3523
3.06600	3523
3.06667	3523
3.06733	3523
3.06800	3523
3.06867	3523
3.06933	3523
3.07000	3522
3.07067	3522
3.07133	3522
3.07200	3522
3.07267	3522
3.07333	3522
3.07400	3522
3.07467	3522
3.07533	3522
3.07600	3523
3.07667	3523
3.07733	3523
3.07800	3523
3.07867	3523
3.07933	3523
3.08000	3523
3.08067	3523
3.08133	3523
3.08200	3524
3.08267	3524
3.08333	3524
3.08400	3524
3.08467	3524
3.08533	3525
3.08600	3525
3.08667	3525
3.08733	3525
3.08800	3525
3.08867	3525
3.08933	3526
3.09000	3526
3.09067	3526
3.09133	3526
3.09200	3526
3.09267	3526
3.09333	3526
3.09400	3526
3.09467	3525
3.09533	3525
3.09600	3525
3.09667	3525
3.09733	3525
3.09800	3524
3.09867	3524
3.09933	3523
3.10000	3523
3.10067	3523
3.10133	3522
3.10200	3522
3.10267	3521
3.10333	3520
3.10400	3520
3.10467	3519
3.10533	3519
3.10600	3518
3.10667	3517
3.10733	3517
3.10800	3516
3.10867	3515
3.10933	3514
3.11000	3513
3.11067	3513
3.11133	3512
3.11200	3511
3.11267	3510
3.11333	3509
3.11400	3508
3.11467	3507
3.11533	3507
3.11600	3506
3.11667	3505
3.11733	3504
3.11800	3503
3.11867	3502
3.11933	3501
3.12000	3500
3.12067	3498
3.12133	3497
3.12200	3496
3.12267	3495
3.12333	3494
3.12400	3493
3.12467	3491
3.12533	3490
3.12600	3489
3.12667	3487
3.12733	3486
3.12800	3485
3.12867	3484
3.12933	3482
3.13000	3481
3.13067	3480
3.13133	3479
3.13200	3477
3.13267	3476
3.13333	3475
3.13400	3473
3.13467	3472
3.13533	3471
3.13600	3469
3.13667	3468
3.13733	3467
3.13800	3465
3.13867	3464
3.13933	3463
3.14000	3462
3.14067	3460
3.14133	3459
3.14200	3458
3.14267	3457
3.14333	3455
3.14400	3454
3.14467	3453
3.14533	3452
3.14600	3451
3.14667	3450
3.14733	3449
3.14800	3448
3.14867	3447
3.14933	3446
3.15000	3444
3.15067	3443
3.15133	3442
3.15200	3441
3.15267	3440
3.15333	3439
3.15400	3438
3.15467	3437
3.15533	3436
3.15600	3435
3.15667	3434
3.15733	3433
3.15800	3433
3.15867	3432
3.15933	3431
3.16000	3430
3.16067	3429
3.16133	3428
3.16200	3428
3.16267	3427
3.16333	3426
3.16400	3425
3.16467	3425
3.16533	3424
3.16600	3423
3.16667	3423
3.16733	3422
3.16800	3421
3.16867	3421
3.16933	3420
3.17000	3420
3.17067	3419
3.17133	3418
3.17200	3417
3.17267	3417
3.17333	3416
3.17400	3415
3.17467	3415
3.17533	3414
3.17600	3413
3.17667	3413
3.17733	3412
3.17800	3411
3.17867	3410
3.17933	3410
3.18000	3409
3.18067	3408
3.18133	3407
3.18200	3407
3.18267	3406
3.18333	3405
3.18400	3404
3.18467	3403
3.18533	3403
3.18600	3402
3.18667	3401
3.18733	3400
3.18800	3399
3.18867	3399
3.18933	3398
3.19000	3397
3.19067	3396
3.19133	3396
3.19200	3395
3.19267	3394
3.19333	3393
3.19400	3393
3.19467	3392
3.19533	3391
3.19600	3390
3.19667	3389
3.19733	3389
3.19800	3388
3.19867	3387
3.19933	3386
3.20000	3386
3.20067	3385
3.20133	3384
3.20200	3383
3.20267	3383
3.20333	3382
3.20400	3381
3.20467	3381
3.20533	3380
3.20600	3380
3.20667	3379
3.20733	3378
3.20800	3378
3.20867	3377
3.20933	3377
3.21000	3376
3.21067	3376
3.21133	3375
3.21200	3375
3.21267	3374
3.21333	3374
3.21400	3373
3.21467	3373
3.21533	3372
3.21600	3372
3.21667	3371
3.21733	3371
3.21800	3371
3.21867	3370
3.21933	3370
3.22000	3369
3.22067	3369
3.22133	3368
3.22200	3368
3.22267	3367
3.22333	3367
3.22400	3366
3.22467	3366
3.22533	3365
3.22600	3365
3.22667	3365
3.22733	3364
3.22800	3364
3.22867	3363
3.22933	3363
3.23000	3363
3.23067	3362
3.23133	3362
3.23200	3362
3.23267	3361
3.23333	3361
3.23400	3361
3.23467	3360
3.23533	3360
3.23600	3360
3.23667	3360
3.23733	3360
3.23800	3360
3.23867	3360
3.23933	3360
3.24000	3360
3.24067	3360
3.24133	3359
3.24200	3359
3.24267	3359
3.24333	3359
3.24400	3359
3.24467	3359
3.24533	3359
3.24600	3358
3.24667	3358
3.24733	3358
3.24800	3358
3.24867	3358
3.24933	3358
3.25000	3357
3.25067	3357
3.25133	3357
3.25200	3357
3.25267	3357
3.25333	3357
3.25400	3356
3.25467	3356
3.25533	3356
3.25600	3356
3.25667	3356
3.25733	3356
3.25800	3355
3.25867	3355
3.25933	3355
3.26000	3355
3.26067	3355
3.26133	3355
3.26200	3354
3.26267	3354
3.26333	3354
3.26400	3354
3.26467	3354
3.26533	3354
3.26600	3354
3.26667	3353
3.26733	3353
3.26800	3353
3.26867	3353
3.26933	3353
3.27000	3353
3.27067	3353
3.27133	3353
3.27200	3353
3.27267	3353
3.27333	3353
3.27400	3353
3.27467	3353
3.27533	3352
3.27600	3352
3.27667	3352
3.27733	3352
3.27800	3352
3.27867	3352
3.27933	3352
3.28000	3352
3.28067	3352
3.28133	3352
3.28200	3352
3.28267	3352
3.28333	3352
3.28400	3352
3.28467	3352
3.28533	3352
3.28600	3352
3.28667	3352
3.28733	3352
3.28800	3351
3.28867	3351
3.28933	3351
3.29000	3351
3.29067	3351
3.29133	3350
3.29200	3350
3.29267	3350
3.29333	3350
3.29400	3350
3.29467	3349
3.29533	3349
3.29600	3349
3.29667	3349
3.29733	3349
3.29800	3348
3.29867	3348
3.29933	3348
3.30000	3348
3.30067	3347
3.30133	3347
3.30200	3347
3.30267	3347
3.30333	3347
3.30400	3346
3.30467	3346
3.30533	3346
3.30600	3346
3.30667	3346
3.30733	3345
3.30800	3345
3.30867	3345
3.30933	3345
3.31000	3345
3.31067	3344
3.31133	3344
3.31200	3344
3.31267	3343
3.31333	3343
3.31400	3343
3.31467	3343
3.31533	3342
3.31600	3342
3.31667	3342
3.31733	3341
3.31800	3341
3.31867	3340
3.31933	3340
3.32000	3340
3.32067	3339
3.32133	3339
3.32200	3339
3.32267	3338
3.32333	3338
3.32400	3338
3.32467	3338
3.32533	3337
3.32600	3337
3.32667	3337
3.32733	3336
3.32800	3336
3.32867	3336
3.32933	3336
3.33000	3335
3.33067	3335
3.33133	3335
3.33200	3335
3.33267	3335
3.33333	3335
3.33400	3334
3.33467	3334
3.33533	3334
3.33600	3334
3.33667	3334
3.33733	3333
3.33800	3333
3.33867	3333
3.33933	3333
3.34000	3332
3.34067	3332
3.34133	3332
3.34200	3332
3.34267	3331
3.34333	3331
3.34400	3331
3.34467	3331
3.34533	3330
3.34600	3330
3.34667	3330
3.34733	3330
3.34800	3330
3.34867	3329
3.34933	3329
3.35000	3329
3.35067	3329
3.35133	3329
3.35200	3329
3.35267	3328
3.35333	3328
3.35400	3328
3.35467	3328
3.35533	3328
3.35600	3327
3.35667	3327
3.35733	3327
3.35800	3327
3.35867	3327
3.35933	3327
3.36000	3327
3.36067	3326
3.36133	3326
3.36200	3326
3.36267	3326
3.36333	3326
3.36400	3326
3.36467	3325
3.36533	3325
3.36600	3325
3.36667	3325
3.36733	3325
3.36800	3325
3.36867	3325
3.36933	3325
3.37000	3325
3.37067	3325
3.37133	3325
3.37200	3324
3.37267	3324
3.37333	3324
3.37400	3324
3.37467	3324
3.37533	3324
3.37600	3324
3.37667	3324
3.37733	3324
3.37800	3324
3.37867	3324
3.37933	3324
3.38000	3325
3.38067	3325
3.38133	3325
3.38200	3325
3.38267	3326
3.38333	3326
3.38400	3326
3.38467	3326
3.38533	3327
3.38600	3327
3.38667	3327
3.38733	3327
3.38800	3328
3.38867	3328
3.38933	3328
3.39000	3328
3.39067	3329
3.39133	3329
3.39200	3329
3.39267	3330
3.39333	3330
3.39400	3330
3.39467	3331
3.39533	3331
3.39600	3331
3.39667	3332
3.39733	3332
3.39800	3332
3.39867	3333
3.39933	3333
3.40000	3333
3.40067	3334
3.40133	3334
3.40200	3335
3.40267	3335
3.40333	3335
3.40400	3336
3.40467	3336
3.40533	3336
3.40600	3337
3.40667	3337
3.40733	3338
3.40800	3338
3.40867	3338
3.40933	3339
3.41000	3339
3.41067	3340
3.41133	3340
3.41200	3341
3.41267	3341
3.41333	3342
3.41400	3342
3.41467	3343
3.41533	3343
3.41600	3344
3.41667	3344
3.41733	3345
3.41800	3345
3.41867	3346
3.41933	3346
3.42000	3347
3.42067	3348
3.42133	3348
3.42200	3349
3.42267	3350
3.42333	3350
3.42400	3351
3.42467	3352
3.42533	3352
3.42600	3353
3.42667	3354
3.42733	3355
3.42800	3355
3.42867	3356
3.42933	3357
3.43000	3358
3.43067	3358
3.43133	3359
3.43200	3360
3.43267	3361
3.43333	3362
3.43400	3363
3.43467	3363
3.43533	3364
3.43600	3365
3.43667	3366
3.43733	3368
3.43800	3369
3.43867	3370
3.43933	3371
3.44000	3372
3.44067	3373
3.44133	3375
3.44200	3376
3.44267	3377
3.44333	3379
3.44400	3380
3.44467	3382
3.44533	3383
3.44600	3385
3.44667	3386
3.44733	3388
3.44800	3389
3.44867	3391
3.44933	3393
3.45000	3394
3.45067	3396
3.45133	3398
3.45200	3399
3.45267	3401
3.45333	3403
3.45400	3405
3.45467	3407
3.45533	3409
3.45600	3411
3.45667	3413
3.45733	3415
3.45800	3417
3.45867	3419
3.45933	3421
3.46000	3423
3.46067	3425
3.46133	3428
3.46200	3430
3.46267	3432
3.46333	3434
3.46400	3437
3.46467	3439
3.46533	3441
3.46600	3444
3.46667	3446
3.46733	3449
3.46800	3451
3.46867	3454
3.46933	3456
3.47000	3459
3.47067	3461
3.47133	3464
3.47200	3466
3.47267	3469
3.47333	3472
3.47400	3474
3.47467	3477
3.47533	3479
3.47600	3482
3.47667	3485
3.47733	3487
3.47800	3490
3.47867	3493
3.47933	3495
3.48000	3498
3.48067	3501
3.48133	3504
3.48200	3506
3.48267	3509
3.48333	3512
3.48400	3515
3.48467	3517
3.48533	3520
3.48600	3523
3.48667	3526
3.48733	3529
3.48800	3532
3.48867	3535
3.48933	3538
3.49000	3541
3.49067	3545
3.49133	3548
3.49200	3551
3.49267	3555
3.49333	3558
3.49400	3561
3.49467	3565
3.49533	3569
3.49600	3572
3.49667	3576
3.49733	3580
3.49800	3584
3.49867	3589
3.49933	3593
3.50000	3597
3.50067	3602
3.50133	3606
3.50200	3611
3.50267	3616
3.50333	3621
3.50400	3627
3.50467	3632
3.50533	3638
3.50600	3644
3.50667	3650
3.50733	3656
3.50800	3663
3.50867	3670
3.50933	3677
3.51000	3684
3.51067	3692
3.51133	3700
3.51200	3708
3.51267	3716
3.51333	3725
3.51400	3734
3.51467	3744
3.51533	3754
3.51600	3764
3.51667	3775
3.51733	3786
3.51800	3797
3.51867	3809
3.51933	3821
3.52000	3834
3.52067	3847
3.52133	3861
3.52200	3875
3.52267	3890
3.52333	3905
3.52400	3921
3.52467	3937
3.52533	3954
3.52600	3971
3.52667	3989
3.52733	4007
3.52800	4026
3.52867	4046
3.52933	4066
3.53000	4086
3.53067	4107
3.53133	4129
3.53200	4151
3.53267	4174
3.53333	4197
3.53400	4221
3.53467	4245
3.53533	4270
3.53600	4296
3.53667	4322
3.53733	4348
3.53800	4375
3.53867	4403
3.53933	4431
3.54000	4459
3.54067	4488
3.54133	4517
3.54200	4547
3.54267	4576
3.54333	4607
3.54400	4637
3.54467	4668
3.54533	4699
3.54600	4731
3.54667	4763
3.54733	4795
3.54800	4827
3.54867	4860
3.54933	4893
3.55000	4925
3.55067	4959
3.55133	4992
3.55200	5025
3.55267	5058
3.55333	5091
3.55400	5125
3.55467	5158
3.55533	5191
3.55600	5224
3.55667	5257
3.55733	5289
3.55800	5322
3.55867	5354
3.55933	5386
3.56000	5417
3.56067	5449
3.56133	5480
3.56200	5511
3.56267	5541
3.56333	5572
3.56400	5601
3.56467	5631
3.56533	5659
3.56600	5688
3.56667	5716
3.56733	5743
3.56800	5770
3.56867	5796
3.56933	5822
3.57000	5847
3.57067	5872
3.57133	5896
3.57200	5919
3.57267	5942
3.57333	5964
3.57400	5985
3.57467	6006
3.57533	6026
3.57600	6046
3.57667	6065
3.57733	6083
3.57800	6100
3.57867	6116
3.57933	6132
3.58000	6147
3.58067	6162
3.58133	6175
3.58200	6188
3.58267	6201
3.58333	6212
3.58400	6223
3.58467	6234
3.58533	6243
3.58600	6252
3.58667	6261
3.58733	6269
3.58800	6276
3.58867	6282
3.58933	6288
3.59000	6294
3.59067	6298
3.59133	6303
3.59200	6306
3.59267	6309
3.59333	6312
3.59400	6313
3.59467	6315
3.59533	6315
3.59600	6315
3.59667	6315
3.59733	6314
3.59800	6312
3.59867	6310
3.59933	6308
3.60000	6305
3.60067	6302
3.60133	6298
3.60200	6293
3.60267	6289
3.60333	6283
3.60400	6278
3.60467	6271
3.60533	6265
3.60600	6258
3.60667	6250
3.60733	6243
3.60800	6234
3.60867	6226
3.60933	6217
3.61000	6207
3.61067	6197
3.61133	6187
3.61200	6177
3.61267	6166
3.61333	6155
3.61400	6143
3.61467	6131
3.61533	6119
3.61600	6107
3.61667	6094
3.61733	6081
3.61800	6067
3.61867	6054
3.61933	6040
3.62000	6025
3.62067	6011
3.62133	5996
3.62200	5981
3.62267	5965
3.62333	5950
3.62400	5934
3.62467	5918
3.62533	5901
3.62600	5884
3.62667	5867
3.62733	5850
3.62800	5833
3.62867	5815
3.62933	5798
3.63000	5780
3.63067	5762
3.63133	5743
3.63200	5725
3.63267	5706
3.63333	5687
3.63400	5668
3.63467	5649
3.63533	5630
3.63600	5610
3.63667	5590
3.63733	5571
3.63800	5551
3.63867	5530
3.63933	5510
3.64000	5490
3.64067	5469
3.64133	5449
3.64200	5428
3.64267	5407
3.64333	5386
3.64400	5365
3.64467	5344
3.64533	5323
3.64600	5302
3.64667	5281
3.64733	5260
3.64800	5239
3.64867	5218
3.64933	5197
3.65000	5176
3.65067	5155
3.65133	5134
3.65200	5113
3.65267	5092
3.65333	5072
3.65400	5051
3.65467	5030
3.65533	5010
3.65600	4989
3.65667	4969
3.65733	4949
3.65800	4928
3.65867	4908
3.65933	4888
3.66000	4868
3.66067	4849
3.66133	4829
3.66200	4809
3.66267	4790
3.66333	4771
3.66400	4752
3.66467	4733
3.66533	4714
3.66600	4695
3.66667	4676
3.66733	4658
3.66800	4640
3.66867	4622
3.66933	4604
3.67000	4586
3.67067	4568
3.67133	4551
3.67200	4534
3.67267	4517
3.67333	4500
3.67400	4483
3.67467	4466
3.67533	4450
3.67600	4433
3.67667	4417
3.67733	4401
3.67800	4386
3.67867	4370
3.67933	4355
3.68000	4340
3.68067	4325
3.68133	4310
3.68200	4295
3.68267	4281
3.68333	4267
3.68400	4253
3.68467	4239
3.68533	4225
3.68600	4211
3.68667	4198
3.68733	4185
3.68800	4172
3.68867	4159
3.68933	4146
3.69000	4134
3.69067	4121
3.69133	4109
3.69200	4097
3.69267	4085
3.69333	4074
3.69400	4062
3.69467	4051
3.69533	4039
3.69600	4028
3.69667	4018
3.69733	4007
3.69800	3996
3.69867	3986
3.69933	3976
3.70000	3965
3.70067	3956
3.70133	3946
3.70200	3936
3.70267	3927
3.70333	3917
3.70400	3908
3.70467	3899
3.70533	3890
3.70600	3881
3.70667	3872
3.70733	3863
3.70800	3855
3.70867	3846
3.70933	3838
3.71000	3830
3.71067	3822
3.71133	3814
3.71200	3806
3.71267	3798
3.71333	3791
3.71400	3783
3.71467	3776
3.71533	3769
3.71600	3762
3.71667	3755
3.71733	3748
3.71800	3741
3.71867	3734
3.71933	3728
3.72000	3721
3.72067	3715
3.72133	3709
3.72200	3703
3.72267	3697
3.72333	3691
3.72400	3685
3.72467	3679
3.72533	3673
3.72600	3667
3.72667	3662
3.72733	3656
3.72800	3651
3.72867	3645
3.72933	3640
3.73000	3635
3.73067	3630
3.73133	3625
3.73200	3620
3.73267	3615
3.73333	3610
3.73400	3605
3.73467	3600
3.73533	3596
3.73600	3591
3.73667	3586
3.73733	3582
3.73800	3578
3.73867	3573
3.73933	3569
3.74000	3564
3.74067	3560
3.74133	3556
3.74200	3552
3.74267	3548
3.74333	3544
3.74400	3540
3.74467	3536
3.74533	3532
3.74600	3528
3.74667	3524
3.74733	3520
3.74800	3516
3.74867	3513
3.74933	3509
3.75000	3506
3.75067	3502
3.75133	3499
3.75200	3495
3.75267	3492
3.75333	3489
3.75400	3486
3.75467	3483
3.75533	3479
3.75600	3476
3.75667	3473
3.75733	3470
3.75800	3467
3.75867	3464
3.75933	3461
3.76000	3459
3.76067	3456
3.76133	3453
3.76200	3450
3.76267	3447
3.76333	3444
3.76400	3441
3.76467	3438
3.76533	3435
3.76600	3433
3.76667	3430
3.76733	3427
3.76800	3424
3.76867	3421
3.76933	3418
3.77000	3415
3.77067	3412
3.77133	3410
3.77200	3407
3.77267	3404
3.77333	3402
3.77400	3399
3.77467	3396
3.77533	3394
3.77600	3391
3.77667	3389
3.77733	3386
3.77800	3384
3.77867	3381
3.77933	3379
3.78000	3377
3.78067	3374
3.78133	3372
3.78200	3370
3.78267	3367
3.78333	3365
3.78400	3363
3.78467	3361
3.78533	3359
3.78600	3357
3.78667	3354
3.78733	3352
3.78800	3350
3.78867	3348
3.78933	3346
3.79000	3344
3.79067	3342
3.79133	3340
3.79200	3338
3.79267	3336
3.79333	3334
3.79400	3332
3.79467	3330
3.79533	3328
3.79600	3327
3.79667	3325
3.79733	3323
3.79800	3321
3.79867	3319
3.79933	3317
3.80000	3316
3.80067	3314
3.80133	3312
3.80200	3310
3.80267	3308
3.80333	3307
3.80400	3305
3.80467	3303
3.80533	3301
3.80600	3300
3.80667	3298
3.80733	3296
3.80800	3295
3.80867	3293
3.80933	3291
3.81000	3290
3.81067	3288
3.81133	3286
3.81200	3285
3.81267	3283
3.81333	3281
3.81400	3280
3.81467	3278
3.81533	3277
3.81600	3275
3.81667	3274
3.81733	3272
3.81800	3270
3.81867	3269
3.81933	3267
3.82000	3266
3.82067	3264
3.82133	3262
3.82200	3261
3.82267	3259
3.82333	3258
3.82400	3256
3.82467	3255
3.82533	3253
3.82600	3252
3.82667	3250
3.82733	3248
3.82800	3247
3.82867	3246
3.82933	3244
3.83000	3243
3.83067	3241
3.83133	3240
3.83200	3239
3.83267	3238
3.83333	3236
3.83400	3235
3.83467	3234
3.83533	3233
3.83600	3232
3.83667	3231
3.83733	3230
3.83800	3229
3.83867	3227
3.83933	3226
3.84000	3225
3.84067	3224
3.84133	3223
3.84200	3222
3.84267	3221
3.84333	3221
3.84400	3220
3.84467	3219
3.84533	3218
3.84600	3217
3.84667	3216
3.84733	3215
3.84800	3214
3.84867	3213
3.84933	3212
3.85000	3211
3.85067	3210
3.85133	3209
3.85200	3208
3.85267	3207
3.85333	3206
3.85400	3205
3.85467	3204
3.85533	3203
3.85600	3202
3.85667	3201
3.85733	3201
3.85800	3200
3.85867	3199
3.85933	3198
3.86000	3197
3.86067	3196
3.86133	3195
3.86200	3195
3.86267	3194
3.86333	3193
3.86400	3192
3.86467	3191
3.86533	3190
3.86600	3189
3.86667	3189
3.86733	3188
3.86800	3187
3.86867	3186
3.86933	3185
3.87000	3184
3.87067	3183
3.87133	3183
3.87200	3182
3.87267	3181
3.87333	3180
3.87400	3179
3.87467	3179
3.87533	3178
3.87600	3177
3.87667	3176
3.87733	3176
3.87800	3175
3.87867	3174
3.87933	3174
3.88000	3173
3.88067	3173
3.88133	3172
3.88200	3172
3.88267	3171
3.88333	3170
3.88400	3170
3.88467	3169
3.88533	3169
3.88600	3168
3.88667	3168
3.88733	3167
3.88800	3167
3.88867	3166
3.88933	3166
3.89000	3165
3.89067	3165
3.89133	3164
3.89200	3164
3.89267	3163
3.89333	3163
3.89400	3162
3.89467	3162
3.89533	3161
3.89600	3161
3.89667	3160
3.89733	3160
3.89800	3159
3.89867	3159
3.89933	3158
3.90000	3158
3.90067	3157
3.90133	3157
3.90200	3156
3.90267	3156
3.90333	3155
3.90400	3154
3.90467	3154
3.90533	3153
3.90600	3153
3.90667	3152
3.90733	3152
3.90800	3151
3.90867	3150
3.90933	3150
3.91000	3149
3.91067	3149
3.91133	3148
3.91200	3148
3.91267	3147
3.91333	3147
3.91400	3146
3.91467	3145
3.91533	3145
3.91600	3144
3.91667	3144
3.91733	3143
3.91800	3143
3.91867	3142
3.91933	3141
3.92000	3141
3.92067	3140
3.92133	3140
3.92200	3139
3.92267	3138
3.92333	3138
3.92400	3137
3.92467	3137
3.92533	3136
3.92600	3136
3.92667	3135
3.92733	3135
3.92800	3134
3.92867	3134
3.92933	3133
3.93000	3132
3.93067	3132
3.93133	3131
3.93200	3130
3.93267	3130
3.93333	3129
3.93400	3129
3.93467	3128
3.93533	3127
3.93600	3127
3.93667	3126
3.93733	3126
3.93800	3125
3.93867	3124
3.93933	3124
3.94000	3123
3.94067	3123
3.94133	3122
3.94200	3122
3.94267	3121
3.94333	3121
3.94400	3120
3.94467	3120
3.94533	3119
3.94600	3119
3.94667	3118
3.94733	3118
3.94800	3117
3.94867	3117
3.94933	3116
3.95000	3116
3.95067	3115
3.95133	3115
3.95200	3114
3.95267	3114
3.95333	3113
3.95400	3113
3.95467	3113
3.95533	3112
3.95600	3112
3.95667	3111
3.95733	3111
3.95800	3111
3.95867	3110
3.95933	3110
3.96000	3110
3.96067	3109
3.96133	3109
3.96200	3109
3.96267	3109
3.96333	3108
3.96400	3108
3.96467	3108
3.96533	3108
3.96600	3107
3.96667	3107
3.96733	3107
3.96800	3107
3.96867	3107
3.96933	3107
3.97000	3107
3.97067	3107
3.97133	3107
3.97200	3106
3.97267	3106
3.97333	3106
3.97400	3106
3.97467	3106
3.97533	3106
3.97600	3106
3.97667	3106
3.97733	3106
3.97800	3106
3.97867	3106
3.97933	3107
3.98000	3107
3.98067	3107
3.98133	3107
3.98200	3107
3.98267	3108
3.98333	3108
3.98400	3108
3.98467	3108
3.98533	3109
3.98600	3109
3.98667	3109
3.98733	3110
3.98800	3110
3.98867	3111
3.98933	3111
3.99000	3111
3.99067	3112
3.99133	3112
3.99200	3113
3.99267	3114
3.99333	3114
3.99400	3115
3.99467	3115
3.99533	3116
3.99600	3117
3.99667	3117
3.99733	3118
3.99800	3119
3.99867	3120
3.99933	3120
4.00000	3121
4.00067	3122
4.00133	3123
4.00200	3124
4.00267	3125
4.00333	3126
4.00400	3127
4.00467	3128
4.00533	3129
4.00600	3130
4.00667	3132
4.00733	3133
4.00800	3134
4.00867	3136
4.00933	3137
4.01000	3139
4.01067	3141
4.01133	3142
4.01200	3144
4.01267	3146
4.01333	3148
4.01400	3150
4.01467	3152
4.01533	3154
4.01600	3156
4.01667	3158
4.01733	3160
4.01800	3163
4.01867	3165
4.01933	3168
4.02000	3170
4.02067	3173
4.02133	3176
4.02200	3179
4.02267	3182
4.02333	3185
4.02400	3188
4.02467	3191
4.02533	3195
4.02600	3198
4.02667	3201
4.02733	3205
4.02800	3209
4.02867	3212
4.02933	3216
4.03000	3220
4.03067	3224
4.03133	3228
4.03200	3232
4.03267	3236
4.03333	3240
4.03400	3244
4.03467	3248
4.03533	3252
4.03600	3257
4.03667	3261
4.03733	3266
4.03800	3270
4.03867	3275
4.03933	3279
4.04000	3284
4.04067	3289
4.04133	3294
4.04200	3299
4.04267	3304
4.04333	3309
4.04400	3314
4.04467	3319
4.04533	3324
4.04600	3329
4.04667	3335
4.04733	3340
4.04800	3346
4.04867	3351
4.04933	3357
4.05000	3362
4.05067	3368
4.05133	3374
4.05200	3380
4.05267	3386
4.05333	3392
4.05400	3398
4.05467	3403
4.05533	3410
4.05600	3416
4.05667	3422
4.05733	3428
4.05800	3434
4.05867	3440
4.05933	3446
4.06000	3452
4.06067	3457
4.06133	3463
4.06200	3469
4.06267	3475
4.06333	3481
4.06400	3487
4.06467	3492
4.06533	3498
4.06600	3504
4.06667	3510
4.06733	3515
4.06800	3521
4.06867	3527
4.06933	3532
4.07000	3538
4.07067	3544
4.07133	3549
4.07200	3555
4.07267	3560
4.07333	3565
4.07400	3571
4.07467	3576
4.07533	3581
4.07600	3586
4.07667	3591
4.07733	3596
4.07800	3601
4.07867	3605
4.07933	3610
4.08000	3615
4.08067	3619
4.08133	3624
4.08200	3628
4.08267	3632
4.08333	3637
4.08400	3641
4.08467	3645
4.08533	3649
4.08600	3653
4.08667	3656
4.08733	3660
4.08800	3664
4.08867	3667
4.08933	3671
4.09000	3674
4.09067	3677
4.09133	3680
4.09200	3684
4.09267	3687
4.09333	3690
4.09400	3693
4.09467	3696
4.09533	3698
4.09600	3701
4.09667	3704
4.09733	3706
4.09800	3708
4.09867	3711
4.09933	3713
4.10000	3715
4.10067	3717
4.10133	3719
4.10200	3721
4.10267	3723
4.10333	3724
4.10400	3726
4.10467	3728
4.10533	3729
4.10600	3730
4.10667	3732
4.10733	3733
4.10800	3734
4.10867	3735
4.10933	3736
4.11000	3737
4.11067	3738
4.11133	3738
4.11200	3739
4.11267	3740
4.11333	3740
4.11400	3741
4.11467	3741
4.11533	3742
4.11600	3742
4.11667	3742
4.11733	3742
4.11800	3743
4.11867	3743
4.11933	3743
4.12000	3743
4.12067	3743
4.12133	3743
4.12200	3743
4.12267	3744
4.12333	3744
4.12400	3744
4.12467	3744
4.12533	3744
4.12600	3744
4.12667	3744
4.12733	3744
4.12800	3744
4.12867	3744
4.12933	3744
4.13000	3745
4.13067	3745
4.13133	3745
4.13200	3745
4.13267	3745
4.13333	3745
4.13400	3745
4.13467	3745
4.13533	3745
4.13600	3745
4.13667	3745
4.13733	3745
4.13800	3745
4.13867	3745
4.13933	3745
4.14000	3745
4.14067	3745
4.14133	3745
4.14200	3745
4.14267	3745
4.14333	3745
4.14400	3745
4.14467	3745
4.14533	3745
4.14600	3744
4.14667	3744
4.14733	3744
4.14800	3744
4.14867	3744
4.14933	3744
4.15000	3744
4.15067	3744
4.15133	3744
4.15200	3744
4.15267	3744
4.15333	3744
4.15400	3744
4.15467	3744
4.15533	3744
4.15600	3745
4.15667	3745
4.15733	3745
4.15800	3745
4.15867	3745
4.15933	3745
4.16000	3746
4.16067	3746
4.16133	3746
4.16200	3746
4.16267	3746
4.16333	3746
4.16400	3747
4.16467	3747
4.16533	3747
4.16600	3747
4.16667	3747
4.16733	3747
4.16800	3747
4.16867	3747
4.16933	3747
4.17000	3747
4.17067	3747
4.17133	3747
4.17200	3747
4.17267	3747
4.17333	3747
4.17400	3747
4.17467	3747
4.17533	3747
4.17600	3747
4.17667	3747
4.17733	3747
4.17800	3747
4.17867	3747
4.17933	3748
4.18000	3748
4.18067	3748
4.18133	3748
4.18200	3749
4.18267	3749
4.18333	3749
4.18400	3750
4.18467	3750
4.18533	3751
4.18600	3752
4.18667	3752
4.18733	3753
4.18800	3754
4.18867	3755
4.18933	3755
4.19000	3756
4.19067	3757
4.19133	3758
4.19200	3759
4.19267	3760
4.19333	3761
4.19400	3763
4.19467	3764
4.19533	3765
4.19600	3767
4.19667	3768
4.19733	3770
4.19800	3772
4.19867	3774
4.19933	3776
4.20000	3778
4.20067	3780
4.20133	3782
4.20200	3785
4.20267	3787
4.20333	3790
4.20400	3792
4.20467	3795
4.20533	3798
4.20600	3801
4.20667	3805
4.20733	3808
4.20800	3812
4.20867	3816
4.20933	3820
4.21000	3824
4.21067	3829
4.21133	3833
4.21200	3838
4.21267	3843
4.21333	3848
4.21400	3854
4.21467	3859
4.21533	3865
4.21600	3871
4.21667	3877
4.21733	3884
4.21800	3890
4.21867	3897
4.21933	3904
4.22000	3912
4.22067	3919
4.22133	3927
4.22200	3935
4.22267	3944
4.22333	3952
4.22400	3961
4.22467	3970
4.22533	3980
4.22600	3990
4.22667	4000
4.22733	4010
4.22800	4021
4.22867	4032
4.22933	4043
4.23000	4055
4.23067	4067
4.23133	4079
4.23200	4092
4.23267	4105
4.23333	4118
4.23400	4132
4.23467	4146
4.23533	4161
4.23600	4175
4.23667	4191
4.23733	4206
4.23800	4222
4.23867	4238
4.23933	4255
4.24000	4272
4.24067	4289
4.24133	4307
4.24200	4325
4.24267	4343
4.24333	4362
4.24400	4381
4.24467	4400
4.24533	4419
4.24600	4439
4.24667	4460
4.24733	4480
4.24800	4501
4.24867	4522
4.24933	4544
4.25000	4566
4.25067	4588
4.25133	4611
4.25200	4634
4.25267	4657
4.25333	4681
4.25400	4705
4.25467	4729
4.25533	4753
4.25600	4778
4.25667	4803
4.25733	4828
4.25800	4853
4.25867	4879
4.25933	4905
4.26000	4932
4.26067	4958
4.26133	4985
4.26200	5012
4.26267	5039
4.26333	5067
4.26400	5095
4.26467	5123
4.26533	5151
4.26600	5180
4.26667	5208
4.26733	5237
4.26800	5266
4.26867	5296
4.26933	5325
4.27000	5354
4.27067	5384
4.27133	5414
4.27200	5444
4.27267	5474
4.27333	5504
4.27400	5534
4.27467	5565
4.27533	5595
4.27600	5626
4.27667	5657
4.27733	5688
4.27800	5719
4.27867	5750
4.27933	5781
4.28000	5812
4.28067	5843
4.28133	5875
4.28200	5906
4.28267	5937
4.28333	5968
4.28400	6000
4.28467	6031
4.28533	6062
4.28600	6093
4.28667	6124
4.28733	6155
4.28800	6186
4.28867	6217
4.28933	6248
4.29000	6279
4.29067	6310
4.29133	6340
4.29200	6371
4.29267	6401
4.29333	6431
4.29400	6461
4.29467	6491
4.29533	6521
4.29600	6550
4.29667	6580
4.29733	6609
4.29800	6638
4.29867	6666
4.29933	6695
4.30000	6723
4.30067	6751
4.30133	6779
4.30200	6806
4.30267	6834
4.30333	6861
4.30400	6888
4.30467	6914
4.30533	6941
4.30600	6967
4.30667	6993
4.30733	7018
4.30800	7043
4.30867	7068
4.30933	7093
4.31000	7118
4.31067	7142
4.31133	7166
4.31200	7189
4.31267	7212
4.31333	7235
4.31400	7257
4.31467	7279
4.31533	7301
4.31600	7322
4.31667	7343
4.31733	7364
4.31800	7384
4.31867	7403
4.31933	7423
4.32000	7441
4.32067	7459
4.32133	7477
4.32200	7494
4.32267	7511
4.32333	7527
4.32400	7543
4.32467	7558
4.32533	7572
4.32600	7586
4.32667	7600
4.32733	7613
4.32800	7625
4.32867	7637
4.32933	7648
4.33000	7659
4.33067	7669
4.33133	7678
4.33200	7687
4.33267	7696
4.33333	7704
4.33400	7711
4.33467	7718
4.33533	7725
4.33600	7730
4.33667	7736
4.33733	7741
4.33800	7745
4.33867	7749
4.33933	7752
4.34000	7755
4.34067	7758
4.34133	7760
4.34200	7761
4.34267	7762
4.34333	7763
4.34400	7764
4.34467	7764
4.34533	7763
4.34600	7763
4.34667	7762
4.34733	7761
4.34800	7759
4.34867	7758
4.34933	7756
4.35000	7754
4.35067	7752
4.35133	7749
4.35200	7747
4.35267	7744
4.35333	7741
4.35400	7739
4.35467	7736
4.35533	7733
4.35600	7731
4.35667	7728
4.35733	7725
4.35800	7723
4.35867	7721
4.35933	7719
4.36000	7717
4.36067	7715
4.36133	7714
4.36200	7713
4.36267	7712
4.36333	7712
4.36400	7712
4.36467	7712
4.36533	7713
4.36600	7715
4.36667	7717
4.36733	7719
4.36800	7722
4.36867	7726
4.36933	7731
4.37000	7736
4.37067	7742
4.37133	7749
4.37200	7756
4.37267	7764
4.37333	7774
4.37400	7784
4.37467	7795
4.37533	7807
4.37600	7820
4.37667	7834
4.37733	7848
4.37800	7864
4.37867	7881
4.37933	7900
4.38000	7919
4.38067	7940
4.38133	7962
4.38200	7985
4.38267	8009
4.38333	8035
4.38400	8062
4.38467	8091
4.38533	8121
4.38600	8153
4.38667	8187
4.38733	8221
4.38800	8258
4.38867	8296
4.38933	8335
4.39000	8377
4.39067	8420
4.39133	8464
4.39200	8510
4.39267	8558
4.39333	8607
4.39400	8658
4.39467	8711
4.39533	8765
4.39600	8821
4.39667	8878
4.39733	8937
4.39800	8998
4.39867	9060
4.39933	9124
4.40000	9190
4.40067	9257
4.40133	9326
4.40200	9396
4.40267	9468
4.40333	9541
4.40400	9616
4.40467	9693
4.40533	9771
4.40600	9851
4.40667	9932
4.40733	10015
4.40800	10099
4.40867	10184
4.40933	10271
4.41000	10359
4.41067	10448
4.41133	10538
4.41200	10630
4.41267	10722
4.41333	10816
4.41400	10911
4.41467	11006
4.41533	11103
4.41600	11200
4.41667	11298
4.41733	11397
4.41800	11497
4.41867	11597
4.41933	11698
4.42000	11799
4.42067	11901
4.42133	12003
4.42200	12106
4.42267	12208
4.42333	12311
4.42400	12414
4.42467	12518
4.42533	12621
4.42600	12724
4.42667	12827
4.42733	12929
4.42800	13031
4.42867	13133
4.42933	13235
4.43000	13336
4.43067	13436
4.43133	13535
4.43200	13634
4.43267	13732
4.43333	13829
4.43400	13926
4.43467	14021
4.43533	14115
4.43600	14209
4.43667	14301
4.43733	14391
4.43800	14481
4.43867	14569
4.43933	14655
4.44000	14740
4.44067	14823
4.44133	14905
4.44200	14984
4.44267	15062
4.44333	15138
4.44400	15212
4.44467	15284
4.44533	15354
4.44600	15422
4.44667	15488
4.44733	15551
4.44800	15612
4.44867	15671
4.44933	15728
4.45000	15782
4.45067	15833
4.45133	15882
4.45200	15929
4.45267	15973
4.45333	16014
4.45400	16052
4.45467	16088
4.45533	16121
4.45600	16151
4.45667	16179
4.45733	16203
4.45800	16225
4.45867	16244
4.45933	16261
4.46000	16274
4.46067	16285
4.46133	16293
4.46200	16298
4.46267	16300
4.46333	16300
4.46400	16297
4.46467	16291
4.46533	16282
4.46600	16270
4.46667	16256
4.46733	16239
4.46800	16220
4.46867	16198
4.46933	16173
4.47000	16146
4.47067	16116
4.47133	16083
4.47200	16048
4.47267	16011
4.47333	15971
4.47400	15929
4.47467	15885
4.47533	15838
4.47600	15789
4.47667	15737
4.47733	15684
4.47800	15628
4.47867	15570
4.47933	15510
4.48000	15448
4.48067	15385
4.48133	15319
4.48200	15251
4.48267	15182
4.48333	15111
4.48400	15039
4.48467	14964
4.48533	14889
4.48600	14812
4.48667	14733
4.48733	14653
4.48800	14572
4.48867	14490
4.48933	14406
4.49000	14321
4.49067	14236
4.49133	14149
4.49200	14061
4.49267	13973
4.49333	13884
4.49400	13794
4.49467	13704
4.49533	13613
4.49600	13521
4.49667	13429
4.49733	13337
4.49800	13244
4.49867	13151
4.49933	13058
4.50000	12965
4.50067	12872
4.50133	12779
4.50200	12686
4.50267	12594
4.50333	12501
4.50400	12409
4.50467	12317
4.50533	12226
4.50600	12136
4.50667	12046
4.50733	11956
4.50800	11868
4.50867	11780
4.50933	11693
4.51000	11607
4.51067	11522
4.51133	11438
4.51200	11355
4.51267	11273
4.51333	11193
4.51400	11114
4.51467	11036
4.51533	10960
4.51600	10885
4.51667	10811
4.51733	10739
4.51800	10669
4.51867	10600
4.51933	10533
4.52000	10468
4.52067	10405
4.52133	10343
4.52200	10284
4.52267	10226
4.52333	10171
4.52400	10117
4.52467	10066
4.52533	10016
4.52600	9969
4.52667	9924
4.52733	9881
4.52800	9841
4.52867	9802
4.52933	9766
4.53000	9733
4.53067	9701
4.53133	9673
4.53200	9646
4.53267	9622
4.53333	9601
4.53400	9582
4.53467	9565
4.53533	9551
4.53600	9540
4.53667	9531
4.53733	9525
4.53800	9522
4.53867	9521
4.53933	9523
4.54000	9528
4.54067	9535
4.54133	9545
4.54200	9557
4.54267	9572
4.54333	9590
4.54400	9611
4.54467	9633
4.54533	9659
4.54600	9687
4.54667	9718
4.54733	9751
4.54800	9787
4.54867	9826
4.54933	9866
4.55000	9910
4.55067	9956
4.55133	10004
4.55200	10055
4.55267	10109
4.55333	10164
4.55400	10223
4.55467	10283
4.55533	10346
4.55600	10411
4.55667	10479
4.55733	10549
4.55800	10621
4.55867	10695
4.55933	10771
4.56000	10850
4.56067	10930
4.56133	11013
4.56200	11097
4.56267	11184
4.56333	11273
4.56400	11363
4.56467	11456
4.56533	11550
4.56600	11646
4.56667	11744
4.56733	11844
4.56800	11945
4.56867	12048
4.56933	12152
4.57000	12258
4.57067	12364
4.57133	12472
4.57200	12582
4.57267	12692
4.57333	12803
4.57400	12915
4.57467	13029
4.57533	13142
4.57600	13257
4.57667	13372
4.57733	13487
4.57800	13603
4.57867	13719
4.57933	13836
4.58000	13953
4.58067	14070
4.58133	14186
4.58200	14303
4.58267	14420
4.58333	14536
4.58400	14652
4.58467	14768
4.58533	14883
4.58600	14997
4.58667	15111
4.58733	15225
4.58800	15338
4.58867	15450
4.58933	15561
4.59000	15671
4.59067	15780
4.59133	15888
4.59200	15995
4.59267	16101
4.59333	16205
4.59400	16309
4.59467	16410
4.59533	16510
4.59600	16609
4.59667	16706
4.59733	16801
4.59800	16894
4.59867	16985
4.59933	17074
4.60000	17162
4.60067	17247
4.60133	17331
4.60200	17412
4.60267	17491
4.60333	17569
4.60400	17644
4.60467	17717
4.60533	17788
4.60600	17857
4.60667	17923
4.60733	17988
4.60800	18050
4.60867	18110
4.60933	18167
4.61000	18222
4.61067	18275
4.61133	18325
4.61200	18374
4.61267	18419
4.61333	18462
4.61400	18503
4.61467	18541
4.61533	18577
4.61600	18611
4.61667	18641
4.61733	18670
4.61800	18696
4.61867	18719
4.61933	18740
4.62000	18759
4.62067	18775
4.62133	18789
4.62200	18800
4.62267	18809
4.62333	18816
4.62400	18820
4.62467	18822
4.62533	18822
4.62600	18819
4.62667	18815
4.62733	18808
4.62800	18799
4.62867	18787
4.62933	18774
4.63000	18758
4.63067	18741
4.63133	18721
4.63200	18699
4.63267	18676
4.63333	18651
4.63400	18624
4.63467	18595
4.63533	18564
4.63600	18532
4.63667	18498
4.63733	18463
4.63800	18426
4.63867	18388
4.63933	18348
4.64000	18307
4.64067	18265
4.64133	18221
4.64200	18176
4.64267	18131
4.64333	18084
4.64400	18036
4.64467	17987
4.64533	17937
4.64600	17887
4.64667	17835
4.64733	17783
4.64800	17730
4.64867	17676
4.64933	17622
4.65000	17567
4.65067	17511
4.65133	17455
4.65200	17398
4.65267	17341
4.65333	17284
4.65400	17226
4.65467	17167
4.65533	17109
4.65600	17050
4.65667	16991
4.65733	16932
4.65800	16873
4.65867	16813
4.65933	16754
4.66000	16694
4.66067	16635
4.66133	16576
4.66200	16516
4.66267	16457
4.66333	16398
4.66400	16338
4.66467	16279
4.66533	16220
4.66600	16161
4.66667	16102
4.66733	16043
4.66800	15985
4.66867	15926
4.66933	15868
4.67000	15810
4.67067	15752
4.67133	15694
4.67200	15637
4.67267	15580
4.67333	15523
4.67400	15467
4.67467	15411
4.67533	15355
4.67600	15299
4.67667	15244
4.67733	15190
4.67800	15136
4.67867	15082
4.67933	15028
4.68000	14975
4.68067	14922
4.68133	14870
4.68200	14818
4.68267	14767
4.68333	14715
4.68400	14665
4.68467	14615
4.68533	14565
4.68600	14516
4.68667	14467
4.68733	14418
4.68800	14371
4.68867	14323
4.68933	14277
4.69000	14230
4.69067	14185
4.69133	14139
4.69200	14095
4.69267	14050
4.69333	14007
4.69400	13963
4.69467	13920
4.69533	13878
4.69600	13836
4.69667	13794
4.69733	13753
4.69800	13713
4.69867	13672
4.69933	13632
4.70000	13593
4.70067	13554
4.70133	13515
4.70200	13476
4.70267	13438
4.70333	13401
4.70400	13363
4.70467	13326
4.70533	13289
4.70600	13253
4.70667	13217
4.70733	13181
4.70800	13146
4.70867	13110
4.70933	13075
4.71000	13041
4.71067	13006
4.71133	12972
4.71200	12939
4.71267	12905
4.71333	12872
4.71400	12839
4.71467	12806
4.71533	12774
4.71600	12742
4.71667	12710
4.71733	12678
4.71800	12647
4.71867	12616
4.71933	12585
4.72000	12554
4.72067	12524
4.72133	12494
4.72200	12464
4.72267	12434
4.72333	12405
4.72400	12376
4.72467	12347
4.72533	12318
4.72600	12290
4.72667	12262
4.72733	12234
4.72800	12206
4.72867	12179
4.72933	12151
4.73000	12124
4.73067	12098
4.73133	12071
4.73200	12045
4.73267	12019
4.73333	11993
4.73400	11967
4.73467	11942
4.73533	11916
4.73600	11891
4.73667	11867
4.73733	11842
4.73800	11818
4.73867	11794
4.73933	11770
4.74000	11746
4.74067	11723
4.74133	11700
4.74200	11677
4.74267	11654
4.74333	11632
4.74400	11610
4.74467	11588
4.74533	11566
4.74600	11545
4.74667	11523
4.74733	11502
4.74800	11481
4.74867	11461
4.74933	11440
4.75000	11420
4.75067	11400
4.75133	11380
4.75200	11360
4.75267	11341
4.75333	11321
4.75400	11302
4.75467	11284
4.75533	11265
4.75600	11246
4.75667	11228
4.75733	11210
4.75800	11192
4.75867	11175
4.75933	11157
4.76000	11140
4.76067	11123
4.76133	11106
4.76200	11089
4.76267	11072
4.76333	11055
4.76400	11039
4.76467	11023
4.76533	11006
4.76600	10990
4.76667	10974
4.76733	10959
4.76800	10943
4.76867	10927
4.76933	10912
4.77000	10897
4.77067	10881
4.77133	10866
4.77200	10851
4.77267	10837
4.77333	10822
4.77400	10807
4.77467	10793
4.77533	10779
4.77600	10765
4.77667	10751
4.77733	10737
4.77800	10724
4.77867	10710
4.77933	10697
4.78000	10684
4.78067	10671
4.78133	10659
4.78200	10646
4.78267	10634
4.78333	10621
4.78400	10609
4.78467	10596
4.78533	10584
4.78600	10572
4.78667	10560
4.78733	10548
4.78800	10536
4.78867	10524
4.78933	10512
4.79000	10500
4.79067	10488
4.79133	10476
4.79200	10464
4.79267	10452
4.79333	10440
4.79400	10428
4.79467	10415
4.79533	10403
4.79600	10391
4.79667	10379
4.79733	10367
4.79800	10355
4.79867	10343
4.79933	10331
4.80000	10319
4.80067	10307
4.80133	10296
4.80200	10284
4.80267	10273
4.80333	10261
4.80400	10250
4.80467	10238
4.80533	10227
4.80600	10215
4.80667	10204
4.80733	10193
4.80800	10181
4.80867	10170
4.80933	10159
4.81000	10148
4.81067	10136
4.81133	10125
4.81200	10113
4.81267	10102
4.81333	10091
4.81400	10079
4.81467	10068
4.81533	10057
4.81600	10045
4.81667	10034
4.81733	10023
4.81800	10012
4.81867	10001
4.81933	9990
4.82000	9979
4.82067	9968
4.82133	9957
4.82200	9947
4.82267	9936
4.82333	9925
4.82400	9914
4.82467	9904
4.82533	9893
4.82600	9882
4.82667	9872
4.82733	9861
4.82800	9851
4.82867	9841
4.82933	9830
4.83000	9820
4.83067	9809
4.83133	9799
4.83200	9789
4.83267	9778
4.83333	9768
4.83400	9757
4.83467	9747
4.83533	9737
4.83600	9726
4.83667	9716
4.83733	9706
4.83800	9695
4.83867	9685
4.83933	9675
4.84000	9665
4.84067	9655
4.84133	9645
4.84200	9635
4.84267	9625
4.84333	9615
4.84400	9605
4.84467	9595
4.84533	9585
4.84600	9576
4.84667	9566
4.84733	9556
4.84800	9547
4.84867	9537
4.84933	9527
4.85000	9518
4.85067	9509
4.85133	9499
4.85200	9490
4.85267	9481
4.85333	9472
4.85400	9462
4.85467	9453
4.85533	9445
4.85600	9436
4.85667	9427
4.85733	9418
4.85800	9410
4.85867	9401
4.85933	9392
4.86000	9384
4.86067	9375
4.86133	9367
4.86200	9359
4.86267	9351
4.86333	9342
4.86400	9334
4.86467	9326
4.86533	9318
4.86600	9310
4.86667	9302
4.86733	9293
4.86800	9285
4.86867	9277
4.86933	9269
4.87000	9261
4.87067	9253
4.87133	9245
4.87200	9237
4.87267	9229
4.87333	9221
4.87400	9213
4.87467	9205
4.87533	9196
4.87600	9188
4.87667	9180
4.87733	9172
4.87800	9164
4.87867	9156
4.87933	9148
4.88000	9140
4.88067	9132
4.88133	9124
4.88200	9116
4.88267	9108
4.88333	9100
4.88400	9092
4.88467	9084
4.88533	9076
4.88600	9069
4.88667	9061
4.88733	9053
4.88800	9045
4.88867	9037
4.88933	9030
4.89000	9022
4.89067	9014
4.89133	9007
4.89200	8999
4.89267	8991
4.89333	8984
4.89400	8976
4.89467	8968
4.89533	8961
4.89600	8953
4.89667	8946
4.89733	8938
4.89800	8931
4.89867	8923
4.89933	8916
4.90000	8908
4.90067	8901
4.90133	8893
4.90200	8885
4.90267	8878
4.90333	8870
4.90400	8863
4.90467	8855
4.90533	8847
4.90600	8840
4.90667	8832
4.90733	8824
4.90800	8817
4.90867	8809
4.90933	8801
4.91000	8794
4.91067	8786
4.91133	8779
4.91200	8771
4.91267	8764
4.91333	8756
4.91400	8749
4.91467	8742
4.91533	8735
4.91600	8727
4.91667	8720
4.91733	8713
4.91800	8706
4.91867	8699
4.91933	8692
4.92000	8685
4.92067	8678
4.92133	8671
4.92200	8664
4.92267	8657
4.92333	8650
4.92400	8643
4.92467	8636
4.92533	8629
4.92600	8622
4.92667	8615
4.92733	8608
4.92800	8601
4.92867	8594
4.92933	8587
4.93000	8580
4.93067	8573
4.93133	8566
4.93200	8560
4.93267	8553
4.93333	8546
4.93400	8539
4.93467	8533
4.93533	8526
4.93600	8519
4.93667	8513
4.93733	8506
4.93800	8500
4.93867	8493
4.93933	8487
4.94000	8480
4.94067	8474
4.94133	8468
4.94200	8461
4.94267	8455
4.94333	8449
4.94400	8442
4.94467	8436
4.94533	8430
4.94600	8423
4.94667	8417
4.94733	8411
4.94800	8404
4.94867	8398
4.94933	8391
4.95000	8385
4.95067	8378
4.95133	8372
4.95200	8366
4.95267	8359
4.95333	8353
4.95400	8347
4.95467	8340
4.95533	8334
4.95600	8328
4.95667	8322
4.95733	8315
4.95800	8309
4.95867	8303
4.95933	8297
4.96000	8290
4.96067	8284
4.96133	8278
4.96200	8272
4.96267	8266
4.96333	8260
4.96400	8254
4.96467	8248
4.96533	8242
4.96600	8236
4.96667	8230
4.96733	8224
4.96800	8219
4.96867	8213
4.96933	8207
4.97000	8201
4.97067	8195
4.97133	8189
4.97200	8183
4.97267	8177
4.97333	8171
4.97400	8166
4.97467	8160
4.97533	8154
4.97600	8148
4.97667	8142
4.97733	8136
4.97800	8130
4.97867	8124
4.97933	8119
4.98000	8113
4.98067	8107
4.98133	8101
4.98200	8096
4.98267	8090
4.98333	8084
4.98400	8078
4.98467	8073
4.98533	8067
4.98600	8061
4.98667	8056
4.98733	8050
4.98800	8045
4.98867	8039
4.98933	8033
4.99000	8028
4.99067	8022
4.99133	8017
4.99200	8011
4.99267	8006
4.99333	8001
4.99400	7995
4.99467	7990
4.99533	7985
4.99600	7980
4.99667	7975
4.99733	7970
4.99800	7965
4.99867	7960
4.99933	7955
5.00000	7950
5.00067	7945
5.00133	7941
5.00200	7936
5.00267	7931
5.00333	7926
5.00400	7922
5.00467	7917
5.00533	7912
5.00600	7907
5.00667	7902
5.00733	7898
5.00800	7893
5.00867	7888
5.00933	7883
5.01000	7878
5.01067	7873
5.01133	7869
5.01200	7864
5.01267	7859
5.01333	7855
5.01400	7850
5.01467	7845
5.01533	7841
5.01600	7836
5.01667	7831
5.01733	7827
5.01800	7822
5.01867	7818
5.01933	7813
5.02000	7809
5.02067	7804
5.02133	7799
5.02200	7795
5.02267	7790
5.02333	7786
5.02400	7781
5.02467	7777
5.02533	7772
5.02600	7768
5.02667	7763
5.02733	7759
5.02800	7754
5.02867	7750
5.02933	7745
5.03000	7741
5.03067	7736
5.03133	7732
5.03200	7727
5.03267	7723
5.03333	7718
5.03400	7714
5.03467	7709
5.03533	7705
5.03600	7700
5.03667	7696
5.03733	7692
5.03800	7688
5.03867	7683
5.03933	7679
5.04000	7675
5.04067	7671
5.04133	7667
5.04200	7663
5.04267	7659
5.04333	7655
5.04400	7650
5.04467	7646
5.04533	7642
5.04600	7638
5.04667	7634
5.04733	7630
5.04800	7626
5.04867	7622
5.04933	7617
5.05000	7613
5.05067	7609
5.05133	7605
5.05200	7601
5.05267	7596
5.05333	7592
5.05400	7588
5.05467	7583
5.05533	7579
5.05600	7575
5.05667	7571
5.05733	7566
5.05800	7562
5.05867	7558
5.05933	7553
5.06000	7549
5.06067	7545
5.06133	7541
5.06200	7536
5.06267	7532
5.06333	7528
5.06400	7524
5.06467	7520
5.06533	7515
5.06600	7511
5.06667	7507
5.06733	7503
5.06800	7499
5.06867	7494
5.06933	7490
5.07000	7486
5.07067	7482
5.07133	7478
5.07200	7474
5.07267	7470
5.07333	7466
5.07400	7462
5.07467	7458
5.07533	7454
5.07600	7450
5.07667	7446
5.07733	7442
5.07800	7439
5.07867	7435
5.07933	7431
5.08000	7428
5.08067	7424
5.08133	7421
5.08200	7418
5.08267	7414
5.08333	7411
5.08400	7407
5.08467	7404
5.08533	7401
5.08600	7398
5.08667	7395
5.08733	7392
5.08800	7389
5.08867	7386
5.08933	7383
5.09000	7380
5.09067	7377
5.09133	7374
5.09200	7371
5.09267	7368
5.09333	7365
5.09400	7362
5.09467	7360
5.09533	7357
5.09600	7354
5.09667	7352
5.09733	7349
5.09800	7347
5.09867	7344
5.09933	7342
5.10000	7339
5.10067	7337
5.10133	7335
5.10200	7333
5.10267	7330
5.10333	7328
5.10400	7327
5.10467	7325
5.10533	7323
5.10600	7321
5.10667	7320
5.10733	7318
5.10800	7317
5.10867	7316
5.10933	7315
5.11000	7314
5.11067	7314
5.11133	7313
5.11200	7313
5.11267	7313
5.11333	7312
5.11400	7312
5.11467	7313
5.11533	7313
5.11600	7314
5.11667	7314
5.11733	7315
5.11800	7316
5.11867	7317
5.11933	7319
5.12000	7320
5.12067	7322
5.12133	7323
5.12200	7325
5.12267	7327
5.12333	7330
5.12400	7332
5.12467	7335
5.12533	7337
5.12600	7340
5.12667	7344
5.12733	7347
5.12800	7351
5.12867	7355
5.12933	7359
5.13000	7364
5.13067	7368
5.13133	7373
5.13200	7379
5.13267	7384
5.13333	7390
5.13400	7396
5.13467	7402
5.13533	7409
5.13600	7416
5.13667	7423
5.13733	7430
5.13800	7438
5.13867	7447
5.13933	7455
5.14000	7464
5.14067	7473
5.14133	7483
5.14200	7493
5.14267	7504
5.14333	7515
5.14400	7526
5.14467	7538
5.14533	7551
5.14600	7563
5.14667	7577
5.14733	7590
5.14800	7605
5.14867	7619
5.14933	7635
5.15000	7650
5.15067	7667
5.15133	7683
5.15200	7701
5.15267	7718
5.15333	7737
5.15400	7755
5.15467	7775
5.15533	7794
5.15600	7814
5.15667	7835
5.15733	7856
5.15800	7878
5.15867	7900
5.15933	7923
5.16000	7946
5.16067	7970
5.16133	7994
5.16200	8018
5.16267	8043
5.16333	8069
5.16400	8095
5.16467	8121
5.16533	8148
5.16600	8176
5.16667	8204
5.16733	8232
5.16800	8261
5.16867	8291
5.16933	8320
5.17000	8351
5.17067	8381
5.17133	8412
5.17200	8444
5.17267	8476
5.17333	8509
5.17400	8542
5.17467	8575
5.17533	8609
5.17600	8643
5.17667	8678
5.17733	8713
5.17800	8748
5.17867	8784
5.17933	8820
5.18000	8857
5.18067	8893
5.18133	8930
5.18200	8968
5.18267	9005
5.18333	9043
5.18400	9081
5.18467	9120
5.18533	9158
5.18600	9197
5.18667	9237
5.18733	9276
5.18800	9316
5.18867	9356
5.18933	9396
5.19000	9436
5.19067	9476
5.19133	9516
5.19200	9556
5.19267	9597
5.19333	9637
5.19400	9677
5.19467	9717
5.19533	9757
5.19600	9797
5.19667	9837
5.19733	9877
5.19800	9917
5.19867	9957
5.19933	9996
5.20000	10035
5.20067	10074
5.20133	10113
5.20200	10151
5.20267	10189
5.20333	10227
5.20400	10265
5.20467	10302
5.20533	10339
5.20600	10375
5.20667	10411
5.20733	10446
5.20800	10481
5.20867	10515
5.20933	10549
5.21000	10582
5.21067	10615
5.21133	10648
5.21200	10679
5.21267	10711
5.21333	10741
5.21400	10771
5.21467	10800
5.21533	10829
5.21600	10856
5.21667	10884
5.21733	10910
5.21800	10935
5.21867	10960
5.21933	10984
5.22000	11008
5.22067	11030
5.22133	11052
5.22200	11073
5.22267	11093
5.22333	11112
5.22400	11131
5.22467	11149
5.22533	11165
5.22600	11181
5.22667	11197
5.22733	11211
5.22800	11225
5.22867	11237
5.22933	11249
5.23000	11260
5.23067	11271
5.23133	11280
5.23200	11288
5.23267	11296
5.23333	11303
5.23400	11309
5.23467	11314
5.23533	11318
5.23600	11322
5.23667	11324
5.23733	11326
5.23800	11327
5.23867	11327
5.23933	11326
5.24000	11325
5.24067	11322
5.24133	11319
5.24200	11315
5.24267	11310
5.24333	11305
5.24400	11298
5.24467	11291
5.24533	11283
5.24600	11274
5.24667	11265
5.24733	11254
5.24800	11243
5.24867	11232
5.24933	11219
5.25000	11206
5.25067	11192
5.25133	11178
5.25200	11163
5.25267	11147
5.25333	11131
5.25400	11114
5.25467	11096
5.25533	11078
5.25600	11059
5.25667	11040
5.25733	11020
5.25800	10999
5.25867	10978
5.25933	10956
5.26000	10934
5.26067	10911
5.26133	10888
5.26200	10864
5.26267	10840
5.26333	10815
5.26400	10790
5.26467	10765
5.26533	10739
5.26600	10713
5.26667	10687
5.26733	10660
5.26800	10633
5.26867	10606
5.26933	10578
5.27000	10550
5.27067	10522
5.27133	10494
5.27200	10465
5.27267	10437
5.27333	10408
5.27400	10379
5.27467	10349
5.27533	10320
5.27600	10290
5.27667	10260
5.27733	10230
5.27800	10200
5.27867	10170
5.27933	10140
5.28000	10110
5.28067	10080
5.28133	10049
5.28200	10019
5.28267	9989
5.28333	9958
5.28400	9928
5.28467	9898
5.28533	9868
5.28600	9837
5.28667	9807
5.28733	9777
5.28800	9747
5.28867	9717
5.28933	9688
5.29000	9658
5.29067	9628
5.29133	9599
5.29200	9569
5.29267	9540
5.29333	9511
5.29400	9482
5.29467	9453
5.29533	9425
5.29600	9396
5.29667	9368
5.29733	9340
5.29800	9312
5.29867	9285
5.29933	9257
5.30000	9230
5.30067	9203
5.30133	9176
5.30200	9150
5.30267	9123
5.30333	9097
5.30400	9071
5.30467	9045
5.30533	9019
5.30600	8994
5.30667	8969
5.30733	8944
5.30800	8919
5.30867	8894
5.30933	8869
5.31000	8845
5.31067	8821
5.31133	8797
5.31200	8773
5.31267	8749
5.31333	8726
5.31400	8702
5.31467	8679
5.31533	8656
5.31600	8633
5.31667	8611
5.31733	8588
5.31800	8566
5.31867	8544
5.31933	8522
5.32000	8501
5.32067	8479
5.32133	8458
5.32200	8437
5.32267	8416
5.32333	8395
5.32400	8375
5.32467	8354
5.32533	8334
5.32600	8315
5.32667	8295
5.32733	8276
5.32800	8256
5.32867	8238
5.32933	8219
5.33000	8200
5.33067	8182
5.33133	8164
5.33200	8146
5.33267	8128
5.33333	8111
5.33400	8093
5.33467	8076
5.33533	8059
5.33600	8042
5.33667	8026
5.33733	8009
5.33800	7993
5.33867	7977
5.33933	7961
5.34000	7945
5.34067	7930
5.34133	7915
5.34200	7899
5.34267	7884
5.34333	7869
5.34400	7855
5.34467	7840
5.34533	7826
5.34600	7812
5.34667	7798
5.34733	7784
5.34800	7770
5.34867	7757
5.34933	7743
5.35000	7730
5.35067	7717
5.35133	7704
5.35200	7691
5.35267	7679
5.35333	7666
5.35400	7654
5.35467	7641
5.35533	7629
5.35600	7617
5.35667	7605
5.35733	7594
5.35800	7582
5.35867	7570
5.35933	7559
5.36000	7548
5.36067	7536
5.36133	7525
5.36200	7514
5.36267	7504
5.36333	7493
5.36400	7482
5.36467	7472
5.36533	7461
5.36600	7451
5.36667	7441
5.36733	7431
5.36800	7421
5.36867	7411
5.36933	7402
5.37000	7392
5.37067	7382
5.37133	7373
5.37200	7363
5.37267	7354
5.37333	7345
5.37400	7336
5.37467	7327
5.37533	7317
5.37600	7308
5.37667	7299
5.37733	7291
5.37800	7282
5.37867	7273
5.37933	7264
5.38000	7255
5.38067	7247
5.38133	7238
5.38200	7229
5.38267	7221
5.38333	7213
5.38400	7204
5.38467	7196
5.38533	7187
5.38600	7179
5.38667	7171
5.38733	7163
5.38800	7154
5.38867	7146
5.38933	7138
5.39000	7130
5.39067	7122
5.39133	7114
5.39200	7106
5.39267	7098
5.39333	7091
5.39400	7083
5.39467	7075
5.39533	7068
5.39600	7060
5.39667	7053
5.39733	7046
5.39800	7039
5.39867	7032
5.39933	7025
5.40000	7018
5.40067	7011
5.40133	7004
5.40200	6997
5.40267	6991
5.40333	6984
5.40400	6978
5.40467	6971
5.40533	6965
5.40600	6959
5.40667	6952
5.40733	6946
5.40800	6940
5.40867	6934
5.40933	6928
5.41000	6922
5.41067	6916
5.41133	6911
5.41200	6905
5.41267	6899
5.41333	6894
5.41400	6888
5.41467	6883
5.41533	6877
5.41600	6872
5.41667	6866
5.41733	6861
5.41800	6856
5.41867	6850
5.41933	6845
5.42000	6840
5.42067	6835
5.42133	6830
5.42200	6825
5.42267	6820
5.42333	6815
5.42400	6810
5.42467	6805
5.42533	6801
5.42600	6796
5.42667	6791
5.42733	6786
5.42800	6782
5.42867	6777
5.42933	6772
5.43000	6767
5.43067	6763
5.43133	6758
5.43200	6753
5.43267	6748
5.43333	6744
5.43400	6739
5.43467	6734
5.43533	6729
5.43600	6724
5.43667	6720
5.43733	6715
5.43800	6710
5.43867	6705
5.43933	6701
5.44000	6696
5.44067	6691
5.44133	6687
5.44200	6682
5.44267	6677
5.44333	6672
5.44400	6668
5.44467	6663
5.44533	6658
5.44600	6653
5.44667	6649
5.44733	6644
5.44800	6639
5.44867	6634
5.44933	6630
5.45000	6625
5.45067	6620
5.45133	6616
5.45200	6611
5.45267	6607
5.45333	6602
5.45400	6598
5.45467	6593
5.45533	6589
5.45600	6584
5.45667	6580
5.45733	6576
5.45800	6571
5.45867	6567
5.45933	6563
5.46000	6558
5.46067	6554
5.46133	6550
5.46200	6545
5.46267	6541
5.46333	6537
5.46400	6532
5.46467	6528
5.46533	6524
5.46600	6519
5.46667	6515
5.46733	6511
5.46800	6506
5.46867	6502
5.46933	6498
5.47000	6493
5.47067	6489
5.47133	6484
5.47200	6480
5.47267	6476
5.47333	6472
5.47400	6467
5.47467	6463
5.47533	6459
5.47600	6455
5.47667	6450
5.47733	6446
5.47800	6442
5.47867	6438
5.47933	6434
5.48000	6430
5.48067	6425
5.48133	6421
5.48200	6417
5.48267	6413
5.48333	6409
5.48400	6405
5.48467	6401
5.48533	6397
5.48600	6393
5.48667	6389
5.48733	6385
5.48800	6381
5.48867	6377
5.48933	6373
5.49000	6369
5.49067	6365
5.49133	6361
5.49200	6357
5.49267	6353
5.49333	6349
5.49400	6345
5.49467	6341
5.49533	6338
5.49600	6334
5.49667	6330
5.49733	6326
5.49800	6323
5.49867	6319
5.49933	6315
5.50000	6311
5.50067	6308
5.50133	6304
5.50200	6300
5.50267	6297
5.50333	6293
5.50400	6290
5.50467	6286
5.50533	6283
5.50600	6279
5.50667	6276
5.50733	6272
5.50800	6269
5.50867	6265
5.50933	6262
5.51000	6258
5.51067	6255
5.51133	6252
5.51200	6248
5.51267	6245
5.51333	6241
5.51400	6238
5.51467	6235
5.51533	6231
5.51600	6228
5.51667	6224
5.51733	6221
5.51800	6218
5.51867	6215
5.51933	6212
5.52000	6208
5.52067	6205
5.52133	6202
5.52200	6199
5.52267	6196
5.52333	6193
5.52400	6190
5.52467	6187
5.52533	6184
5.52600	6181
5.52667	6179
5.52733	6176
5.52800	6173
5.52867	6170
5.52933	6167
5.53000	6164
5.53067	6161
5.53133	6159
5.53200	6156
5.53267	6153
5.53333	6150
5.53400	6148
5.53467	6145
5.53533	6142
5.53600	6139
5.53667	6137
5.53733	6134
5.53800	6131
5.53867	6129
5.53933	6126
5.54000	6123
5.54067	6120
5.54133	6118
5.54200	6115
5.54267	6112
5.54333	6110
5.54400	6107
5.54467	6104
5.54533	6102
5.54600	6099
5.54667	6097
5.54733	6094
5.54800	6091
5.54867	6089
5.54933	6086
5.55000	6084
5.55067	6081
5.55133	6079
5.55200	6076
5.55267	6074
5.55333	6071
5.55400	6069
5.55467	6066
5.55533	6063
5.55600	6061
5.55667	6058
5.55733	6056
5.55800	6053
5.55867	6051
5.55933	6048
5.56000	6046
5.56067	6043
5.56133	6041
5.56200	6039
5.56267	6036
5.56333	6034
5.56400	6032
5.56467	6029
5.56533	6027
5.56600	6025
5.56667	6023
5.56733	6021
5.56800	6018
5.56867	6016
5.56933	6014
5.57000	6012
5.57067	6010
5.57133	6008
5.57200	6006
5.57267	6004
5.57333	6002
5.57400	5999
5.57467	5997
5.57533	5995
5.57600	5993
5.57667	5991
5.57733	5989
5.57800	5987
5.57867	5985
5.57933	5984
5.58000	5982
5.58067	5980
5.58133	5978
5.58200	5976
5.58267	5974
5.58333	5972
5.58400	5971
5.58467	5969
5.58533	5967
5.58600	5965
5.58667	5964
5.58733	5962
5.58800	5960
5.58867	5959
5.58933	5957
5.59000	5956
5.59067	5954
5.59133	5953
5.59200	5951
5.59267	5950
5.59333	5948
5.59400	5947
5.59467	5946
5.59533	5944
5.59600	5943
5.59667	5941
5.59733	5940
5.59800	5938
5.59867	5937
5.59933	5935
5.60000	5933
5.60067	5932
5.60133	5930
5.60200	5929
5.60267	5927
5.60333	5925
5.60400	5923
5.60467	5922
5.60533	5920
5.60600	5918
5.60667	5917
5.60733	5915
5.60800	5913
5.60867	5911
5.60933	5909
5.61000	5908
5.61067	5906
5.61133	5904
5.61200	5902
5.61267	5900
5.61333	5899
5.61400	5897
5.61467	5895
5.61533	5893
5.61600	5891
5.61667	5889
5.61733	5887
5.61800	5886
5.61867	5884
5.61933	5882
5.62000	5880
5.62067	5878
5.62133	5876
5.62200	5875
5.62267	5873
5.62333	5871
5.62400	5869
5.62467	5867
5.62533	5865
5.62600	5863
5.62667	5862
5.62733	5860
5.62800	5858
5.62867	5856
5.62933	5854
5.63000	5852
5.63067	5850
5.63133	5848
5.63200	5847
5.63267	5845
5.63333	5843
5.63400	5841
5.63467	5840
5.63533	5838
5.63600	5836
5.63667	5834
5.63733	5833
5.63800	5831
5.63867	5829
5.63933	5828
5.64000	5826
5.64067	5825
5.64133	5823
5.64200	5821
5.64267	5820
5.64333	5818
5.64400	5816
5.64467	5815
5.64533	5813
5.64600	5811
5.64667	5810
5.64733	5808
5.64800	5807
5.64867	5805
5.64933	5803
5.65000	5802
5.65067	5800
5.65133	5799
5.65200	5798
5.65267	5796
5.65333	5795
5.65400	5794
5.65467	5792
5.65533	5791
5.65600	5790
5.65667	5789
5.65733	5788
5.65800	5787
5.65867	5786
5.65933	5785
5.66000	5784
5.66067	5782
5.66133	5781
5.66200	5780
5.66267	5779
5.66333	5778
5.66400	5776
5.66467	5775
5.66533	5774
5.66600	5772
5.66667	5771
5.66733	5770
5.66800	5769
5.66867	5767
5.66933	5766
5.67000	5765
5.67067	5764
5.67133	5763
5.67200	5761
5.67267	5760
5.67333	5759
5.67400	5758
5.67467	5756
5.67533	5755
5.67600	5754
5.67667	5752
5.67733	5751
5.67800	5750
5.67867	5748
5.67933	5747
5.68000	5745
5.68067	5744
5.68133	5742
5.68200	5741
5.68267	5739
5.68333	5738
5.68400	5736
5.68467	5734
5.68533	5733
5.68600	5731
5.68667	5730
5.68733	5728
5.68800	5727
5.68867	5726
5.68933	5724
5.69000	5723
5.69067	5721
5.69133	5720
5.69200	5718
5.69267	5716
5.69333	5715
5.69400	5713
5.69467	5712
5.69533	5710
5.69600	5709
5.69667	5707
5.69733	5706
5.69800	5704
5.69867	5703
5.69933	5701
5.70000	5699
5.70067	5698
5.70133	5696
5.70200	5695
5.70267	5693
5.70333	5692
5.70400	5690
5.70467	5689
5.70533	5687
5.70600	5686
5.70667	5684
5.70733	5682
5.70800	5681
5.70867	5679
5.70933	5678
5.71000	5676
5.71067	5675
5.71133	5673
5.71200	5671
5.71267	5670
5.71333	5668
5.71400	5667
5.71467	5665
5.71533	5664
5.71600	5662
5.71667	5661
5.71733	5659
5.71800	5658
5.71867	5656
5.71933	5655
5.72000	5654
5.72067	5652
5.72133	5651
5.72200	5649
5.72267	5648
5.72333	5647
5.72400	5645
5.72467	5644
5.72533	5642
5.72600	5641
5.72667	5640
5.72733	5638
5.72800	5637
5.72867	5636
5.72933	5635
5.73000	5633
5.73067	5632
5.73133	5631
5.73200	5630
5.73267	5629
5.73333	5628
5.73400	5627
5.73467	5626
5.73533	5625
5.73600	5624
5.73667	5623
5.73733	5622
5.73800	5621
5.73867	5620
5.73933	5619
5.74000	5618
5.74067	5617
5.74133	5616
5.74200	5615
5.74267	5614
5.74333	5613
5.74400	5612
5.74467	5612
5.74533	5611
5.74600	5610
5.74667	5609
5.74733	5608
5.74800	5607
5.74867	5606
5.74933	5605
5.75000	5604
5.75067	5604
5.75133	5603
5.75200	5602
5.75267	5601
5.75333	5600
5.75400	5600
5.75467	5599
5.75533	5598
5.75600	5597
5.75667	5596
5.75733	5596
5.75800	5595
5.75867	5594
5.75933	5594
5.76000	5593
5.76067	5592
5.76133	5591
5.76200	5591
5.76267	5590
5.76333	5589
5.76400	5588
5.76467	5588
5.76533	5587
5.76600	5586
5.76667	5585
5.76733	5585
5.76800	5584
5.76867	5583
5.76933	5582
5.77000	5581
5.77067	5581
5.77133	5580
5.77200	5579
5.77267	5578
5.77333	5577
5.77400	5577
5.77467	5576
5.77533	5575
5.77600	5574
5.77667	5574
5.77733	5573
5.77800	5572
5.77867	5571
5.77933	5571
5.78000	5570
5.78067	5569
5.78133	5569
5.78200	5568
5.78267	5568
5.78333	5567
5.78400	5566
5.78467	5565
5.78533	5565
5.78600	5564
5.78667	5563
5.78733	5563
5.78800	5562
5.78867	5561
5.78933	5561
5.79000	5560
5.79067	5559
5.79133	5559
5.79200	5558
5.79267	5557
5.79333	5557
5.79400	5556
5.79467	5556
5.79533	5555
5.79600	5555
5.79667	5554
5.79733	5554
5.79800	5553
5.79867	5553
5.79933	5552
5.80000	5552
5.80067	5551
5.80133	5551
5.80200	5550
5.80267	5550
5.80333	5550
5.80400	5549
5.80467	5549
5.80533	5548
5.80600	5548
5.80667	5548
5.80733	5548
5.80800	5547
5.80867	5547
5.80933	5547
5.81000	5546
5.81067	5546
5.81133	5546
5.81200	5546
5.81267	5546
5.81333	5545
5.81400	5545
5.81467	5545
5.81533	5545
5.81600	5545
5.81667	5544
5.81733	5544
5.81800	5544
5.81867	5544
5.81933	5544
5.82000	5543
5.82067	5543
5.82133	5543
5.82200	5543
5.82267	5543
5.82333	5542
5.82400	5542
5.82467	5542
5.82533	5542
5.82600	5542
5.82667	5541
5.82733	5541
5.82800	5541
5.82867	5541
5.82933	5540
5.83000	5540
5.83067	5540
5.83133	5539
5.83200	5539
5.83267	5539
5.83333	5538
5.83400	5538
5.83467	5538
5.83533	5537
5.83600	5537
5.83667	5537
5.83733	5536
5.83800	5536
5.83867	5536
5.83933	5535
5.84000	5535
5.84067	5534
5.84133	5534
5.84200	5534
5.84267	5533
5.84333	5533
5.84400	5532
5.84467	5532
5.84533	5532
5.84600	5531
5.84667	5531
5.84733	5531
5.84800	5531
5.84867	5530
5.84933	5530
5.85000	5530
5.85067	5530
5.85133	5530
5.85200	5529
5.85267	5529
5.85333	5529
5.85400	5529
5.85467	5529
5.85533	5529
5.85600	5529
5.85667	5529
5.85733	5528
5.85800	5528
5.85867	5528
5.85933	5528
5.86000	5528
5.86067	5527
5.86133	5527
5.86200	5527
5.86267	5527
5.86333	5526
5.86400	5526
5.86467	5526
5.86533	5526
5.86600	5525
5.86667	5525
5.86733	5525
5.86800	5524
5.86867	5524
5.86933	5524
5.87000	5523
5.87067	5523
5.87133	5522
5.87200	5522
5.87267	5521
5.87333	5521
5.87400	5520
5.87467	5520
5.87533	5519
5.87600	5519
5.87667	5518
5.87733	5518
5.87800	5517
5.87867	5517
5.87933	5516
5.88000	5516
5.88067	5515
5.88133	5515
5.88200	5514
5.88267	5514
5.88333	5513
5.88400	5513
5.88467	5512
5.88533	5511
5.88600	5511
5.88667	5510
5.88733	5509
5.88800	5509
5.88867	5508
5.88933	5507
5.89000	5506
5.89067	5506
5.89133	5505
5.89200	5504
5.89267	5503
5.89333	5502
5.89400	5501
5.89467	5500
5.89533	5499
5.89600	5498
5.89667	5496
5.89733	5495
5.89800	5494
5.89867	5493
5.89933	5492
5.90000	5490
5.90067	5489
5.90133	5488
5.90200	5486
5.90267	5485
5.90333	5484
5.90400	5482
5.90467	5481
5.90533	5479
5.90600	5478
5.90667	5477
5.90733	5475
5.90800	5474
5.90867	5472
5.90933	5471
5.91000	5469
5.91067	5468
5.91133	5467
5.91200	5465
5.91267	5464
5.91333	5462
5.91400	5461
5.91467	5459
5.91533	5458
5.91600	5456
5.91667	5455
5.91733	5453
5.91800	5452
5.91867	5450
5.91933	5449
5.92000	5447
5.92067	5446
5.92133	5445
5.92200	5443
5.92267	5442
5.92333	5441
5.92400	5439
5.92467	5438
5.92533	5437
5.92600	5435
5.92667	5434
5.92733	5433
5.92800	5431
5.92867	5430
5.92933	5429
5.93000	5427
5.93067	5426
5.93133	5425
5.93200	5423
5.93267	5422
5.93333	5421
5.93400	5420
5.93467	5419
5.93533	5417
5.93600	5416
5.93667	5415
5.93733	5414
5.93800	5413
5.93867	5412
5.93933	5411
5.94000	5409
5.94067	5408
5.94133	5407
5.94200	5406
5.94267	5405
5.94333	5404
5.94400	5403
5.94467	5402
5.94533	5400
5.94600	5399
5.94667	5398
5.94733	5397
5.94800	5396
5.94867	5395
5.94933	5394
5.95000	5393
5.95067	5392
5.95133	5391
5.95200	5390
5.95267	5389
5.95333	5388
5.95400	5387
5.95467	5386
5.95533	5385
5.95600	5384
5.95667	5383
5.95733	5382
5.95800	5381
5.95867	5380
5.95933	5380
5.96000	5379
5.96067	5378
5.96133	5377
5.96200	5376
5.96267	5375
5.96333	5375
5.96400	5374
5.96467	5373
5.96533	5372
5.96600	5372
5.96667	5371
5.96733	5370
5.96800	5369
5.96867	5369
5.96933	5368
5.97000	5367
5.97067	5367
5.97133	5366
5.97200	5365
5.97267	5365
5.97333	5364
5.97400	5363
5.97467	5363
5.97533	5362
5.97600	5361
5.97667	5361
5.97733	5360
5.97800	5360
5.97867	5359
5.97933	5359
5.98000	5358
5.98067	5357
5.98133	5357
5.98200	5356
5.98267	5356
5.98333	5355
5.98400	5355
5.98467	5354
5.98533	5353
5.98600	5353
5.98667	5352
5.98733	5352
5.98800	5351
5.98867	5350
5.98933	5350
5.99000	5349
5.99067	5349
5.99133	5348
5.99200	5347
5.99267	5347
5.99333	5346
5.99400	5346
5.99467	5345
5.99533	5344
5.99600	5344
5.99667	5343
5.99733	5343
5.99800	5342
5.99867	5342
5.99933	5341
6.00000	5340
6.00067	5340
6.00133	5339
6.00200	5339
6.00267	5338
6.00333	5337
6.00400	5337
6.00467	5336
6.00533	5335
6.00600	5335
6.00667	5334
6.00733	5333
6.00800	5332
6.00867	5332
6.00933	5331
6.01000	5330
6.01067	5330
6.01133	5329
6.01200	5329
6.01267	5328
6.01333	5327
6.01400	5327
6.01467	5326
6.01533	5326
6.01600	5325
6.01667	5325
6.01733	5324
6.01800	5323
6.01867	5323
6.01933	5322
6.02000	5322
6.02067	5321
6.02133	5321
6.02200	5320
6.02267	5319
6.02333	5319
6.02400	5318
6.02467	5317
6.02533	5317
6.02600	5316
6.02667	5316
6.02733	5315
6.02800	5314
6.02867	5314
6.02933	5313
6.03000	5313
6.03067	5312
6.03133	5312
6.03200	5311
6.03267	5311
6.03333	5310
6.03400	5309
6.03467	5309
6.03533	5308
6.03600	5308
6.03667	5307
6.03733	5306
6.03800	5306
6.03867	5305
6.03933	5305
6.04000	5304
6.04067	5303
6.04133	5303
6.04200	5302
6.04267	5302
6.04333	5301
6.04400	5300
6.04467	5300
6.04533	5299
6.04600	5299
6.04667	5298
6.04733	5298
6.04800	5297
6.04867	5297
6.04933	5296
6.05000	5296
6.05067	5295
6.05133	5295
6.05200	5294
6.05267	5294
6.05333	5293
6.05400	5293
6.05467	5292
6.05533	5292
6.05600	5291
6.05667	5290
6.05733	5290
6.05800	5289
6.05867	5289
6.05933	5288
6.06000	5288
6.06067	5287
6.06133	5287
6.06200	5286
6.06267	5286
6.06333	5285
6.06400	5285
6.06467	5284
6.06533	5284
6.06600	5283
6.06667	5283
6.06733	5283
6.06800	5282
6.06867	5282
6.06933	5281
6.07000	5281
6.07067	5280
6.07133	5280
6.07200	5279
6.07267	5279
6.07333	5278
6.07400	5278
6.07467	5277
6.07533	5277
6.07600	5276
6.07667	5275
6.07733	5275
6.07800	5274
6.07867	5274
6.07933	5273
6.08000	5272
6.08067	5272
6.08133	5271
6.08200	5270
6.08267	5270
6.08333	5269
6.08400	5268
6.08467	5268
6.08533	5267
6.08600	5266
6.08667	5266
6.08733	5265
6.08800	5264
6.08867	5264
6.08933	5263
6.09000	5262
6.09067	5262
6.09133	5261
6.09200	5260
6.09267	5260
6.09333	5259
6.09400	5258
6.09467	5258
6.09533	5257
6.09600	5256
6.09667	5256
6.09733	5255
6.09800	5254
6.09867	5254
6.09933	5253
6.10000	5252
6.10067	5251
6.10133	5251
6.10200	5250
6.10267	5249
6.10333	5249
6.10400	5248
6.10467	5247
6.10533	5246
6.10600	5246
6.10667	5245
6.10733	5244
6.10800	5243
6.10867	5243
6.10933	5242
6.11000	5241
6.11067	5240
6.11133	5240
6.11200	5239
6.11267	5238
6.11333	5238
6.11400	5237
6.11467	5236
6.11533	5236
6.11600	5235
6.11667	5234
6.11733	5234
6.11800	5233
6.11867	5232
6.11933	5232
6.12000	5231
6.12067	5231
6.12133	5230
6.12200	5229
6.12267	5229
6.12333	5228
6.12400	5227
6.12467	5227
6.12533	5226
6.12600	5225
6.12667	5225
6.12733	5224
6.12800	5223
6.12867	5223
6.12933	5222
6.13000	5222
6.13067	5221
6.13133	5220
6.13200	5220
6.13267	5219
6.13333	5219
6.13400	5218
6.13467	5218
6.13533	5217
6.13600	5217
6.13667	5216
6.13733	5215
6.13800	5215
6.13867	5214
6.13933	5213
6.14000	5213
6.14067	5212
6.14133	5211
6.14200	5211
6.14267	5210
6.14333	5209
6.14400	5209
6.14467	5208
6.14533	5207
6.14600	5207
6.14667	5206
6.14733	5205
6.14800	5205
6.14867	5204
6.14933	5203
6.15000	5203
6.15067	5202
6.15133	5201
6.15200	5201
6.15267	5200
6.15333	5199
6.15400	5199
6.15467	5198
6.15533	5197
6.15600	5197
6.15667	5196
6.15733	5195
6.15800	5195
6.15867	5194
6.15933	5194
6.16000	5193
6.16067	5193
6.16133	5192
6.16200	5192
6.16267	5192
6.16333	5191
6.16400	5191
6.16467	5190
6.16533	5190
6.16600	5190
6.16667	5189
6.16733	5189
6.16800	5189
6.16867	5188
6.16933	5188
6.17000	5188
6.17067	5188
6.17133	5187
6.17200	5187
6.17267	5187
6.17333	5187
6.17400	5187
6.17467	5186
6.17533	5186
6.17600	5186
6.17667	5186
6.17733	5186
6.17800	5186
6.17867	5186
6.17933	5186
6.18000	5186
6.18067	5186
6.18133	5186
6.18200	5186
6.18267	5186
6.18333	5187
6.18400	5187
6.18467	5187
6.18533	5187
6.18600	5187
6.18667	5187
6.18733	5187
6.18800	5188
6.18867	5188
6.18933	5188
6.19000	5188
6.19067	5189
6.19133	5189
6.19200	5189
6.19267	5189
6.19333	5190
6.19400	5190
6.19467	5190
6.19533	5191
6.19600	5191
6.19667	5191
6.19733	5191
6.19800	5192
6.19867	5192
6.19933	5192
6.20000	5193
6.20067	5193
6.20133	5193
6.20200	5194
6.20267	5194
6.20333	5194
6.20400	5195
6.20467	5195
6.20533	5195
6.20600	5196
6.20667	5196
6.20733	5196
6.20800	5197
6.20867	5197
6.20933	5198
6.21000	5198
6.21067	5198
6.21133	5199
6.21200	5199
6.21267	5200
6.21333	5200
6.21400	5201
6.21467	5201
6.21533	5201
6.21600	5202
6.21667	5202
6.21733	5203
6.21800	5203
6.21867	5203
6.21933	5204
6.22000	5204
6.22067	5204
6.22133	5205
6.22200	5205
6.22267	5206
6.22333	5206
6.22400	5206
6.22467	5207
6.22533	5207
6.22600	5208
6.22667	5208
6.22733	5209
6.22800	5209
6.22867	5210
6.22933	5211
6.23000	5211
6.23067	5212
6.23133	5212
6.23200	5213
6.23267	5213
6.23333	5214
6.23400	5214
6.23467	5215
6.23533	5216
6.23600	5216
6.23667	5217
6.23733	5217
6.23800	5218
6.23867	5219
6.23933	5219
6.24000	5220
6.24067	5221
6.24133	5221
6.24200	5222
6.24267	5223
6.24333	5223
6.24400	5224
6.24467	5224
6.24533	5225
6.24600	5226
6.24667	5226
6.24733	5227
6.24800	5227
6.24867	5228
6.24933	5228
6.25000	5228
6.25067	5229
6.25133	5229
6.25200	5230
6.25267	5230
6.25333	5231
6.25400	5231
6.25467	5232
6.25533	5232
6.25600	5233
6.25667	5233
6.25733	5234
6.25800	5234
6.25867	5234
6.25933	5235
6.26000	5235
6.26067	5236
6.26133	5236
6.26200	5236
6.26267	5237
6.26333	5237
6.26400	5238
6.26467	5238
6.26533	5238
6.26600	5239
6.26667	5239
6.26733	5240
6.26800	5240
6.26867	5240
6.26933	5241
6.27000	5241
6.27067	5241
6.27133	5242
6.27200	5242
6.27267	5242
6.27333	5242
6.27400	5242
6.27467	5243
6.27533	5243
6.27600	5243
6.27667	5243
6.27733	5243
6.27800	5243
6.27867	5243
6.27933	5243
6.28000	5244
6.28067	5244
6.28133	5244
6.28200	5244
6.28267	5244
6.28333	5244
6.28400	5244
6.28467	5245
6.28533	5245
6.28600	5245
6.28667	5245
6.28733	5245
6.28800	5245
6.28867	5245
6.28933	5245
6.29000	5245
6.29067	5245
6.29133	5245
6.29200	5245
6.29267	5245
6.29333	5245
6.29400	5245
6.29467	5245
6.29533	5245
6.29600	5245
6.29667	5245
6.29733	5244
6.29800	5244
6.29867	5244
6.29933	5244
6.30000	5244
6.30067	5244
6.30133	5244
6.30200	5244
6.30267	5243
6.30333	5243
6.30400	5243
6.30467	5243
6.30533	5242
6.30600	5242
6.30667	5242
6.30733	5241
6.30800	5241
6.30867	5240
6.30933	5240
6.31000	5239
6.31067	5239
6.31133	5238
6.31200	5238
6.31267	5237
6.31333	5237
6.31400	5236
6.31467	5236
6.31533	5235
6.31600	5234
6.31667	5234
6.31733	5233
6.31800	5233
6.31867	5232
6.31933	5232
6.32000	5231
6.32067	5230
6.32133	5230
6.32200	5229
6.32267	5229
6.32333	5228
6.32400	5228
6.32467	5227
6.32533	5226
6.32600	5226
6.32667	5225
6.32733	5224
6.32800	5224
6.32867	5223
6.32933	5222
6.33000	5222
6.33067	5221
6.33133	5220
6.33200	5220
6.33267	5219
6.33333	5218
6.33400	5218
6.33467	5217
6.33533	5216
6.33600	5216
6.33667	5215
6.33733	5214
6.33800	5214
6.33867	5213
6.33933	5213
6.34000	5212
6.34067	5211
6.34133	5211
6.34200	5210
6.34267	5210
6.34333	5209
6.34400	5209
6.34467	5208
6.34533	5208
6.34600	5207
6.34667	5207
6.34733	5206
6.34800	5206
6.34867	5205
6.34933	5205
6.35000	5204
6.35067	5203
6.35133	5203
6.35200	5202
6.35267	5202
6.35333	5201
6.35400	5201
6.35467	5200
6.35533	5199
6.35600	5199
6.35667	5198
6.35733	5198
6.35800	5197
6.35867	5197
6.35933	5196
6.36000	5196
6.36067	5195
6.36133	5195
6.36200	5194
6.36267	5194
6.36333	5193
6.36400	5192
6.36467	5192
6.36533	5191
6.36600	5191
6.36667	5191
6.36733	5190
6.36800	5190
6.36867	5189
6.36933	5189
6.37000	5188
6.37067	5188
6.37133	5188
6.37200	5187
6.37267	5187
6.37333	5186
6.37400	5186
6.37467	5186
6.37533	5185
6.37600	5185
6.37667	5185
6.37733	5184
6.37800	5184
6.37867	5184
6.37933	5183
6.38000	5183
6.38067	5183
6.38133	5183
6.38200	5182
6.38267	5182
6.38333	5182
6.38400	5182
6.38467	5181
6.38533	5181
6.38600	5181
6.38667	5180
6.38733	5180
6.38800	5180
6.38867	5179
6.38933	5179
6.39000	5179
6.39067	5178
6.39133	5178
6.39200	5178
6.39267	5177
6.39333	5177
6.39400	5177
6.39467	5176
6.39533	5176
6.39600	5176
6.39667	5175
6.39733	5175
6.39800	5174
6.39867	5174
6.39933	5174

