[Header]
Application Name	LabSolutions
Version	5.73
Data File Name	C:\LabSolutions\Data\Project1\stephen\2016-01-06\58.gcd
Output Date	1/11/2016
Output Time	1:19:51 PM

[Configuration]
Instrument Name	WEISSTA-PC-Instrument1
Instrument #	1
Line #	1
# of Detectors	1
Detector ID	DET#2
Detector Name	DFID1
# of Channels	1

[Chromatogram (Ch1)]
Interval(msec)	40
# of Points	9599
Start Time(min)	0.001
End Time(min)	6.399
R.Time (min)	Intensity
0.00067	18
0.00133	18
0.00200	18
0.00267	18
0.00333	18
0.00400	18
0.00467	18
0.00533	18
0.00600	18
0.00667	18
0.00733	17
0.00800	17
0.00867	16
0.00933	15
0.01000	13
0.01067	11
0.01133	9
0.01200	6
0.01267	2
0.01333	-2
0.01400	-6
0.01467	-12
0.01533	-17
0.01600	-23
0.01667	-30
0.01733	-36
0.01800	-43
0.01867	-50
0.01933	-57
0.02000	-64
0.02067	-71
0.02133	-78
0.02200	-85
0.02267	-92
0.02333	-99
0.02400	-105
0.02467	-111
0.02533	-117
0.02600	-123
0.02667	-129
0.02733	-134
0.02800	-139
0.02867	-144
0.02933	-149
0.03000	-153
0.03067	-157
0.03133	-161
0.03200	-165
0.03267	-168
0.03333	-171
0.03400	-174
0.03467	-177
0.03533	-179
0.03600	-181
0.03667	-183
0.03733	-185
0.03800	-186
0.03867	-188
0.03933	-189
0.04000	-190
0.04067	-191
0.04133	-192
0.04200	-193
0.04267	-193
0.04333	-193
0.04400	-194
0.04467	-194
0.04533	-194
0.04600	-194
0.04667	-194
0.04733	-194
0.04800	-193
0.04867	-193
0.04933	-192
0.05000	-192
0.05067	-191
0.05133	-191
0.05200	-190
0.05267	-189
0.05333	-189
0.05400	-188
0.05467	-187
0.05533	-186
0.05600	-185
0.05667	-184
0.05733	-183
0.05800	-182
0.05867	-181
0.05933	-180
0.06000	-179
0.06067	-178
0.06133	-177
0.06200	-176
0.06267	-175
0.06333	-174
0.06400	-173
0.06467	-172
0.06533	-171
0.06600	-170
0.06667	-169
0.06733	-168
0.06800	-168
0.06867	-167
0.06933	-166
0.07000	-165
0.07067	-164
0.07133	-163
0.07200	-162
0.07267	-161
0.07333	-160
0.07400	-159
0.07467	-158
0.07533	-157
0.07600	-156
0.07667	-156
0.07733	-155
0.07800	-154
0.07867	-153
0.07933	-152
0.08000	-151
0.08067	-151
0.08133	-150
0.08200	-149
0.08267	-148
0.08333	-148
0.08400	-147
0.08467	-146
0.08533	-146
0.08600	-145
0.08667	-144
0.08733	-142
0.08800	-137
0.08867	-127
0.08933	-111
0.09000	-89
0.09067	-60
0.09133	-13
0.09200	67
0.09267	193
0.09333	367
0.09400	576
0.09467	848
0.09533	1191
0.09600	1583
0.09667	2071
0.09733	2608
0.09800	3194
0.09867	3851
0.09933	4563
0.10000	5338
0.10067	6184
0.10133	7074
0.10200	8025
0.10267	9018
0.10333	10021
0.10400	11130
0.10467	12356
0.10533	13620
0.10600	14960
0.10667	16383
0.10733	17857
0.10800	19379
0.10867	20992
0.10933	22659
0.11000	24374
0.11067	26116
0.11133	27928
0.11200	29809
0.11267	31794
0.11333	33809
0.11400	35824
0.11467	37860
0.11533	39814
0.11600	41684
0.11667	43435
0.11733	45147
0.11800	46840
0.11867	48415
0.11933	49934
0.12000	51356
0.12067	52669
0.12133	53900
0.12200	55030
0.12267	56073
0.12333	57025
0.12400	57923
0.12467	58793
0.12533	59554
0.12600	60215
0.12667	60802
0.12733	61314
0.12800	61793
0.12867	62246
0.12933	62647
0.13000	63008
0.13067	63319
0.13133	63620
0.13200	63856
0.13267	63997
0.13333	64054
0.13400	64038
0.13467	63962
0.13533	63906
0.13600	64190
0.13667	65784
0.13733	71112
0.13800	85251
0.13867	118337
0.13933	187361
0.14000	318793
0.14067	544875
0.14133	901107
0.14200	1420065
0.14267	2131043
0.14333	3056999
0.14400	4215897
0.14467	5618651
0.14533	7271305
0.14600	9174948
0.14667	11320732
0.14733	13678622
0.14800	16237647
0.14867	19038716
0.14933	22116434
0.15000	25473504
0.15067	29094472
0.15133	32952321
0.15200	37015453
0.15267	41252124
0.15333	45632328
0.15400	50127645
0.15467	54711425
0.15533	59358543
0.15600	64045812
0.15667	68751746
0.15733	73456624
0.15800	78141928
0.15867	82791017
0.15933	87388251
0.16000	91919384
0.16067	96371466
0.16133	100733690
0.16200	104996644
0.16267	109150801
0.16333	113187999
0.16400	117101991
0.16467	120887924
0.16533	124541607
0.16600	128058510
0.16667	131434441
0.16733	134664915
0.16800	137746251
0.16867	140676102
0.16933	143452710
0.17000	146074978
0.17067	148542403
0.17133	150855219
0.17200	153014074
0.17267	155020350
0.17333	156875480
0.17400	158581817
0.17467	160142682
0.17533	161561603
0.17600	162841224
0.17667	163983486
0.17733	164989917
0.17800	165862108
0.17867	166601878
0.17933	167211278
0.18000	167692640
0.18067	168048642
0.18133	168282420
0.18200	168397339
0.18267	168396996
0.18333	168284901
0.18400	168064398
0.18467	167738387
0.18533	167309645
0.18600	166780761
0.18667	166154569
0.18733	165433936
0.18800	164622049
0.18867	163722247
0.18933	162738137
0.19000	161673298
0.19067	160531385
0.19133	159315969
0.19200	158030684
0.19267	156679186
0.19333	155265277
0.19400	153792788
0.19467	152265460
0.19533	150686924
0.19600	149060704
0.19667	147390213
0.19733	145678712
0.19800	143929404
0.19867	142145390
0.19933	140329747
0.20000	138485436
0.20067	136615378
0.20133	134722411
0.20200	132809327
0.20267	130878774
0.20333	128933388
0.20400	126975695
0.20467	125008178
0.20533	123033250
0.20600	121053374
0.20667	119071248
0.20733	117090188
0.20800	115113873
0.20867	113145463
0.20933	111187055
0.21000	109239707
0.21067	107303910
0.21133	105379955
0.21200	103468187
0.21267	101569095
0.21333	99683316
0.21400	97811538
0.21467	95954466
0.21533	94112746
0.21600	92286986
0.21667	90477768
0.21733	88685676
0.21800	86911273
0.21867	85155135
0.21933	83417812
0.22000	81699848
0.22067	80001759
0.22133	78324045
0.22200	76667173
0.22267	75031589
0.22333	73417696
0.22400	71825863
0.22467	70256424
0.22533	68709673
0.22600	67185873
0.22667	65685248
0.22733	64207991
0.22800	62754259
0.22867	61324174
0.22933	59917822
0.23000	58535256
0.23067	57176498
0.23133	55841551
0.23200	54530391
0.23267	53242971
0.23333	51979224
0.23400	50739059
0.23467	49522366
0.23533	48329019
0.23600	47158870
0.23667	46011757
0.23733	44887502
0.23800	43785912
0.23867	42706777
0.23933	41649881
0.24000	40614995
0.24067	39601880
0.24133	38610287
0.24200	37639957
0.24267	36690627
0.24333	35762024
0.24400	34853869
0.24467	33965877
0.24533	33097759
0.24600	32249222
0.24667	31419971
0.24733	30609708
0.24800	29818133
0.24867	29044941
0.24933	28289826
0.25000	27552479
0.25067	26832591
0.25133	26129854
0.25200	25443960
0.25267	24774603
0.25333	24121477
0.25400	23484277
0.25467	22862698
0.25533	22256439
0.25600	21665200
0.25667	21088682
0.25733	20526592
0.25800	19978635
0.25867	19444520
0.25933	18923961
0.26000	18416671
0.26067	17922371
0.26133	17440785
0.26200	16971640
0.26267	16514667
0.26333	16069598
0.26400	15636170
0.26467	15214121
0.26533	14803195
0.26600	14403139
0.26667	14013704
0.26733	13634643
0.26800	13265714
0.26867	12906678
0.26933	12557301
0.27000	12217352
0.27067	11886602
0.27133	11564827
0.27200	11251807
0.27267	10947325
0.27333	10651167
0.27400	10363123
0.27467	10082989
0.27533	9810565
0.27600	9545652
0.27667	9288059
0.27733	9037598
0.27800	8794083
0.27867	8557333
0.27933	8327174
0.28000	8103433
0.28067	7885943
0.28133	7674538
0.28200	7469059
0.28267	7269351
0.28333	7075260
0.28400	6886638
0.28467	6703340
0.28533	6525222
0.28600	6352146
0.28667	6183975
0.28733	6020577
0.28800	5861822
0.28867	5707582
0.28933	5557735
0.29000	5412159
0.29067	5270739
0.29133	5133360
0.29200	4999910
0.29267	4870281
0.29333	4744367
0.29400	4622064
0.29467	4503273
0.29533	4387898
0.29600	4275844
0.29667	4167018
0.29733	4061331
0.29800	3958696
0.29867	3859030
0.29933	3762250
0.30000	3668275
0.30067	3577030
0.30133	3488437
0.30200	3402422
0.30267	3318911
0.30333	3237835
0.30400	3159124
0.30467	3082709
0.30533	3008527
0.30600	2936511
0.30667	2866601
0.30733	2798735
0.30800	2732855
0.30867	2668904
0.30933	2606827
0.31000	2546570
0.31067	2488082
0.31133	2431314
0.31200	2376218
0.31267	2322747
0.31333	2270857
0.31400	2220504
0.31467	2171646
0.31533	2124243
0.31600	2078256
0.31667	2033650
0.31733	1990390
0.31800	1948443
0.31867	1907777
0.31933	1868362
0.32000	1830171
0.32067	1793178
0.32133	1757360
0.32200	1722695
0.32267	1689164
0.32333	1656746
0.32400	1625427
0.32467	1595191
0.32533	1566027
0.32600	1537922
0.32667	1510868
0.32733	1484859
0.32800	1459889
0.32867	1435957
0.32933	1413063
0.33000	1391214
0.33067	1370422
0.33133	1350706
0.33200	1332094
0.33267	1314621
0.33333	1298333
0.33400	1283276
0.33467	1269498
0.33533	1257042
0.33600	1245942
0.33667	1236222
0.33733	1227893
0.33800	1220950
0.33867	1215378
0.33933	1211147
0.34000	1208217
0.34067	1206539
0.34133	1206057
0.34200	1206712
0.34267	1208434
0.34333	1211157
0.34400	1214806
0.34467	1219309
0.34533	1224592
0.34600	1230582
0.34667	1237206
0.34733	1244393
0.34800	1252072
0.34867	1260177
0.34933	1268649
0.35000	1277430
0.35067	1286467
0.35133	1295713
0.35200	1305126
0.35267	1314667
0.35333	1324300
0.35400	1333992
0.35467	1343712
0.35533	1353434
0.35600	1363134
0.35667	1372791
0.35733	1382387
0.35800	1391908
0.35867	1401339
0.35933	1410665
0.36000	1419873
0.36067	1428951
0.36133	1437887
0.36200	1446672
0.36267	1455297
0.36333	1463757
0.36400	1472048
0.36467	1480170
0.36533	1488123
0.36600	1495912
0.36667	1503540
0.36733	1511013
0.36800	1518338
0.36867	1525521
0.36933	1532567
0.37000	1539482
0.37067	1546272
0.37133	1552942
0.37200	1559496
0.37267	1565938
0.37333	1572273
0.37400	1578505
0.37467	1584638
0.37533	1590678
0.37600	1596629
0.37667	1602501
0.37733	1608302
0.37800	1614044
0.37867	1619741
0.37933	1625408
0.38000	1631062
0.38067	1636716
0.38133	1642385
0.38200	1648080
0.38267	1653807
0.38333	1659566
0.38400	1665351
0.38467	1671154
0.38533	1676964
0.38600	1682768
0.38667	1688547
0.38733	1694286
0.38800	1699966
0.38867	1705571
0.38933	1711086
0.39000	1716497
0.39067	1721793
0.39133	1726964
0.39200	1732000
0.39267	1736891
0.39333	1741628
0.39400	1746208
0.39467	1750625
0.39533	1754873
0.39600	1758944
0.39667	1762827
0.39733	1766509
0.39800	1769971
0.39867	1773191
0.39933	1776140
0.40000	1778791
0.40067	1781110
0.40133	1783064
0.40200	1784624
0.40267	1785762
0.40333	1786448
0.40400	1786654
0.40467	1786349
0.40533	1785499
0.40600	1784066
0.40667	1782008
0.40733	1779287
0.40800	1775862
0.40867	1771696
0.40933	1766753
0.41000	1760999
0.41067	1754403
0.41133	1746933
0.41200	1738561
0.41267	1729263
0.41333	1719022
0.41400	1707830
0.41467	1695689
0.41533	1682613
0.41600	1668622
0.41667	1653749
0.41733	1638033
0.41800	1621518
0.41867	1604253
0.41933	1586289
0.42000	1567679
0.42067	1548479
0.42133	1528741
0.42200	1508518
0.42267	1487862
0.42333	1466825
0.42400	1445455
0.42467	1423800
0.42533	1401904
0.42600	1379810
0.42667	1357561
0.42733	1335195
0.42800	1312749
0.42867	1290257
0.42933	1267750
0.43000	1245260
0.43067	1222814
0.43133	1200439
0.43200	1178158
0.43267	1155993
0.43333	1133966
0.43400	1112096
0.43467	1090400
0.43533	1068894
0.43600	1047595
0.43667	1026515
0.43733	1005667
0.43800	985063
0.43867	964713
0.43933	944625
0.44000	924808
0.44067	905267
0.44133	886011
0.44200	867042
0.44267	848365
0.44333	829985
0.44400	811903
0.44467	794123
0.44533	776646
0.44600	759474
0.44667	742610
0.44733	726054
0.44800	709807
0.44867	693870
0.44933	678241
0.45000	662922
0.45067	647910
0.45133	633205
0.45200	618805
0.45267	604707
0.45333	590910
0.45400	577411
0.45467	564208
0.45533	551297
0.45600	538675
0.45667	526339
0.45733	514286
0.45800	502513
0.45867	491016
0.45933	479792
0.46000	468837
0.46067	458148
0.46133	447722
0.46200	437556
0.46267	427646
0.46333	417990
0.46400	408585
0.46467	399427
0.46533	390514
0.46600	381842
0.46667	373407
0.46733	365205
0.46800	357229
0.46867	349476
0.46933	341937
0.47000	334610
0.47067	327487
0.47133	320566
0.47200	313840
0.47267	307305
0.47333	300955
0.47400	294785
0.47467	288790
0.47533	282965
0.47600	277305
0.47667	271806
0.47733	266463
0.47800	261272
0.47867	256227
0.47933	251326
0.48000	246564
0.48067	241937
0.48133	237440
0.48200	233071
0.48267	228825
0.48333	224699
0.48400	220690
0.48467	216793
0.48533	213006
0.48600	209325
0.48667	205748
0.48733	202270
0.48800	198889
0.48867	195602
0.48933	192406
0.49000	189297
0.49067	186274
0.49133	183334
0.49200	180473
0.49267	177690
0.49333	174981
0.49400	172344
0.49467	169778
0.49533	167279
0.49600	164845
0.49667	162475
0.49733	160166
0.49800	157917
0.49867	155725
0.49933	153588
0.50000	151506
0.50067	149476
0.50133	147496
0.50200	145566
0.50267	143682
0.50333	141845
0.50400	140052
0.50467	138302
0.50533	136593
0.50600	134925
0.50667	133296
0.50733	131705
0.50800	130150
0.50867	128631
0.50933	127146
0.51000	125694
0.51067	124275
0.51133	122887
0.51200	121529
0.51267	120200
0.51333	118900
0.51400	117627
0.51467	116381
0.51533	115160
0.51600	113965
0.51667	112794
0.51733	111646
0.51800	110522
0.51867	109419
0.51933	108338
0.52000	107278
0.52067	106238
0.52133	105218
0.52200	104217
0.52267	103235
0.52333	102270
0.52400	101323
0.52467	100393
0.52533	99479
0.52600	98581
0.52667	97698
0.52733	96831
0.52800	95979
0.52867	95141
0.52933	94316
0.53000	93506
0.53067	92708
0.53133	91924
0.53200	91152
0.53267	90392
0.53333	89643
0.53400	88907
0.53467	88181
0.53533	87467
0.53600	86763
0.53667	86069
0.53733	85386
0.53800	84712
0.53867	84048
0.53933	83394
0.54000	82748
0.54067	82112
0.54133	81484
0.54200	80865
0.54267	80254
0.54333	79652
0.54400	79058
0.54467	78471
0.54533	77892
0.54600	77321
0.54667	76757
0.54733	76201
0.54800	75652
0.54867	75110
0.54933	74575
0.55000	74048
0.55067	73527
0.55133	73013
0.55200	72506
0.55267	72006
0.55333	71512
0.55400	71025
0.55467	70544
0.55533	70070
0.55600	69601
0.55667	69139
0.55733	68683
0.55800	68233
0.55867	67788
0.55933	67349
0.56000	66916
0.56067	66488
0.56133	66065
0.56200	65647
0.56267	65234
0.56333	64825
0.56400	64422
0.56467	64022
0.56533	63627
0.56600	63236
0.56667	62850
0.56733	62467
0.56800	62088
0.56867	61713
0.56933	61341
0.57000	60974
0.57067	60609
0.57133	60248
0.57200	59891
0.57267	59537
0.57333	59186
0.57400	58838
0.57467	58494
0.57533	58152
0.57600	57814
0.57667	57479
0.57733	57146
0.57800	56817
0.57867	56490
0.57933	56166
0.58000	55844
0.58067	55525
0.58133	55209
0.58200	54895
0.58267	54584
0.58333	54275
0.58400	53968
0.58467	53664
0.58533	53363
0.58600	53063
0.58667	52766
0.58733	52472
0.58800	52180
0.58867	51890
0.58933	51603
0.59000	51318
0.59067	51035
0.59133	50755
0.59200	50477
0.59267	50202
0.59333	49929
0.59400	49658
0.59467	49389
0.59533	49123
0.59600	48859
0.59667	48597
0.59733	48338
0.59800	48081
0.59867	47826
0.59933	47573
0.60000	47323
0.60067	47075
0.60133	46829
0.60200	46585
0.60267	46344
0.60333	46105
0.60400	45868
0.60467	45633
0.60533	45401
0.60600	45171
0.60667	44943
0.60733	44718
0.60800	44494
0.60867	44273
0.60933	44055
0.61000	43838
0.61067	43624
0.61133	43413
0.61200	43203
0.61267	42996
0.61333	42792
0.61400	42589
0.61467	42389
0.61533	42191
0.61600	41995
0.61667	41802
0.61733	41610
0.61800	41421
0.61867	41233
0.61933	41048
0.62000	40865
0.62067	40683
0.62133	40503
0.62200	40325
0.62267	40149
0.62333	39974
0.62400	39800
0.62467	39628
0.62533	39457
0.62600	39288
0.62667	39120
0.62733	38953
0.62800	38788
0.62867	38624
0.62933	38460
0.63000	38298
0.63067	38138
0.63133	37978
0.63200	37820
0.63267	37662
0.63333	37506
0.63400	37351
0.63467	37197
0.63533	37044
0.63600	36892
0.63667	36741
0.63733	36592
0.63800	36443
0.63867	36296
0.63933	36150
0.64000	36005
0.64067	35862
0.64133	35719
0.64200	35578
0.64267	35438
0.64333	35299
0.64400	35161
0.64467	35024
0.64533	34888
0.64600	34754
0.64667	34620
0.64733	34487
0.64800	34355
0.64867	34225
0.64933	34094
0.65000	33965
0.65067	33837
0.65133	33709
0.65200	33582
0.65267	33455
0.65333	33329
0.65400	33203
0.65467	33078
0.65533	32954
0.65600	32830
0.65667	32706
0.65733	32583
0.65800	32460
0.65867	32338
0.65933	32215
0.66000	32094
0.66067	31972
0.66133	31851
0.66200	31730
0.66267	31609
0.66333	31489
0.66400	31369
0.66467	31249
0.66533	31130
0.66600	31011
0.66667	30892
0.66733	30774
0.66800	30656
0.66867	30538
0.66933	30421
0.67000	30304
0.67067	30187
0.67133	30071
0.67200	29955
0.67267	29840
0.67333	29725
0.67400	29611
0.67467	29497
0.67533	29384
0.67600	29271
0.67667	29160
0.67733	29049
0.67800	28939
0.67867	28830
0.67933	28721
0.68000	28615
0.68067	28509
0.68133	28405
0.68200	28302
0.68267	28201
0.68333	28102
0.68400	28004
0.68467	27909
0.68533	27817
0.68600	27727
0.68667	27639
0.68733	27555
0.68800	27474
0.68867	27397
0.68933	27323
0.69000	27253
0.69067	27188
0.69133	27127
0.69200	27070
0.69267	27018
0.69333	26970
0.69400	26927
0.69467	26889
0.69533	26856
0.69600	26827
0.69667	26802
0.69733	26782
0.69800	26765
0.69867	26752
0.69933	26742
0.70000	26735
0.70067	26730
0.70133	26727
0.70200	26726
0.70267	26725
0.70333	26725
0.70400	26724
0.70467	26724
0.70533	26722
0.70600	26718
0.70667	26713
0.70733	26705
0.70800	26695
0.70867	26682
0.70933	26666
0.71000	26647
0.71067	26624
0.71133	26598
0.71200	26568
0.71267	26534
0.71333	26497
0.71400	26456
0.71467	26412
0.71533	26364
0.71600	26312
0.71667	26257
0.71733	26199
0.71800	26138
0.71867	26074
0.71933	26008
0.72000	25938
0.72067	25866
0.72133	25792
0.72200	25716
0.72267	25637
0.72333	25557
0.72400	25475
0.72467	25391
0.72533	25306
0.72600	25219
0.72667	25132
0.72733	25043
0.72800	24954
0.72867	24863
0.72933	24772
0.73000	24680
0.73067	24588
0.73133	24495
0.73200	24402
0.73267	24308
0.73333	24215
0.73400	24121
0.73467	24027
0.73533	23933
0.73600	23840
0.73667	23746
0.73733	23652
0.73800	23559
0.73867	23466
0.73933	23373
0.74000	23280
0.74067	23188
0.74133	23097
0.74200	23005
0.74267	22915
0.74333	22824
0.74400	22734
0.74467	22645
0.74533	22556
0.74600	22468
0.74667	22380
0.74733	22293
0.74800	22207
0.74867	22121
0.74933	22036
0.75000	21951
0.75067	21867
0.75133	21784
0.75200	21702
0.75267	21620
0.75333	21539
0.75400	21458
0.75467	21378
0.75533	21299
0.75600	21221
0.75667	21143
0.75733	21066
0.75800	20990
0.75867	20915
0.75933	20840
0.76000	20765
0.76067	20692
0.76133	20619
0.76200	20547
0.76267	20476
0.76333	20405
0.76400	20336
0.76467	20266
0.76533	20198
0.76600	20130
0.76667	20063
0.76733	19996
0.76800	19931
0.76867	19865
0.76933	19801
0.77000	19737
0.77067	19674
0.77133	19612
0.77200	19550
0.77267	19488
0.77333	19428
0.77400	19368
0.77467	19308
0.77533	19249
0.77600	19191
0.77667	19133
0.77733	19076
0.77800	19020
0.77867	18964
0.77933	18908
0.78000	18853
0.78067	18799
0.78133	18745
0.78200	18692
0.78267	18639
0.78333	18587
0.78400	18535
0.78467	18484
0.78533	18433
0.78600	18383
0.78667	18333
0.78733	18284
0.78800	18235
0.78867	18186
0.78933	18139
0.79000	18091
0.79067	18044
0.79133	17998
0.79200	17952
0.79267	17906
0.79333	17861
0.79400	17816
0.79467	17772
0.79533	17728
0.79600	17684
0.79667	17641
0.79733	17598
0.79800	17555
0.79867	17513
0.79933	17472
0.80000	17430
0.80067	17389
0.80133	17349
0.80200	17308
0.80267	17268
0.80333	17229
0.80400	17189
0.80467	17150
0.80533	17111
0.80600	17073
0.80667	17035
0.80733	16997
0.80800	16959
0.80867	16922
0.80933	16885
0.81000	16848
0.81067	16812
0.81133	16776
0.81200	16740
0.81267	16705
0.81333	16670
0.81400	16635
0.81467	16600
0.81533	16566
0.81600	16532
0.81667	16498
0.81733	16465
0.81800	16432
0.81867	16400
0.81933	16367
0.82000	16336
0.82067	16304
0.82133	16272
0.82200	16241
0.82267	16210
0.82333	16180
0.82400	16149
0.82467	16119
0.82533	16089
0.82600	16060
0.82667	16030
0.82733	16001
0.82800	15972
0.82867	15943
0.82933	15915
0.83000	15886
0.83067	15858
0.83133	15830
0.83200	15802
0.83267	15774
0.83333	15747
0.83400	15719
0.83467	15692
0.83533	15665
0.83600	15638
0.83667	15611
0.83733	15584
0.83800	15557
0.83867	15531
0.83933	15504
0.84000	15478
0.84067	15452
0.84133	15425
0.84200	15399
0.84267	15373
0.84333	15347
0.84400	15321
0.84467	15295
0.84533	15269
0.84600	15244
0.84667	15218
0.84733	15192
0.84800	15167
0.84867	15141
0.84933	15116
0.85000	15090
0.85067	15065
0.85133	15039
0.85200	15014
0.85267	14989
0.85333	14963
0.85400	14938
0.85467	14913
0.85533	14888
0.85600	14863
0.85667	14838
0.85733	14813
0.85800	14788
0.85867	14763
0.85933	14738
0.86000	14713
0.86067	14688
0.86133	14663
0.86200	14638
0.86267	14613
0.86333	14588
0.86400	14564
0.86467	14539
0.86533	14515
0.86600	14490
0.86667	14466
0.86733	14441
0.86800	14417
0.86867	14393
0.86933	14369
0.87000	14345
0.87067	14321
0.87133	14297
0.87200	14273
0.87267	14250
0.87333	14226
0.87400	14203
0.87467	14180
0.87533	14156
0.87600	14133
0.87667	14111
0.87733	14088
0.87800	14065
0.87867	14043
0.87933	14020
0.88000	13998
0.88067	13976
0.88133	13954
0.88200	13932
0.88267	13910
0.88333	13889
0.88400	13867
0.88467	13846
0.88533	13825
0.88600	13803
0.88667	13783
0.88733	13762
0.88800	13741
0.88867	13721
0.88933	13700
0.89000	13680
0.89067	13660
0.89133	13640
0.89200	13620
0.89267	13600
0.89333	13581
0.89400	13561
0.89467	13542
0.89533	13522
0.89600	13503
0.89667	13484
0.89733	13465
0.89800	13446
0.89867	13427
0.89933	13408
0.90000	13389
0.90067	13371
0.90133	13352
0.90200	13334
0.90267	13315
0.90333	13297
0.90400	13279
0.90467	13261
0.90533	13243
0.90600	13225
0.90667	13207
0.90733	13189
0.90800	13172
0.90867	13154
0.90933	13137
0.91000	13119
0.91067	13102
0.91133	13084
0.91200	13067
0.91267	13050
0.91333	13033
0.91400	13016
0.91467	12999
0.91533	12981
0.91600	12965
0.91667	12948
0.91733	12931
0.91800	12914
0.91867	12897
0.91933	12881
0.92000	12864
0.92067	12848
0.92133	12832
0.92200	12815
0.92267	12799
0.92333	12783
0.92400	12767
0.92467	12751
0.92533	12735
0.92600	12719
0.92667	12704
0.92733	12688
0.92800	12672
0.92867	12657
0.92933	12641
0.93000	12626
0.93067	12610
0.93133	12595
0.93200	12580
0.93267	12564
0.93333	12549
0.93400	12534
0.93467	12519
0.93533	12504
0.93600	12489
0.93667	12474
0.93733	12459
0.93800	12445
0.93867	12430
0.93933	12415
0.94000	12400
0.94067	12385
0.94133	12370
0.94200	12356
0.94267	12341
0.94333	12326
0.94400	12311
0.94467	12296
0.94533	12282
0.94600	12267
0.94667	12252
0.94733	12237
0.94800	12223
0.94867	12208
0.94933	12193
0.95000	12179
0.95067	12164
0.95133	12149
0.95200	12135
0.95267	12120
0.95333	12106
0.95400	12091
0.95467	12077
0.95533	12063
0.95600	12049
0.95667	12035
0.95733	12021
0.95800	12007
0.95867	11993
0.95933	11980
0.96000	11966
0.96067	11953
0.96133	11939
0.96200	11926
0.96267	11913
0.96333	11899
0.96400	11886
0.96467	11873
0.96533	11861
0.96600	11848
0.96667	11835
0.96733	11823
0.96800	11810
0.96867	11798
0.96933	11785
0.97000	11772
0.97067	11760
0.97133	11747
0.97200	11735
0.97267	11722
0.97333	11710
0.97400	11697
0.97467	11684
0.97533	11671
0.97600	11659
0.97667	11646
0.97733	11633
0.97800	11620
0.97867	11607
0.97933	11594
0.98000	11581
0.98067	11567
0.98133	11554
0.98200	11541
0.98267	11527
0.98333	11514
0.98400	11501
0.98467	11487
0.98533	11474
0.98600	11460
0.98667	11446
0.98733	11433
0.98800	11419
0.98867	11406
0.98933	11392
0.99000	11379
0.99067	11366
0.99133	11352
0.99200	11339
0.99267	11325
0.99333	11312
0.99400	11298
0.99467	11285
0.99533	11271
0.99600	11258
0.99667	11245
0.99733	11231
0.99800	11218
0.99867	11205
0.99933	11192
1.00000	11178
1.00067	11165
1.00133	11152
1.00200	11139
1.00267	11126
1.00333	11113
1.00400	11100
1.00467	11087
1.00533	11074
1.00600	11061
1.00667	11049
1.00733	11036
1.00800	11023
1.00867	11011
1.00933	10998
1.01000	10986
1.01067	10974
1.01133	10962
1.01200	10950
1.01267	10938
1.01333	10927
1.01400	10916
1.01467	10905
1.01533	10894
1.01600	10883
1.01667	10872
1.01733	10862
1.01800	10852
1.01867	10842
1.01933	10833
1.02000	10823
1.02067	10814
1.02133	10805
1.02200	10797
1.02267	10788
1.02333	10780
1.02400	10772
1.02467	10764
1.02533	10757
1.02600	10749
1.02667	10742
1.02733	10735
1.02800	10728
1.02867	10721
1.02933	10714
1.03000	10707
1.03067	10701
1.03133	10694
1.03200	10688
1.03267	10681
1.03333	10674
1.03400	10668
1.03467	10661
1.03533	10654
1.03600	10647
1.03667	10640
1.03733	10633
1.03800	10626
1.03867	10619
1.03933	10611
1.04000	10604
1.04067	10596
1.04133	10588
1.04200	10580
1.04267	10572
1.04333	10564
1.04400	10555
1.04467	10547
1.04533	10538
1.04600	10529
1.04667	10521
1.04733	10511
1.04800	10502
1.04867	10493
1.04933	10483
1.05000	10474
1.05067	10464
1.05133	10454
1.05200	10444
1.05267	10435
1.05333	10424
1.05400	10414
1.05467	10404
1.05533	10394
1.05600	10383
1.05667	10373
1.05733	10363
1.05800	10352
1.05867	10342
1.05933	10331
1.06000	10321
1.06067	10310
1.06133	10300
1.06200	10289
1.06267	10279
1.06333	10268
1.06400	10257
1.06467	10246
1.06533	10236
1.06600	10225
1.06667	10214
1.06733	10203
1.06800	10193
1.06867	10182
1.06933	10171
1.07000	10161
1.07067	10150
1.07133	10140
1.07200	10129
1.07267	10118
1.07333	10108
1.07400	10097
1.07467	10087
1.07533	10076
1.07600	10066
1.07667	10056
1.07733	10045
1.07800	10035
1.07867	10025
1.07933	10015
1.08000	10004
1.08067	9994
1.08133	9984
1.08200	9974
1.08267	9964
1.08333	9954
1.08400	9945
1.08467	9935
1.08533	9925
1.08600	9915
1.08667	9905
1.08733	9896
1.08800	9886
1.08867	9876
1.08933	9867
1.09000	9857
1.09067	9847
1.09133	9838
1.09200	9828
1.09267	9819
1.09333	9809
1.09400	9800
1.09467	9790
1.09533	9781
1.09600	9772
1.09667	9762
1.09733	9753
1.09800	9743
1.09867	9734
1.09933	9725
1.10000	9716
1.10067	9706
1.10133	9697
1.10200	9688
1.10267	9679
1.10333	9670
1.10400	9661
1.10467	9652
1.10533	9643
1.10600	9634
1.10667	9625
1.10733	9616
1.10800	9607
1.10867	9598
1.10933	9589
1.11000	9581
1.11067	9572
1.11133	9563
1.11200	9555
1.11267	9546
1.11333	9538
1.11400	9529
1.11467	9521
1.11533	9512
1.11600	9504
1.11667	9496
1.11733	9488
1.11800	9480
1.11867	9472
1.11933	9465
1.12000	9457
1.12067	9450
1.12133	9442
1.12200	9435
1.12267	9428
1.12333	9421
1.12400	9415
1.12467	9408
1.12533	9402
1.12600	9396
1.12667	9390
1.12733	9385
1.12800	9379
1.12867	9374
1.12933	9370
1.13000	9365
1.13067	9361
1.13133	9358
1.13200	9354
1.13267	9352
1.13333	9349
1.13400	9347
1.13467	9345
1.13533	9343
1.13600	9342
1.13667	9341
1.13733	9341
1.13800	9340
1.13867	9340
1.13933	9340
1.14000	9340
1.14067	9340
1.14133	9340
1.14200	9340
1.14267	9341
1.14333	9341
1.14400	9341
1.14467	9341
1.14533	9341
1.14600	9341
1.14667	9341
1.14733	9341
1.14800	9340
1.14867	9340
1.14933	9339
1.15000	9338
1.15067	9336
1.15133	9335
1.15200	9333
1.15267	9331
1.15333	9329
1.15400	9326
1.15467	9323
1.15533	9320
1.15600	9317
1.15667	9313
1.15733	9309
1.15800	9305
1.15867	9301
1.15933	9297
1.16000	9292
1.16067	9287
1.16133	9282
1.16200	9277
1.16267	9271
1.16333	9266
1.16400	9260
1.16467	9254
1.16533	9247
1.16600	9241
1.16667	9235
1.16733	9228
1.16800	9221
1.16867	9214
1.16933	9207
1.17000	9200
1.17067	9193
1.17133	9185
1.17200	9178
1.17267	9170
1.17333	9163
1.17400	9155
1.17467	9147
1.17533	9140
1.17600	9132
1.17667	9124
1.17733	9116
1.17800	9108
1.17867	9100
1.17933	9092
1.18000	9084
1.18067	9076
1.18133	9068
1.18200	9060
1.18267	9052
1.18333	9044
1.18400	9036
1.18467	9028
1.18533	9020
1.18600	9013
1.18667	9005
1.18733	8997
1.18800	8990
1.18867	8982
1.18933	8974
1.19000	8967
1.19067	8959
1.19133	8952
1.19200	8945
1.19267	8937
1.19333	8930
1.19400	8923
1.19467	8916
1.19533	8909
1.19600	8902
1.19667	8895
1.19733	8889
1.19800	8882
1.19867	8875
1.19933	8869
1.20000	8862
1.20067	8856
1.20133	8850
1.20200	8844
1.20267	8838
1.20333	8832
1.20400	8826
1.20467	8820
1.20533	8814
1.20600	8809
1.20667	8803
1.20733	8798
1.20800	8793
1.20867	8787
1.20933	8782
1.21000	8777
1.21067	8773
1.21133	8768
1.21200	8763
1.21267	8758
1.21333	8754
1.21400	8750
1.21467	8745
1.21533	8741
1.21600	8737
1.21667	8733
1.21733	8729
1.21800	8725
1.21867	8721
1.21933	8717
1.22000	8713
1.22067	8710
1.22133	8706
1.22200	8702
1.22267	8699
1.22333	8695
1.22400	8692
1.22467	8688
1.22533	8685
1.22600	8681
1.22667	8678
1.22733	8674
1.22800	8671
1.22867	8668
1.22933	8664
1.23000	8661
1.23067	8657
1.23133	8654
1.23200	8650
1.23267	8647
1.23333	8644
1.23400	8640
1.23467	8637
1.23533	8633
1.23600	8630
1.23667	8627
1.23733	8623
1.23800	8620
1.23867	8617
1.23933	8614
1.24000	8610
1.24067	8607
1.24133	8604
1.24200	8601
1.24267	8598
1.24333	8594
1.24400	8591
1.24467	8588
1.24533	8585
1.24600	8582
1.24667	8579
1.24733	8576
1.24800	8574
1.24867	8571
1.24933	8568
1.25000	8565
1.25067	8563
1.25133	8560
1.25200	8558
1.25267	8555
1.25333	8553
1.25400	8551
1.25467	8549
1.25533	8547
1.25600	8545
1.25667	8543
1.25733	8541
1.25800	8540
1.25867	8538
1.25933	8537
1.26000	8535
1.26067	8534
1.26133	8533
1.26200	8532
1.26267	8531
1.26333	8531
1.26400	8530
1.26467	8530
1.26533	8530
1.26600	8530
1.26667	8530
1.26733	8530
1.26800	8531
1.26867	8531
1.26933	8532
1.27000	8534
1.27067	8535
1.27133	8536
1.27200	8538
1.27267	8540
1.27333	8543
1.27400	8545
1.27467	8548
1.27533	8551
1.27600	8554
1.27667	8557
1.27733	8560
1.27800	8564
1.27867	8568
1.27933	8572
1.28000	8576
1.28067	8581
1.28133	8585
1.28200	8590
1.28267	8595
1.28333	8600
1.28400	8604
1.28467	8609
1.28533	8614
1.28600	8619
1.28667	8624
1.28733	8629
1.28800	8633
1.28867	8638
1.28933	8642
1.29000	8646
1.29067	8650
1.29133	8654
1.29200	8658
1.29267	8661
1.29333	8664
1.29400	8667
1.29467	8670
1.29533	8673
1.29600	8675
1.29667	8676
1.29733	8678
1.29800	8679
1.29867	8680
1.29933	8681
1.30000	8681
1.30067	8681
1.30133	8681
1.30200	8680
1.30267	8680
1.30333	8679
1.30400	8677
1.30467	8676
1.30533	8674
1.30600	8672
1.30667	8670
1.30733	8667
1.30800	8664
1.30867	8661
1.30933	8658
1.31000	8654
1.31067	8651
1.31133	8647
1.31200	8643
1.31267	8639
1.31333	8634
1.31400	8630
1.31467	8625
1.31533	8620
1.31600	8615
1.31667	8610
1.31733	8605
1.31800	8600
1.31867	8594
1.31933	8589
1.32000	8583
1.32067	8577
1.32133	8571
1.32200	8565
1.32267	8559
1.32333	8553
1.32400	8547
1.32467	8540
1.32533	8534
1.32600	8527
1.32667	8520
1.32733	8514
1.32800	8507
1.32867	8500
1.32933	8493
1.33000	8486
1.33067	8479
1.33133	8472
1.33200	8464
1.33267	8457
1.33333	8450
1.33400	8442
1.33467	8435
1.33533	8427
1.33600	8419
1.33667	8411
1.33733	8404
1.33800	8396
1.33867	8388
1.33933	8380
1.34000	8372
1.34067	8363
1.34133	8355
1.34200	8347
1.34267	8339
1.34333	8331
1.34400	8323
1.34467	8315
1.34533	8307
1.34600	8299
1.34667	8291
1.34733	8283
1.34800	8275
1.34867	8267
1.34933	8259
1.35000	8251
1.35067	8243
1.35133	8235
1.35200	8227
1.35267	8220
1.35333	8212
1.35400	8204
1.35467	8197
1.35533	8189
1.35600	8182
1.35667	8174
1.35733	8167
1.35800	8160
1.35867	8153
1.35933	8146
1.36000	8139
1.36067	8132
1.36133	8125
1.36200	8118
1.36267	8112
1.36333	8105
1.36400	8098
1.36467	8092
1.36533	8085
1.36600	8079
1.36667	8073
1.36733	8066
1.36800	8060
1.36867	8054
1.36933	8048
1.37000	8042
1.37067	8036
1.37133	8030
1.37200	8024
1.37267	8018
1.37333	8012
1.37400	8007
1.37467	8001
1.37533	7995
1.37600	7990
1.37667	7984
1.37733	7979
1.37800	7974
1.37867	7968
1.37933	7963
1.38000	7958
1.38067	7953
1.38133	7948
1.38200	7943
1.38267	7938
1.38333	7933
1.38400	7928
1.38467	7923
1.38533	7918
1.38600	7913
1.38667	7908
1.38733	7904
1.38800	7899
1.38867	7894
1.38933	7890
1.39000	7885
1.39067	7881
1.39133	7876
1.39200	7871
1.39267	7867
1.39333	7862
1.39400	7858
1.39467	7853
1.39533	7848
1.39600	7844
1.39667	7839
1.39733	7835
1.39800	7830
1.39867	7826
1.39933	7821
1.40000	7817
1.40067	7812
1.40133	7808
1.40200	7803
1.40267	7799
1.40333	7795
1.40400	7790
1.40467	7786
1.40533	7782
1.40600	7777
1.40667	7773
1.40733	7769
1.40800	7765
1.40867	7760
1.40933	7756
1.41000	7752
1.41067	7747
1.41133	7743
1.41200	7739
1.41267	7735
1.41333	7730
1.41400	7726
1.41467	7722
1.41533	7718
1.41600	7714
1.41667	7709
1.41733	7705
1.41800	7701
1.41867	7697
1.41933	7693
1.42000	7689
1.42067	7685
1.42133	7681
1.42200	7677
1.42267	7673
1.42333	7669
1.42400	7666
1.42467	7662
1.42533	7658
1.42600	7655
1.42667	7651
1.42733	7648
1.42800	7644
1.42867	7641
1.42933	7637
1.43000	7634
1.43067	7630
1.43133	7627
1.43200	7623
1.43267	7620
1.43333	7616
1.43400	7613
1.43467	7609
1.43533	7606
1.43600	7602
1.43667	7599
1.43733	7596
1.43800	7592
1.43867	7589
1.43933	7586
1.44000	7582
1.44067	7579
1.44133	7576
1.44200	7573
1.44267	7570
1.44333	7567
1.44400	7564
1.44467	7561
1.44533	7558
1.44600	7555
1.44667	7552
1.44733	7549
1.44800	7546
1.44867	7544
1.44933	7541
1.45000	7538
1.45067	7536
1.45133	7533
1.45200	7530
1.45267	7528
1.45333	7525
1.45400	7523
1.45467	7520
1.45533	7518
1.45600	7515
1.45667	7513
1.45733	7510
1.45800	7508
1.45867	7505
1.45933	7503
1.46000	7500
1.46067	7498
1.46133	7495
1.46200	7493
1.46267	7490
1.46333	7488
1.46400	7485
1.46467	7483
1.46533	7481
1.46600	7478
1.46667	7476
1.46733	7474
1.46800	7472
1.46867	7469
1.46933	7467
1.47000	7465
1.47067	7463
1.47133	7461
1.47200	7458
1.47267	7456
1.47333	7454
1.47400	7452
1.47467	7450
1.47533	7447
1.47600	7445
1.47667	7443
1.47733	7441
1.47800	7438
1.47867	7436
1.47933	7434
1.48000	7432
1.48067	7429
1.48133	7427
1.48200	7425
1.48267	7422
1.48333	7420
1.48400	7417
1.48467	7415
1.48533	7413
1.48600	7410
1.48667	7408
1.48733	7405
1.48800	7403
1.48867	7400
1.48933	7397
1.49000	7395
1.49067	7392
1.49133	7389
1.49200	7387
1.49267	7384
1.49333	7381
1.49400	7378
1.49467	7376
1.49533	7373
1.49600	7370
1.49667	7367
1.49733	7364
1.49800	7362
1.49867	7359
1.49933	7356
1.50000	7353
1.50067	7350
1.50133	7347
1.50200	7344
1.50267	7341
1.50333	7338
1.50400	7335
1.50467	7331
1.50533	7328
1.50600	7325
1.50667	7322
1.50733	7319
1.50800	7316
1.50867	7313
1.50933	7310
1.51000	7307
1.51067	7304
1.51133	7301
1.51200	7298
1.51267	7295
1.51333	7292
1.51400	7289
1.51467	7286
1.51533	7283
1.51600	7280
1.51667	7277
1.51733	7275
1.51800	7272
1.51867	7269
1.51933	7266
1.52000	7264
1.52067	7261
1.52133	7258
1.52200	7255
1.52267	7252
1.52333	7250
1.52400	7247
1.52467	7244
1.52533	7242
1.52600	7239
1.52667	7236
1.52733	7234
1.52800	7231
1.52867	7228
1.52933	7226
1.53000	7223
1.53067	7220
1.53133	7218
1.53200	7215
1.53267	7213
1.53333	7210
1.53400	7208
1.53467	7205
1.53533	7203
1.53600	7201
1.53667	7198
1.53733	7196
1.53800	7193
1.53867	7191
1.53933	7188
1.54000	7186
1.54067	7183
1.54133	7181
1.54200	7178
1.54267	7176
1.54333	7174
1.54400	7171
1.54467	7169
1.54533	7167
1.54600	7164
1.54667	7162
1.54733	7160
1.54800	7157
1.54867	7155
1.54933	7153
1.55000	7150
1.55067	7148
1.55133	7146
1.55200	7143
1.55267	7141
1.55333	7138
1.55400	7136
1.55467	7134
1.55533	7131
1.55600	7129
1.55667	7127
1.55733	7124
1.55800	7122
1.55867	7120
1.55933	7117
1.56000	7115
1.56067	7113
1.56133	7111
1.56200	7108
1.56267	7106
1.56333	7104
1.56400	7102
1.56467	7100
1.56533	7098
1.56600	7095
1.56667	7093
1.56733	7091
1.56800	7089
1.56867	7087
1.56933	7085
1.57000	7083
1.57067	7081
1.57133	7079
1.57200	7077
1.57267	7075
1.57333	7074
1.57400	7072
1.57467	7070
1.57533	7068
1.57600	7066
1.57667	7064
1.57733	7062
1.57800	7061
1.57867	7059
1.57933	7057
1.58000	7055
1.58067	7054
1.58133	7052
1.58200	7050
1.58267	7048
1.58333	7046
1.58400	7045
1.58467	7043
1.58533	7041
1.58600	7039
1.58667	7038
1.58733	7036
1.58800	7034
1.58867	7032
1.58933	7031
1.59000	7029
1.59067	7027
1.59133	7025
1.59200	7024
1.59267	7022
1.59333	7020
1.59400	7019
1.59467	7017
1.59533	7015
1.59600	7013
1.59667	7012
1.59733	7010
1.59800	7008
1.59867	7006
1.59933	7005
1.60000	7003
1.60067	7001
1.60133	6999
1.60200	6997
1.60267	6996
1.60333	6994
1.60400	6992
1.60467	6990
1.60533	6989
1.60600	6987
1.60667	6985
1.60733	6983
1.60800	6982
1.60867	6980
1.60933	6978
1.61000	6977
1.61067	6975
1.61133	6974
1.61200	6972
1.61267	6970
1.61333	6969
1.61400	6967
1.61467	6966
1.61533	6964
1.61600	6962
1.61667	6961
1.61733	6959
1.61800	6957
1.61867	6955
1.61933	6953
1.62000	6952
1.62067	6950
1.62133	6948
1.62200	6946
1.62267	6944
1.62333	6942
1.62400	6940
1.62467	6939
1.62533	6937
1.62600	6935
1.62667	6934
1.62733	6932
1.62800	6930
1.62867	6929
1.62933	6927
1.63000	6926
1.63067	6925
1.63133	6923
1.63200	6922
1.63267	6920
1.63333	6919
1.63400	6918
1.63467	6917
1.63533	6916
1.63600	6914
1.63667	6913
1.63733	6912
1.63800	6911
1.63867	6910
1.63933	6909
1.64000	6908
1.64067	6907
1.64133	6906
1.64200	6905
1.64267	6904
1.64333	6903
1.64400	6902
1.64467	6901
1.64533	6900
1.64600	6899
1.64667	6898
1.64733	6897
1.64800	6897
1.64867	6896
1.64933	6895
1.65000	6894
1.65067	6893
1.65133	6892
1.65200	6892
1.65267	6891
1.65333	6890
1.65400	6889
1.65467	6888
1.65533	6887
1.65600	6886
1.65667	6885
1.65733	6884
1.65800	6883
1.65867	6881
1.65933	6880
1.66000	6879
1.66067	6878
1.66133	6877
1.66200	6875
1.66267	6874
1.66333	6873
1.66400	6872
1.66467	6871
1.66533	6870
1.66600	6868
1.66667	6867
1.66733	6866
1.66800	6865
1.66867	6864
1.66933	6862
1.67000	6861
1.67067	6860
1.67133	6858
1.67200	6857
1.67267	6856
1.67333	6854
1.67400	6853
1.67467	6851
1.67533	6850
1.67600	6848
1.67667	6847
1.67733	6845
1.67800	6844
1.67867	6842
1.67933	6841
1.68000	6839
1.68067	6837
1.68133	6836
1.68200	6834
1.68267	6832
1.68333	6831
1.68400	6829
1.68467	6827
1.68533	6825
1.68600	6824
1.68667	6822
1.68733	6820
1.68800	6818
1.68867	6817
1.68933	6815
1.69000	6813
1.69067	6811
1.69133	6810
1.69200	6808
1.69267	6806
1.69333	6804
1.69400	6802
1.69467	6800
1.69533	6798
1.69600	6796
1.69667	6794
1.69733	6792
1.69800	6790
1.69867	6787
1.69933	6785
1.70000	6783
1.70067	6781
1.70133	6779
1.70200	6777
1.70267	6775
1.70333	6773
1.70400	6771
1.70467	6769
1.70533	6767
1.70600	6764
1.70667	6762
1.70733	6760
1.70800	6758
1.70867	6756
1.70933	6755
1.71000	6753
1.71067	6751
1.71133	6749
1.71200	6748
1.71267	6746
1.71333	6745
1.71400	6744
1.71467	6744
1.71533	6743
1.71600	6743
1.71667	6743
1.71733	6745
1.71800	6746
1.71867	6749
1.71933	6753
1.72000	6758
1.72067	6765
1.72133	6774
1.72200	6786
1.72267	6800
1.72333	6818
1.72400	6840
1.72467	6867
1.72533	6900
1.72600	6940
1.72667	6989
1.72733	7048
1.72800	7118
1.72867	7202
1.72933	7302
1.73000	7420
1.73067	7560
1.73133	7724
1.73200	7917
1.73267	8142
1.73333	8404
1.73400	8708
1.73467	9059
1.73533	9462
1.73600	9924
1.73667	10452
1.73733	11051
1.73800	11731
1.73867	12498
1.73933	13362
1.74000	14332
1.74067	15416
1.74133	16624
1.74200	17965
1.74267	19451
1.74333	21089
1.74400	22890
1.74467	24864
1.74533	27019
1.74600	29366
1.74667	31915
1.74733	34675
1.74800	37655
1.74867	40860
1.74933	44296
1.75000	47967
1.75067	51878
1.75133	56031
1.75200	60426
1.75267	65061
1.75333	69930
1.75400	75028
1.75467	80347
1.75533	85874
1.75600	91599
1.75667	97510
1.75733	103594
1.75800	109837
1.75867	116224
1.75933	122734
1.76000	129346
1.76067	136039
1.76133	142788
1.76200	149568
1.76267	156356
1.76333	163125
1.76400	169849
1.76467	176501
1.76533	183052
1.76600	189473
1.76667	195738
1.76733	201819
1.76800	207692
1.76867	213334
1.76933	218724
1.77000	223845
1.77067	228682
1.77133	233218
1.77200	237442
1.77267	241342
1.77333	244910
1.77400	248139
1.77467	251027
1.77533	253571
1.77600	255774
1.77667	257638
1.77733	259168
1.77800	260370
1.77867	261251
1.77933	261822
1.78000	262092
1.78067	262074
1.78133	261779
1.78200	261219
1.78267	260408
1.78333	259357
1.78400	258082
1.78467	256593
1.78533	254905
1.78600	253031
1.78667	250983
1.78733	248774
1.78800	246417
1.78867	243922
1.78933	241302
1.79000	238567
1.79067	235728
1.79133	232796
1.79200	229780
1.79267	226690
1.79333	223533
1.79400	220319
1.79467	217056
1.79533	213751
1.79600	210410
1.79667	207041
1.79733	203650
1.79800	200243
1.79867	196825
1.79933	193401
1.80000	189976
1.80067	186555
1.80133	183141
1.80200	179739
1.80267	176353
1.80333	172984
1.80400	169637
1.80467	166315
1.80533	163019
1.80600	159752
1.80667	156517
1.80733	153315
1.80800	150148
1.80867	147018
1.80933	143926
1.81000	140874
1.81067	137862
1.81133	134892
1.81200	131965
1.81267	129082
1.81333	126242
1.81400	123448
1.81467	120698
1.81533	117994
1.81600	115336
1.81667	112724
1.81733	110159
1.81800	107640
1.81867	105167
1.81933	102740
1.82000	100360
1.82067	98025
1.82133	95737
1.82200	93494
1.82267	91296
1.82333	89144
1.82400	87036
1.82467	84972
1.82533	82952
1.82600	80976
1.82667	79042
1.82733	77150
1.82800	75301
1.82867	73493
1.82933	71726
1.83000	69999
1.83067	68312
1.83133	66663
1.83200	65054
1.83267	63482
1.83333	61948
1.83400	60450
1.83467	58988
1.83533	57562
1.83600	56170
1.83667	54813
1.83733	53489
1.83800	52198
1.83867	50939
1.83933	49712
1.84000	48516
1.84067	47350
1.84133	46215
1.84200	45108
1.84267	44030
1.84333	42980
1.84400	41957
1.84467	40961
1.84533	39991
1.84600	39047
1.84667	38128
1.84733	37234
1.84800	36363
1.84867	35516
1.84933	34691
1.85000	33889
1.85067	33109
1.85133	32349
1.85200	31611
1.85267	30892
1.85333	30193
1.85400	29514
1.85467	28853
1.85533	28210
1.85600	27586
1.85667	26978
1.85733	26387
1.85800	25813
1.85867	25255
1.85933	24713
1.86000	24186
1.86067	23673
1.86133	23175
1.86200	22691
1.86267	22221
1.86333	21764
1.86400	21320
1.86467	20888
1.86533	20469
1.86600	20062
1.86667	19666
1.86733	19282
1.86800	18908
1.86867	18545
1.86933	18193
1.87000	17850
1.87067	17518
1.87133	17195
1.87200	16881
1.87267	16576
1.87333	16280
1.87400	15993
1.87467	15713
1.87533	15442
1.87600	15179
1.87667	14923
1.87733	14675
1.87800	14434
1.87867	14199
1.87933	13972
1.88000	13751
1.88067	13537
1.88133	13329
1.88200	13126
1.88267	12930
1.88333	12740
1.88400	12555
1.88467	12375
1.88533	12201
1.88600	12031
1.88667	11867
1.88733	11707
1.88800	11552
1.88867	11402
1.88933	11256
1.89000	11114
1.89067	10977
1.89133	10843
1.89200	10713
1.89267	10587
1.89333	10465
1.89400	10347
1.89467	10232
1.89533	10120
1.89600	10011
1.89667	9906
1.89733	9804
1.89800	9704
1.89867	9608
1.89933	9514
1.90000	9423
1.90067	9335
1.90133	9249
1.90200	9166
1.90267	9085
1.90333	9007
1.90400	8930
1.90467	8856
1.90533	8784
1.90600	8715
1.90667	8647
1.90733	8581
1.90800	8517
1.90867	8455
1.90933	8395
1.91000	8336
1.91067	8279
1.91133	8224
1.91200	8170
1.91267	8118
1.91333	8067
1.91400	8017
1.91467	7969
1.91533	7922
1.91600	7877
1.91667	7832
1.91733	7789
1.91800	7747
1.91867	7705
1.91933	7665
1.92000	7626
1.92067	7588
1.92133	7551
1.92200	7514
1.92267	7479
1.92333	7444
1.92400	7410
1.92467	7377
1.92533	7344
1.92600	7313
1.92667	7282
1.92733	7252
1.92800	7222
1.92867	7193
1.92933	7165
1.93000	7137
1.93067	7110
1.93133	7084
1.93200	7058
1.93267	7033
1.93333	7009
1.93400	6985
1.93467	6961
1.93533	6938
1.93600	6916
1.93667	6894
1.93733	6873
1.93800	6852
1.93867	6832
1.93933	6812
1.94000	6793
1.94067	6774
1.94133	6756
1.94200	6738
1.94267	6721
1.94333	6704
1.94400	6687
1.94467	6670
1.94533	6655
1.94600	6639
1.94667	6624
1.94733	6609
1.94800	6595
1.94867	6580
1.94933	6567
1.95000	6553
1.95067	6540
1.95133	6527
1.95200	6514
1.95267	6502
1.95333	6489
1.95400	6477
1.95467	6466
1.95533	6454
1.95600	6443
1.95667	6431
1.95733	6420
1.95800	6410
1.95867	6399
1.95933	6389
1.96000	6379
1.96067	6369
1.96133	6360
1.96200	6350
1.96267	6341
1.96333	6332
1.96400	6323
1.96467	6315
1.96533	6306
1.96600	6298
1.96667	6290
1.96733	6282
1.96800	6274
1.96867	6266
1.96933	6258
1.97000	6251
1.97067	6244
1.97133	6236
1.97200	6229
1.97267	6222
1.97333	6216
1.97400	6209
1.97467	6202
1.97533	6196
1.97600	6189
1.97667	6183
1.97733	6177
1.97800	6171
1.97867	6165
1.97933	6159
1.98000	6153
1.98067	6147
1.98133	6142
1.98200	6136
1.98267	6131
1.98333	6126
1.98400	6120
1.98467	6115
1.98533	6110
1.98600	6105
1.98667	6100
1.98733	6095
1.98800	6091
1.98867	6086
1.98933	6081
1.99000	6077
1.99067	6072
1.99133	6068
1.99200	6064
1.99267	6059
1.99333	6055
1.99400	6051
1.99467	6047
1.99533	6043
1.99600	6040
1.99667	6036
1.99733	6032
1.99800	6029
1.99867	6025
1.99933	6022
2.00000	6018
2.00067	6015
2.00133	6011
2.00200	6008
2.00267	6004
2.00333	6001
2.00400	5997
2.00467	5994
2.00533	5990
2.00600	5986
2.00667	5983
2.00733	5979
2.00800	5975
2.00867	5972
2.00933	5968
2.01000	5964
2.01067	5960
2.01133	5956
2.01200	5952
2.01267	5948
2.01333	5944
2.01400	5940
2.01467	5936
2.01533	5932
2.01600	5928
2.01667	5924
2.01733	5919
2.01800	5915
2.01867	5911
2.01933	5907
2.02000	5903
2.02067	5899
2.02133	5895
2.02200	5891
2.02267	5887
2.02333	5882
2.02400	5878
2.02467	5874
2.02533	5870
2.02600	5866
2.02667	5862
2.02733	5858
2.02800	5855
2.02867	5851
2.02933	5847
2.03000	5843
2.03067	5839
2.03133	5835
2.03200	5832
2.03267	5828
2.03333	5824
2.03400	5821
2.03467	5817
2.03533	5813
2.03600	5810
2.03667	5806
2.03733	5802
2.03800	5799
2.03867	5795
2.03933	5792
2.04000	5788
2.04067	5785
2.04133	5782
2.04200	5778
2.04267	5775
2.04333	5771
2.04400	5768
2.04467	5765
2.04533	5761
2.04600	5758
2.04667	5755
2.04733	5752
2.04800	5749
2.04867	5745
2.04933	5742
2.05000	5739
2.05067	5736
2.05133	5733
2.05200	5730
2.05267	5727
2.05333	5724
2.05400	5721
2.05467	5718
2.05533	5715
2.05600	5712
2.05667	5709
2.05733	5706
2.05800	5703
2.05867	5701
2.05933	5698
2.06000	5695
2.06067	5692
2.06133	5689
2.06200	5687
2.06267	5684
2.06333	5681
2.06400	5678
2.06467	5675
2.06533	5672
2.06600	5670
2.06667	5667
2.06733	5664
2.06800	5661
2.06867	5658
2.06933	5656
2.07000	5653
2.07067	5650
2.07133	5647
2.07200	5645
2.07267	5642
2.07333	5639
2.07400	5636
2.07467	5634
2.07533	5631
2.07600	5628
2.07667	5625
2.07733	5622
2.07800	5619
2.07867	5617
2.07933	5614
2.08000	5611
2.08067	5608
2.08133	5606
2.08200	5603
2.08267	5600
2.08333	5597
2.08400	5595
2.08467	5592
2.08533	5589
2.08600	5586
2.08667	5583
2.08733	5581
2.08800	5578
2.08867	5575
2.08933	5572
2.09000	5569
2.09067	5567
2.09133	5564
2.09200	5561
2.09267	5559
2.09333	5556
2.09400	5553
2.09467	5551
2.09533	5548
2.09600	5546
2.09667	5543
2.09733	5540
2.09800	5538
2.09867	5535
2.09933	5533
2.10000	5530
2.10067	5528
2.10133	5525
2.10200	5522
2.10267	5520
2.10333	5517
2.10400	5515
2.10467	5512
2.10533	5510
2.10600	5508
2.10667	5505
2.10733	5503
2.10800	5500
2.10867	5498
2.10933	5495
2.11000	5493
2.11067	5491
2.11133	5488
2.11200	5486
2.11267	5483
2.11333	5481
2.11400	5479
2.11467	5476
2.11533	5474
2.11600	5471
2.11667	5469
2.11733	5467
2.11800	5464
2.11867	5462
2.11933	5459
2.12000	5457
2.12067	5454
2.12133	5452
2.12200	5450
2.12267	5447
2.12333	5445
2.12400	5442
2.12467	5440
2.12533	5437
2.12600	5435
2.12667	5433
2.12733	5431
2.12800	5428
2.12867	5426
2.12933	5424
2.13000	5422
2.13067	5420
2.13133	5418
2.13200	5416
2.13267	5413
2.13333	5411
2.13400	5409
2.13467	5407
2.13533	5405
2.13600	5403
2.13667	5401
2.13733	5399
2.13800	5397
2.13867	5395
2.13933	5393
2.14000	5391
2.14067	5389
2.14133	5387
2.14200	5385
2.14267	5384
2.14333	5382
2.14400	5380
2.14467	5378
2.14533	5376
2.14600	5374
2.14667	5372
2.14733	5370
2.14800	5368
2.14867	5366
2.14933	5364
2.15000	5362
2.15067	5361
2.15133	5359
2.15200	5357
2.15267	5355
2.15333	5353
2.15400	5351
2.15467	5349
2.15533	5348
2.15600	5346
2.15667	5344
2.15733	5342
2.15800	5340
2.15867	5339
2.15933	5337
2.16000	5335
2.16067	5333
2.16133	5331
2.16200	5330
2.16267	5328
2.16333	5326
2.16400	5324
2.16467	5322
2.16533	5320
2.16600	5318
2.16667	5316
2.16733	5314
2.16800	5312
2.16867	5310
2.16933	5308
2.17000	5306
2.17067	5305
2.17133	5303
2.17200	5301
2.17267	5299
2.17333	5297
2.17400	5295
2.17467	5293
2.17533	5291
2.17600	5290
2.17667	5288
2.17733	5286
2.17800	5284
2.17867	5282
2.17933	5280
2.18000	5278
2.18067	5277
2.18133	5275
2.18200	5273
2.18267	5272
2.18333	5270
2.18400	5268
2.18467	5267
2.18533	5265
2.18600	5263
2.18667	5262
2.18733	5260
2.18800	5259
2.18867	5257
2.18933	5255
2.19000	5254
2.19067	5252
2.19133	5250
2.19200	5249
2.19267	5247
2.19333	5246
2.19400	5244
2.19467	5243
2.19533	5241
2.19600	5240
2.19667	5239
2.19733	5237
2.19800	5236
2.19867	5235
2.19933	5233
2.20000	5232
2.20067	5231
2.20133	5230
2.20200	5228
2.20267	5227
2.20333	5226
2.20400	5225
2.20467	5224
2.20533	5223
2.20600	5222
2.20667	5221
2.20733	5221
2.20800	5220
2.20867	5219
2.20933	5219
2.21000	5218
2.21067	5218
2.21133	5217
2.21200	5217
2.21267	5217
2.21333	5216
2.21400	5216
2.21467	5216
2.21533	5216
2.21600	5216
2.21667	5216
2.21733	5216
2.21800	5216
2.21867	5216
2.21933	5216
2.22000	5217
2.22067	5217
2.22133	5217
2.22200	5217
2.22267	5217
2.22333	5218
2.22400	5218
2.22467	5218
2.22533	5219
2.22600	5219
2.22667	5219
2.22733	5219
2.22800	5220
2.22867	5220
2.22933	5220
2.23000	5220
2.23067	5220
2.23133	5220
2.23200	5220
2.23267	5220
2.23333	5220
2.23400	5220
2.23467	5220
2.23533	5220
2.23600	5219
2.23667	5219
2.23733	5219
2.23800	5219
2.23867	5218
2.23933	5218
2.24000	5218
2.24067	5218
2.24133	5217
2.24200	5217
2.24267	5217
2.24333	5216
2.24400	5216
2.24467	5216
2.24533	5215
2.24600	5215
2.24667	5214
2.24733	5214
2.24800	5213
2.24867	5213
2.24933	5212
2.25000	5212
2.25067	5211
2.25133	5211
2.25200	5210
2.25267	5210
2.25333	5209
2.25400	5208
2.25467	5208
2.25533	5207
2.25600	5207
2.25667	5206
2.25733	5206
2.25800	5205
2.25867	5204
2.25933	5204
2.26000	5203
2.26067	5202
2.26133	5202
2.26200	5201
2.26267	5200
2.26333	5199
2.26400	5198
2.26467	5197
2.26533	5196
2.26600	5195
2.26667	5194
2.26733	5193
2.26800	5192
2.26867	5191
2.26933	5190
2.27000	5188
2.27067	5187
2.27133	5186
2.27200	5185
2.27267	5183
2.27333	5182
2.27400	5181
2.27467	5179
2.27533	5178
2.27600	5176
2.27667	5175
2.27733	5173
2.27800	5171
2.27867	5170
2.27933	5168
2.28000	5166
2.28067	5165
2.28133	5163
2.28200	5161
2.28267	5159
2.28333	5158
2.28400	5156
2.28467	5154
2.28533	5153
2.28600	5151
2.28667	5149
2.28733	5147
2.28800	5146
2.28867	5144
2.28933	5142
2.29000	5141
2.29067	5139
2.29133	5138
2.29200	5136
2.29267	5134
2.29333	5133
2.29400	5131
2.29467	5129
2.29533	5128
2.29600	5126
2.29667	5125
2.29733	5123
2.29800	5121
2.29867	5120
2.29933	5118
2.30000	5117
2.30067	5115
2.30133	5114
2.30200	5113
2.30267	5111
2.30333	5110
2.30400	5108
2.30467	5107
2.30533	5106
2.30600	5105
2.30667	5103
2.30733	5102
2.30800	5101
2.30867	5100
2.30933	5099
2.31000	5098
2.31067	5097
2.31133	5096
2.31200	5095
2.31267	5094
2.31333	5093
2.31400	5092
2.31467	5091
2.31533	5090
2.31600	5090
2.31667	5089
2.31733	5088
2.31800	5087
2.31867	5087
2.31933	5086
2.32000	5085
2.32067	5085
2.32133	5084
2.32200	5084
2.32267	5083
2.32333	5083
2.32400	5082
2.32467	5082
2.32533	5081
2.32600	5081
2.32667	5081
2.32733	5080
2.32800	5080
2.32867	5080
2.32933	5079
2.33000	5079
2.33067	5079
2.33133	5079
2.33200	5078
2.33267	5078
2.33333	5078
2.33400	5078
2.33467	5078
2.33533	5078
2.33600	5078
2.33667	5078
2.33733	5078
2.33800	5078
2.33867	5078
2.33933	5078
2.34000	5079
2.34067	5079
2.34133	5079
2.34200	5080
2.34267	5080
2.34333	5081
2.34400	5081
2.34467	5082
2.34533	5082
2.34600	5083
2.34667	5084
2.34733	5084
2.34800	5085
2.34867	5086
2.34933	5087
2.35000	5088
2.35067	5089
2.35133	5090
2.35200	5091
2.35267	5092
2.35333	5093
2.35400	5095
2.35467	5096
2.35533	5098
2.35600	5099
2.35667	5100
2.35733	5102
2.35800	5103
2.35867	5105
2.35933	5106
2.36000	5108
2.36067	5110
2.36133	5111
2.36200	5113
2.36267	5114
2.36333	5116
2.36400	5117
2.36467	5119
2.36533	5120
2.36600	5122
2.36667	5123
2.36733	5124
2.36800	5126
2.36867	5127
2.36933	5128
2.37000	5129
2.37067	5129
2.37133	5130
2.37200	5131
2.37267	5132
2.37333	5132
2.37400	5133
2.37467	5133
2.37533	5134
2.37600	5134
2.37667	5135
2.37733	5135
2.37800	5135
2.37867	5135
2.37933	5135
2.38000	5135
2.38067	5135
2.38133	5135
2.38200	5134
2.38267	5134
2.38333	5134
2.38400	5133
2.38467	5133
2.38533	5132
2.38600	5131
2.38667	5131
2.38733	5130
2.38800	5129
2.38867	5128
2.38933	5127
2.39000	5126
2.39067	5126
2.39133	5125
2.39200	5124
2.39267	5123
2.39333	5122
2.39400	5120
2.39467	5119
2.39533	5118
2.39600	5117
2.39667	5116
2.39733	5115
2.39800	5114
2.39867	5112
2.39933	5111
2.40000	5110
2.40067	5109
2.40133	5107
2.40200	5106
2.40267	5105
2.40333	5104
2.40400	5102
2.40467	5101
2.40533	5100
2.40600	5098
2.40667	5097
2.40733	5096
2.40800	5094
2.40867	5093
2.40933	5092
2.41000	5090
2.41067	5089
2.41133	5088
2.41200	5086
2.41267	5085
2.41333	5084
2.41400	5083
2.41467	5081
2.41533	5080
2.41600	5079
2.41667	5077
2.41733	5076
2.41800	5075
2.41867	5073
2.41933	5072
2.42000	5071
2.42067	5069
2.42133	5068
2.42200	5067
2.42267	5066
2.42333	5064
2.42400	5063
2.42467	5062
2.42533	5060
2.42600	5059
2.42667	5057
2.42733	5056
2.42800	5054
2.42867	5053
2.42933	5051
2.43000	5050
2.43067	5048
2.43133	5047
2.43200	5045
2.43267	5043
2.43333	5042
2.43400	5040
2.43467	5038
2.43533	5036
2.43600	5034
2.43667	5032
2.43733	5030
2.43800	5028
2.43867	5026
2.43933	5024
2.44000	5022
2.44067	5020
2.44133	5018
2.44200	5016
2.44267	5014
2.44333	5011
2.44400	5009
2.44467	5007
2.44533	5005
2.44600	5002
2.44667	5000
2.44733	4998
2.44800	4996
2.44867	4993
2.44933	4991
2.45000	4989
2.45067	4986
2.45133	4984
2.45200	4982
2.45267	4979
2.45333	4977
2.45400	4974
2.45467	4972
2.45533	4970
2.45600	4968
2.45667	4965
2.45733	4963
2.45800	4961
2.45867	4958
2.45933	4956
2.46000	4954
2.46067	4952
2.46133	4950
2.46200	4947
2.46267	4945
2.46333	4943
2.46400	4941
2.46467	4939
2.46533	4937
2.46600	4934
2.46667	4932
2.46733	4930
2.46800	4928
2.46867	4926
2.46933	4924
2.47000	4922
2.47067	4919
2.47133	4917
2.47200	4915
2.47267	4913
2.47333	4911
2.47400	4909
2.47467	4907
2.47533	4905
2.47600	4903
2.47667	4901
2.47733	4899
2.47800	4897
2.47867	4895
2.47933	4893
2.48000	4891
2.48067	4889
2.48133	4887
2.48200	4885
2.48267	4883
2.48333	4881
2.48400	4879
2.48467	4877
2.48533	4874
2.48600	4872
2.48667	4870
2.48733	4868
2.48800	4866
2.48867	4864
2.48933	4862
2.49000	4860
2.49067	4858
2.49133	4856
2.49200	4854
2.49267	4852
2.49333	4850
2.49400	4848
2.49467	4846
2.49533	4844
2.49600	4843
2.49667	4841
2.49733	4839
2.49800	4837
2.49867	4835
2.49933	4833
2.50000	4831
2.50067	4829
2.50133	4828
2.50200	4826
2.50267	4824
2.50333	4822
2.50400	4820
2.50467	4819
2.50533	4817
2.50600	4815
2.50667	4813
2.50733	4811
2.50800	4810
2.50867	4808
2.50933	4806
2.51000	4804
2.51067	4802
2.51133	4801
2.51200	4799
2.51267	4797
2.51333	4796
2.51400	4794
2.51467	4792
2.51533	4790
2.51600	4789
2.51667	4787
2.51733	4785
2.51800	4783
2.51867	4782
2.51933	4780
2.52000	4778
2.52067	4776
2.52133	4775
2.52200	4773
2.52267	4771
2.52333	4770
2.52400	4768
2.52467	4766
2.52533	4765
2.52600	4763
2.52667	4761
2.52733	4760
2.52800	4758
2.52867	4756
2.52933	4755
2.53000	4753
2.53067	4751
2.53133	4749
2.53200	4748
2.53267	4746
2.53333	4744
2.53400	4743
2.53467	4741
2.53533	4739
2.53600	4738
2.53667	4736
2.53733	4734
2.53800	4733
2.53867	4731
2.53933	4729
2.54000	4728
2.54067	4726
2.54133	4725
2.54200	4723
2.54267	4722
2.54333	4720
2.54400	4719
2.54467	4717
2.54533	4716
2.54600	4714
2.54667	4713
2.54733	4711
2.54800	4710
2.54867	4708
2.54933	4707
2.55000	4705
2.55067	4704
2.55133	4702
2.55200	4701
2.55267	4700
2.55333	4698
2.55400	4697
2.55467	4695
2.55533	4694
2.55600	4692
2.55667	4691
2.55733	4690
2.55800	4688
2.55867	4687
2.55933	4685
2.56000	4684
2.56067	4682
2.56133	4681
2.56200	4679
2.56267	4678
2.56333	4676
2.56400	4675
2.56467	4673
2.56533	4672
2.56600	4671
2.56667	4669
2.56733	4668
2.56800	4667
2.56867	4666
2.56933	4664
2.57000	4663
2.57067	4662
2.57133	4661
2.57200	4660
2.57267	4659
2.57333	4657
2.57400	4656
2.57467	4655
2.57533	4654
2.57600	4653
2.57667	4652
2.57733	4651
2.57800	4649
2.57867	4648
2.57933	4647
2.58000	4646
2.58067	4645
2.58133	4644
2.58200	4643
2.58267	4642
2.58333	4641
2.58400	4640
2.58467	4639
2.58533	4638
2.58600	4637
2.58667	4636
2.58733	4635
2.58800	4634
2.58867	4633
2.58933	4632
2.59000	4631
2.59067	4630
2.59133	4628
2.59200	4627
2.59267	4626
2.59333	4625
2.59400	4624
2.59467	4623
2.59533	4622
2.59600	4621
2.59667	4620
2.59733	4619
2.59800	4618
2.59867	4617
2.59933	4616
2.60000	4615
2.60067	4614
2.60133	4613
2.60200	4612
2.60267	4611
2.60333	4610
2.60400	4609
2.60467	4608
2.60533	4607
2.60600	4606
2.60667	4605
2.60733	4604
2.60800	4603
2.60867	4602
2.60933	4601
2.61000	4600
2.61067	4599
2.61133	4598
2.61200	4597
2.61267	4596
2.61333	4595
2.61400	4594
2.61467	4593
2.61533	4592
2.61600	4591
2.61667	4590
2.61733	4589
2.61800	4588
2.61867	4587
2.61933	4586
2.62000	4585
2.62067	4584
2.62133	4583
2.62200	4582
2.62267	4581
2.62333	4580
2.62400	4579
2.62467	4578
2.62533	4577
2.62600	4576
2.62667	4575
2.62733	4574
2.62800	4573
2.62867	4572
2.62933	4571
2.63000	4570
2.63067	4568
2.63133	4567
2.63200	4566
2.63267	4565
2.63333	4564
2.63400	4563
2.63467	4561
2.63533	4560
2.63600	4559
2.63667	4558
2.63733	4556
2.63800	4555
2.63867	4554
2.63933	4553
2.64000	4551
2.64067	4550
2.64133	4549
2.64200	4548
2.64267	4546
2.64333	4545
2.64400	4544
2.64467	4543
2.64533	4542
2.64600	4541
2.64667	4539
2.64733	4538
2.64800	4537
2.64867	4536
2.64933	4535
2.65000	4534
2.65067	4532
2.65133	4531
2.65200	4530
2.65267	4529
2.65333	4528
2.65400	4527
2.65467	4526
2.65533	4525
2.65600	4524
2.65667	4523
2.65733	4522
2.65800	4521
2.65867	4519
2.65933	4518
2.66000	4517
2.66067	4516
2.66133	4515
2.66200	4514
2.66267	4513
2.66333	4512
2.66400	4511
2.66467	4509
2.66533	4508
2.66600	4507
2.66667	4506
2.66733	4505
2.66800	4504
2.66867	4503
2.66933	4501
2.67000	4500
2.67067	4499
2.67133	4498
2.67200	4497
2.67267	4496
2.67333	4495
2.67400	4493
2.67467	4492
2.67533	4491
2.67600	4490
2.67667	4489
2.67733	4488
2.67800	4487
2.67867	4485
2.67933	4484
2.68000	4483
2.68067	4482
2.68133	4481
2.68200	4480
2.68267	4480
2.68333	4479
2.68400	4478
2.68467	4477
2.68533	4476
2.68600	4475
2.68667	4474
2.68733	4473
2.68800	4472
2.68867	4471
2.68933	4470
2.69000	4469
2.69067	4469
2.69133	4468
2.69200	4467
2.69267	4466
2.69333	4465
2.69400	4465
2.69467	4464
2.69533	4463
2.69600	4462
2.69667	4462
2.69733	4461
2.69800	4460
2.69867	4460
2.69933	4459
2.70000	4458
2.70067	4458
2.70133	4457
2.70200	4456
2.70267	4456
2.70333	4455
2.70400	4454
2.70467	4454
2.70533	4453
2.70600	4452
2.70667	4452
2.70733	4451
2.70800	4451
2.70867	4450
2.70933	4449
2.71000	4449
2.71067	4448
2.71133	4448
2.71200	4447
2.71267	4447
2.71333	4446
2.71400	4446
2.71467	4445
2.71533	4445
2.71600	4444
2.71667	4444
2.71733	4443
2.71800	4442
2.71867	4442
2.71933	4441
2.72000	4441
2.72067	4440
2.72133	4440
2.72200	4439
2.72267	4439
2.72333	4438
2.72400	4438
2.72467	4437
2.72533	4437
2.72600	4436
2.72667	4436
2.72733	4435
2.72800	4435
2.72867	4434
2.72933	4434
2.73000	4433
2.73067	4433
2.73133	4432
2.73200	4431
2.73267	4431
2.73333	4430
2.73400	4430
2.73467	4430
2.73533	4429
2.73600	4429
2.73667	4428
2.73733	4428
2.73800	4427
2.73867	4427
2.73933	4426
2.74000	4426
2.74067	4426
2.74133	4425
2.74200	4425
2.74267	4424
2.74333	4424
2.74400	4424
2.74467	4423
2.74533	4423
2.74600	4423
2.74667	4422
2.74733	4422
2.74800	4422
2.74867	4422
2.74933	4421
2.75000	4421
2.75067	4421
2.75133	4421
2.75200	4420
2.75267	4420
2.75333	4420
2.75400	4419
2.75467	4419
2.75533	4419
2.75600	4418
2.75667	4418
2.75733	4418
2.75800	4418
2.75867	4418
2.75933	4417
2.76000	4417
2.76067	4417
2.76133	4417
2.76200	4417
2.76267	4417
2.76333	4416
2.76400	4416
2.76467	4416
2.76533	4416
2.76600	4416
2.76667	4416
2.76733	4417
2.76800	4417
2.76867	4417
2.76933	4417
2.77000	4417
2.77067	4417
2.77133	4418
2.77200	4418
2.77267	4418
2.77333	4418
2.77400	4419
2.77467	4419
2.77533	4420
2.77600	4420
2.77667	4421
2.77733	4421
2.77800	4422
2.77867	4422
2.77933	4423
2.78000	4423
2.78067	4424
2.78133	4424
2.78200	4425
2.78267	4426
2.78333	4426
2.78400	4427
2.78467	4428
2.78533	4428
2.78600	4429
2.78667	4430
2.78733	4431
2.78800	4432
2.78867	4433
2.78933	4433
2.79000	4434
2.79067	4435
2.79133	4436
2.79200	4437
2.79267	4438
2.79333	4439
2.79400	4440
2.79467	4441
2.79533	4442
2.79600	4443
2.79667	4444
2.79733	4445
2.79800	4446
2.79867	4447
2.79933	4448
2.80000	4449
2.80067	4450
2.80133	4451
2.80200	4452
2.80267	4453
2.80333	4454
2.80400	4455
2.80467	4456
2.80533	4457
2.80600	4457
2.80667	4458
2.80733	4459
2.80800	4460
2.80867	4461
2.80933	4462
2.81000	4462
2.81067	4463
2.81133	4464
2.81200	4464
2.81267	4465
2.81333	4466
2.81400	4466
2.81467	4467
2.81533	4467
2.81600	4468
2.81667	4468
2.81733	4469
2.81800	4469
2.81867	4470
2.81933	4470
2.82000	4471
2.82067	4471
2.82133	4471
2.82200	4472
2.82267	4472
2.82333	4472
2.82400	4472
2.82467	4473
2.82533	4473
2.82600	4473
2.82667	4473
2.82733	4473
2.82800	4473
2.82867	4473
2.82933	4473
2.83000	4472
2.83067	4472
2.83133	4472
2.83200	4472
2.83267	4472
2.83333	4472
2.83400	4471
2.83467	4471
2.83533	4471
2.83600	4470
2.83667	4470
2.83733	4470
2.83800	4470
2.83867	4469
2.83933	4469
2.84000	4469
2.84067	4468
2.84133	4468
2.84200	4467
2.84267	4467
2.84333	4466
2.84400	4466
2.84467	4465
2.84533	4465
2.84600	4465
2.84667	4464
2.84733	4464
2.84800	4463
2.84867	4463
2.84933	4463
2.85000	4462
2.85067	4462
2.85133	4462
2.85200	4461
2.85267	4461
2.85333	4461
2.85400	4461
2.85467	4461
2.85533	4461
2.85600	4461
2.85667	4461
2.85733	4461
2.85800	4461
2.85867	4461
2.85933	4461
2.86000	4461
2.86067	4462
2.86133	4462
2.86200	4462
2.86267	4463
2.86333	4463
2.86400	4464
2.86467	4464
2.86533	4465
2.86600	4466
2.86667	4466
2.86733	4467
2.86800	4468
2.86867	4469
2.86933	4470
2.87000	4471
2.87067	4472
2.87133	4474
2.87200	4475
2.87267	4476
2.87333	4478
2.87400	4480
2.87467	4482
2.87533	4484
2.87600	4486
2.87667	4488
2.87733	4491
2.87800	4493
2.87867	4496
2.87933	4499
2.88000	4502
2.88067	4505
2.88133	4508
2.88200	4512
2.88267	4515
2.88333	4519
2.88400	4523
2.88467	4528
2.88533	4532
2.88600	4537
2.88667	4542
2.88733	4547
2.88800	4552
2.88867	4558
2.88933	4563
2.89000	4569
2.89067	4575
2.89133	4581
2.89200	4587
2.89267	4594
2.89333	4601
2.89400	4607
2.89467	4614
2.89533	4622
2.89600	4629
2.89667	4636
2.89733	4643
2.89800	4651
2.89867	4658
2.89933	4666
2.90000	4673
2.90067	4681
2.90133	4688
2.90200	4696
2.90267	4703
2.90333	4710
2.90400	4717
2.90467	4724
2.90533	4731
2.90600	4738
2.90667	4744
2.90733	4751
2.90800	4757
2.90867	4763
2.90933	4768
2.91000	4774
2.91067	4779
2.91133	4784
2.91200	4788
2.91267	4793
2.91333	4797
2.91400	4800
2.91467	4804
2.91533	4807
2.91600	4809
2.91667	4812
2.91733	4814
2.91800	4815
2.91867	4817
2.91933	4818
2.92000	4818
2.92067	4819
2.92133	4818
2.92200	4818
2.92267	4817
2.92333	4816
2.92400	4814
2.92467	4812
2.92533	4810
2.92600	4807
2.92667	4804
2.92733	4801
2.92800	4797
2.92867	4793
2.92933	4788
2.93000	4784
2.93067	4779
2.93133	4774
2.93200	4768
2.93267	4763
2.93333	4757
2.93400	4751
2.93467	4744
2.93533	4738
2.93600	4731
2.93667	4724
2.93733	4717
2.93800	4709
2.93867	4702
2.93933	4694
2.94000	4687
2.94067	4679
2.94133	4671
2.94200	4663
2.94267	4655
2.94333	4647
2.94400	4639
2.94467	4630
2.94533	4622
2.94600	4614
2.94667	4605
2.94733	4597
2.94800	4588
2.94867	4580
2.94933	4571
2.95000	4563
2.95067	4554
2.95133	4546
2.95200	4538
2.95267	4529
2.95333	4521
2.95400	4513
2.95467	4505
2.95533	4497
2.95600	4489
2.95667	4481
2.95733	4473
2.95800	4465
2.95867	4458
2.95933	4450
2.96000	4443
2.96067	4436
2.96133	4428
2.96200	4421
2.96267	4415
2.96333	4408
2.96400	4401
2.96467	4394
2.96533	4388
2.96600	4381
2.96667	4375
2.96733	4368
2.96800	4362
2.96867	4356
2.96933	4350
2.97000	4343
2.97067	4337
2.97133	4331
2.97200	4326
2.97267	4320
2.97333	4314
2.97400	4309
2.97467	4303
2.97533	4298
2.97600	4293
2.97667	4287
2.97733	4282
2.97800	4277
2.97867	4272
2.97933	4267
2.98000	4263
2.98067	4258
2.98133	4253
2.98200	4249
2.98267	4245
2.98333	4240
2.98400	4236
2.98467	4232
2.98533	4228
2.98600	4224
2.98667	4220
2.98733	4216
2.98800	4212
2.98867	4208
2.98933	4205
2.99000	4201
2.99067	4197
2.99133	4194
2.99200	4190
2.99267	4187
2.99333	4184
2.99400	4180
2.99467	4177
2.99533	4174
2.99600	4171
2.99667	4168
2.99733	4165
2.99800	4162
2.99867	4160
2.99933	4157
3.00000	4154
3.00067	4151
3.00133	4149
3.00200	4146
3.00267	4144
3.00333	4141
3.00400	4138
3.00467	4136
3.00533	4134
3.00600	4131
3.00667	4129
3.00733	4126
3.00800	4124
3.00867	4122
3.00933	4120
3.01000	4117
3.01067	4115
3.01133	4113
3.01200	4111
3.01267	4109
3.01333	4107
3.01400	4104
3.01467	4102
3.01533	4101
3.01600	4099
3.01667	4097
3.01733	4095
3.01800	4093
3.01867	4091
3.01933	4089
3.02000	4088
3.02067	4086
3.02133	4084
3.02200	4083
3.02267	4081
3.02333	4079
3.02400	4078
3.02467	4076
3.02533	4075
3.02600	4073
3.02667	4072
3.02733	4070
3.02800	4069
3.02867	4068
3.02933	4066
3.03000	4065
3.03067	4063
3.03133	4062
3.03200	4061
3.03267	4060
3.03333	4058
3.03400	4057
3.03467	4056
3.03533	4054
3.03600	4053
3.03667	4052
3.03733	4051
3.03800	4050
3.03867	4049
3.03933	4048
3.04000	4046
3.04067	4045
3.04133	4044
3.04200	4043
3.04267	4043
3.04333	4042
3.04400	4041
3.04467	4040
3.04533	4039
3.04600	4038
3.04667	4038
3.04733	4037
3.04800	4036
3.04867	4035
3.04933	4035
3.05000	4034
3.05067	4033
3.05133	4033
3.05200	4032
3.05267	4031
3.05333	4031
3.05400	4030
3.05467	4029
3.05533	4029
3.05600	4028
3.05667	4027
3.05733	4027
3.05800	4026
3.05867	4026
3.05933	4025
3.06000	4025
3.06067	4024
3.06133	4024
3.06200	4023
3.06267	4023
3.06333	4022
3.06400	4022
3.06467	4022
3.06533	4021
3.06600	4021
3.06667	4020
3.06733	4020
3.06800	4020
3.06867	4019
3.06933	4019
3.07000	4019
3.07067	4018
3.07133	4018
3.07200	4018
3.07267	4018
3.07333	4018
3.07400	4018
3.07467	4017
3.07533	4017
3.07600	4017
3.07667	4017
3.07733	4017
3.07800	4016
3.07867	4016
3.07933	4016
3.08000	4016
3.08067	4016
3.08133	4016
3.08200	4016
3.08267	4015
3.08333	4015
3.08400	4015
3.08467	4015
3.08533	4015
3.08600	4014
3.08667	4014
3.08733	4014
3.08800	4014
3.08867	4013
3.08933	4013
3.09000	4013
3.09067	4012
3.09133	4012
3.09200	4012
3.09267	4011
3.09333	4011
3.09400	4010
3.09467	4010
3.09533	4009
3.09600	4009
3.09667	4009
3.09733	4008
3.09800	4008
3.09867	4007
3.09933	4006
3.10000	4006
3.10067	4005
3.10133	4005
3.10200	4004
3.10267	4004
3.10333	4003
3.10400	4002
3.10467	4002
3.10533	4001
3.10600	4000
3.10667	4000
3.10733	3999
3.10800	3998
3.10867	3998
3.10933	3997
3.11000	3996
3.11067	3995
3.11133	3995
3.11200	3994
3.11267	3993
3.11333	3993
3.11400	3992
3.11467	3992
3.11533	3991
3.11600	3990
3.11667	3990
3.11733	3989
3.11800	3988
3.11867	3988
3.11933	3987
3.12000	3986
3.12067	3986
3.12133	3985
3.12200	3984
3.12267	3984
3.12333	3983
3.12400	3982
3.12467	3981
3.12533	3980
3.12600	3980
3.12667	3979
3.12733	3978
3.12800	3977
3.12867	3977
3.12933	3976
3.13000	3976
3.13067	3975
3.13133	3974
3.13200	3974
3.13267	3973
3.13333	3973
3.13400	3972
3.13467	3972
3.13533	3971
3.13600	3970
3.13667	3970
3.13733	3969
3.13800	3969
3.13867	3969
3.13933	3968
3.14000	3968
3.14067	3967
3.14133	3967
3.14200	3967
3.14267	3966
3.14333	3966
3.14400	3966
3.14467	3966
3.14533	3965
3.14600	3965
3.14667	3965
3.14733	3965
3.14800	3965
3.14867	3965
3.14933	3964
3.15000	3964
3.15067	3964
3.15133	3964
3.15200	3964
3.15267	3964
3.15333	3963
3.15400	3963
3.15467	3963
3.15533	3963
3.15600	3963
3.15667	3963
3.15733	3963
3.15800	3962
3.15867	3962
3.15933	3962
3.16000	3962
3.16067	3962
3.16133	3962
3.16200	3962
3.16267	3962
3.16333	3961
3.16400	3961
3.16467	3961
3.16533	3961
3.16600	3961
3.16667	3961
3.16733	3960
3.16800	3960
3.16867	3960
3.16933	3960
3.17000	3960
3.17067	3960
3.17133	3960
3.17200	3960
3.17267	3960
3.17333	3959
3.17400	3959
3.17467	3959
3.17533	3959
3.17600	3959
3.17667	3959
3.17733	3959
3.17800	3959
3.17867	3959
3.17933	3959
3.18000	3959
3.18067	3958
3.18133	3958
3.18200	3958
3.18267	3958
3.18333	3958
3.18400	3957
3.18467	3957
3.18533	3957
3.18600	3957
3.18667	3957
3.18733	3956
3.18800	3956
3.18867	3956
3.18933	3956
3.19000	3956
3.19067	3956
3.19133	3956
3.19200	3956
3.19267	3955
3.19333	3955
3.19400	3955
3.19467	3955
3.19533	3955
3.19600	3955
3.19667	3954
3.19733	3954
3.19800	3954
3.19867	3954
3.19933	3954
3.20000	3954
3.20067	3954
3.20133	3953
3.20200	3953
3.20267	3953
3.20333	3953
3.20400	3953
3.20467	3953
3.20533	3952
3.20600	3952
3.20667	3952
3.20733	3952
3.20800	3952
3.20867	3952
3.20933	3952
3.21000	3952
3.21067	3952
3.21133	3952
3.21200	3952
3.21267	3952
3.21333	3952
3.21400	3952
3.21467	3952
3.21533	3952
3.21600	3952
3.21667	3952
3.21733	3952
3.21800	3952
3.21867	3952
3.21933	3952
3.22000	3953
3.22067	3953
3.22133	3953
3.22200	3953
3.22267	3953
3.22333	3953
3.22400	3953
3.22467	3953
3.22533	3952
3.22600	3952
3.22667	3952
3.22733	3952
3.22800	3953
3.22867	3953
3.22933	3953
3.23000	3953
3.23067	3953
3.23133	3953
3.23200	3953
3.23267	3953
3.23333	3953
3.23400	3953
3.23467	3953
3.23533	3953
3.23600	3953
3.23667	3953
3.23733	3953
3.23800	3953
3.23867	3954
3.23933	3954
3.24000	3954
3.24067	3954
3.24133	3954
3.24200	3955
3.24267	3955
3.24333	3955
3.24400	3956
3.24467	3956
3.24533	3956
3.24600	3957
3.24667	3957
3.24733	3957
3.24800	3958
3.24867	3958
3.24933	3959
3.25000	3959
3.25067	3959
3.25133	3960
3.25200	3960
3.25267	3961
3.25333	3961
3.25400	3962
3.25467	3962
3.25533	3963
3.25600	3963
3.25667	3963
3.25733	3964
3.25800	3964
3.25867	3965
3.25933	3965
3.26000	3965
3.26067	3966
3.26133	3966
3.26200	3967
3.26267	3967
3.26333	3968
3.26400	3968
3.26467	3968
3.26533	3969
3.26600	3969
3.26667	3969
3.26733	3970
3.26800	3970
3.26867	3970
3.26933	3971
3.27000	3971
3.27067	3971
3.27133	3972
3.27200	3972
3.27267	3973
3.27333	3973
3.27400	3974
3.27467	3974
3.27533	3974
3.27600	3975
3.27667	3975
3.27733	3976
3.27800	3976
3.27867	3977
3.27933	3978
3.28000	3978
3.28067	3979
3.28133	3979
3.28200	3980
3.28267	3981
3.28333	3981
3.28400	3982
3.28467	3983
3.28533	3983
3.28600	3984
3.28667	3985
3.28733	3985
3.28800	3986
3.28867	3987
3.28933	3987
3.29000	3988
3.29067	3989
3.29133	3989
3.29200	3990
3.29267	3991
3.29333	3991
3.29400	3992
3.29467	3993
3.29533	3993
3.29600	3994
3.29667	3995
3.29733	3995
3.29800	3996
3.29867	3997
3.29933	3998
3.30000	3998
3.30067	3999
3.30133	4000
3.30200	4000
3.30267	4001
3.30333	4002
3.30400	4003
3.30467	4003
3.30533	4004
3.30600	4005
3.30667	4006
3.30733	4006
3.30800	4007
3.30867	4008
3.30933	4008
3.31000	4009
3.31067	4010
3.31133	4011
3.31200	4011
3.31267	4012
3.31333	4013
3.31400	4013
3.31467	4014
3.31533	4015
3.31600	4016
3.31667	4016
3.31733	4017
3.31800	4018
3.31867	4018
3.31933	4019
3.32000	4020
3.32067	4020
3.32133	4021
3.32200	4022
3.32267	4022
3.32333	4023
3.32400	4023
3.32467	4024
3.32533	4024
3.32600	4025
3.32667	4025
3.32733	4026
3.32800	4026
3.32867	4027
3.32933	4028
3.33000	4028
3.33067	4029
3.33133	4029
3.33200	4030
3.33267	4030
3.33333	4031
3.33400	4031
3.33467	4032
3.33533	4032
3.33600	4033
3.33667	4033
3.33733	4033
3.33800	4034
3.33867	4034
3.33933	4034
3.34000	4034
3.34067	4035
3.34133	4035
3.34200	4035
3.34267	4035
3.34333	4036
3.34400	4036
3.34467	4036
3.34533	4036
3.34600	4036
3.34667	4036
3.34733	4036
3.34800	4036
3.34867	4036
3.34933	4036
3.35000	4036
3.35067	4036
3.35133	4036
3.35200	4036
3.35267	4036
3.35333	4036
3.35400	4036
3.35467	4036
3.35533	4037
3.35600	4037
3.35667	4037
3.35733	4037
3.35800	4037
3.35867	4037
3.35933	4038
3.36000	4038
3.36067	4038
3.36133	4038
3.36200	4038
3.36267	4038
3.36333	4039
3.36400	4039
3.36467	4039
3.36533	4039
3.36600	4040
3.36667	4040
3.36733	4040
3.36800	4040
3.36867	4041
3.36933	4041
3.37000	4041
3.37067	4041
3.37133	4041
3.37200	4042
3.37267	4042
3.37333	4042
3.37400	4042
3.37467	4043
3.37533	4043
3.37600	4043
3.37667	4043
3.37733	4044
3.37800	4044
3.37867	4044
3.37933	4044
3.38000	4044
3.38067	4044
3.38133	4045
3.38200	4045
3.38267	4045
3.38333	4045
3.38400	4045
3.38467	4045
3.38533	4045
3.38600	4045
3.38667	4046
3.38733	4046
3.38800	4046
3.38867	4046
3.38933	4046
3.39000	4046
3.39067	4047
3.39133	4047
3.39200	4047
3.39267	4047
3.39333	4047
3.39400	4048
3.39467	4048
3.39533	4048
3.39600	4048
3.39667	4048
3.39733	4048
3.39800	4048
3.39867	4048
3.39933	4049
3.40000	4049
3.40067	4049
3.40133	4049
3.40200	4049
3.40267	4049
3.40333	4049
3.40400	4049
3.40467	4049
3.40533	4049
3.40600	4049
3.40667	4049
3.40733	4049
3.40800	4049
3.40867	4049
3.40933	4049
3.41000	4049
3.41067	4049
3.41133	4049
3.41200	4049
3.41267	4049
3.41333	4049
3.41400	4049
3.41467	4049
3.41533	4049
3.41600	4049
3.41667	4049
3.41733	4049
3.41800	4049
3.41867	4049
3.41933	4049
3.42000	4049
3.42067	4049
3.42133	4049
3.42200	4049
3.42267	4049
3.42333	4049
3.42400	4049
3.42467	4049
3.42533	4048
3.42600	4048
3.42667	4048
3.42733	4048
3.42800	4048
3.42867	4048
3.42933	4048
3.43000	4048
3.43067	4048
3.43133	4048
3.43200	4048
3.43267	4048
3.43333	4048
3.43400	4048
3.43467	4048
3.43533	4048
3.43600	4048
3.43667	4048
3.43733	4048
3.43800	4048
3.43867	4048
3.43933	4049
3.44000	4049
3.44067	4049
3.44133	4049
3.44200	4050
3.44267	4050
3.44333	4050
3.44400	4051
3.44467	4051
3.44533	4051
3.44600	4052
3.44667	4052
3.44733	4052
3.44800	4053
3.44867	4053
3.44933	4054
3.45000	4054
3.45067	4055
3.45133	4055
3.45200	4056
3.45267	4056
3.45333	4057
3.45400	4057
3.45467	4058
3.45533	4059
3.45600	4059
3.45667	4060
3.45733	4061
3.45800	4062
3.45867	4063
3.45933	4063
3.46000	4064
3.46067	4065
3.46133	4066
3.46200	4067
3.46267	4069
3.46333	4070
3.46400	4071
3.46467	4072
3.46533	4074
3.46600	4075
3.46667	4076
3.46733	4078
3.46800	4079
3.46867	4081
3.46933	4082
3.47000	4084
3.47067	4085
3.47133	4087
3.47200	4088
3.47267	4090
3.47333	4092
3.47400	4094
3.47467	4095
3.47533	4097
3.47600	4099
3.47667	4101
3.47733	4103
3.47800	4105
3.47867	4107
3.47933	4109
3.48000	4112
3.48067	4114
3.48133	4116
3.48200	4119
3.48267	4121
3.48333	4124
3.48400	4126
3.48467	4129
3.48533	4132
3.48600	4135
3.48667	4138
3.48733	4141
3.48800	4145
3.48867	4148
3.48933	4152
3.49000	4155
3.49067	4159
3.49133	4163
3.49200	4168
3.49267	4172
3.49333	4177
3.49400	4182
3.49467	4187
3.49533	4192
3.49600	4198
3.49667	4204
3.49733	4210
3.49800	4216
3.49867	4223
3.49933	4230
3.50000	4237
3.50067	4245
3.50133	4253
3.50200	4262
3.50267	4271
3.50333	4280
3.50400	4290
3.50467	4300
3.50533	4311
3.50600	4322
3.50667	4334
3.50733	4346
3.50800	4359
3.50867	4372
3.50933	4386
3.51000	4401
3.51067	4416
3.51133	4432
3.51200	4449
3.51267	4466
3.51333	4484
3.51400	4503
3.51467	4523
3.51533	4543
3.51600	4564
3.51667	4586
3.51733	4609
3.51800	4632
3.51867	4657
3.51933	4682
3.52000	4709
3.52067	4736
3.52133	4764
3.52200	4793
3.52267	4823
3.52333	4854
3.52400	4886
3.52467	4919
3.52533	4953
3.52600	4988
3.52667	5024
3.52733	5061
3.52800	5099
3.52867	5138
3.52933	5178
3.53000	5218
3.53067	5260
3.53133	5302
3.53200	5346
3.53267	5390
3.53333	5435
3.53400	5481
3.53467	5528
3.53533	5576
3.53600	5624
3.53667	5673
3.53733	5723
3.53800	5774
3.53867	5825
3.53933	5878
3.54000	5930
3.54067	5983
3.54133	6037
3.54200	6092
3.54267	6147
3.54333	6202
3.54400	6257
3.54467	6313
3.54533	6369
3.54600	6425
3.54667	6481
3.54733	6538
3.54800	6594
3.54867	6650
3.54933	6707
3.55000	6763
3.55067	6819
3.55133	6875
3.55200	6930
3.55267	6985
3.55333	7040
3.55400	7095
3.55467	7149
3.55533	7202
3.55600	7255
3.55667	7307
3.55733	7359
3.55800	7410
3.55867	7460
3.55933	7510
3.56000	7558
3.56067	7606
3.56133	7653
3.56200	7700
3.56267	7745
3.56333	7790
3.56400	7833
3.56467	7876
3.56533	7917
3.56600	7957
3.56667	7997
3.56733	8035
3.56800	8072
3.56867	8107
3.56933	8142
3.57000	8175
3.57067	8207
3.57133	8238
3.57200	8268
3.57267	8296
3.57333	8324
3.57400	8350
3.57467	8375
3.57533	8399
3.57600	8422
3.57667	8443
3.57733	8464
3.57800	8484
3.57867	8502
3.57933	8520
3.58000	8536
3.58067	8552
3.58133	8566
3.58200	8579
3.58267	8592
3.58333	8603
3.58400	8613
3.58467	8623
3.58533	8632
3.58600	8639
3.58667	8646
3.58733	8652
3.58800	8657
3.58867	8661
3.58933	8665
3.59000	8668
3.59067	8670
3.59133	8671
3.59200	8672
3.59267	8672
3.59333	8671
3.59400	8669
3.59467	8667
3.59533	8665
3.59600	8661
3.59667	8658
3.59733	8653
3.59800	8649
3.59867	8643
3.59933	8638
3.60000	8631
3.60067	8624
3.60133	8617
3.60200	8609
3.60267	8601
3.60333	8592
3.60400	8583
3.60467	8573
3.60533	8563
3.60600	8553
3.60667	8541
3.60733	8530
3.60800	8518
3.60867	8505
3.60933	8492
3.61000	8479
3.61067	8465
3.61133	8450
3.61200	8436
3.61267	8420
3.61333	8404
3.61400	8388
3.61467	8371
3.61533	8354
3.61600	8336
3.61667	8318
3.61733	8299
3.61800	8280
3.61867	8260
3.61933	8240
3.62000	8219
3.62067	8197
3.62133	8175
3.62200	8153
3.62267	8130
3.62333	8106
3.62400	8082
3.62467	8058
3.62533	8033
3.62600	8007
3.62667	7981
3.62733	7955
3.62800	7928
3.62867	7900
3.62933	7872
3.63000	7844
3.63067	7815
3.63133	7786
3.63200	7756
3.63267	7726
3.63333	7695
3.63400	7664
3.63467	7632
3.63533	7600
3.63600	7568
3.63667	7535
3.63733	7501
3.63800	7468
3.63867	7434
3.63933	7400
3.64000	7365
3.64067	7330
3.64133	7295
3.64200	7259
3.64267	7224
3.64333	7188
3.64400	7152
3.64467	7115
3.64533	7079
3.64600	7042
3.64667	7005
3.64733	6968
3.64800	6931
3.64867	6894
3.64933	6857
3.65000	6820
3.65067	6783
3.65133	6745
3.65200	6708
3.65267	6671
3.65333	6634
3.65400	6597
3.65467	6560
3.65533	6523
3.65600	6486
3.65667	6450
3.65733	6413
3.65800	6377
3.65867	6340
3.65933	6304
3.66000	6268
3.66067	6233
3.66133	6197
3.66200	6162
3.66267	6126
3.66333	6091
3.66400	6057
3.66467	6022
3.66533	5988
3.66600	5954
3.66667	5921
3.66733	5887
3.66800	5854
3.66867	5821
3.66933	5789
3.67000	5757
3.67067	5725
3.67133	5694
3.67200	5662
3.67267	5632
3.67333	5601
3.67400	5571
3.67467	5541
3.67533	5512
3.67600	5483
3.67667	5455
3.67733	5426
3.67800	5399
3.67867	5371
3.67933	5344
3.68000	5317
3.68067	5291
3.68133	5265
3.68200	5240
3.68267	5215
3.68333	5190
3.68400	5165
3.68467	5141
3.68533	5118
3.68600	5095
3.68667	5072
3.68733	5049
3.68800	5027
3.68867	5005
3.68933	4984
3.69000	4963
3.69067	4942
3.69133	4922
3.69200	4902
3.69267	4882
3.69333	4863
3.69400	4844
3.69467	4825
3.69533	4806
3.69600	4788
3.69667	4770
3.69733	4753
3.69800	4736
3.69867	4719
3.69933	4702
3.70000	4686
3.70067	4669
3.70133	4654
3.70200	4638
3.70267	4623
3.70333	4607
3.70400	4593
3.70467	4578
3.70533	4564
3.70600	4550
3.70667	4536
3.70733	4522
3.70800	4509
3.70867	4496
3.70933	4483
3.71000	4470
3.71067	4458
3.71133	4446
3.71200	4434
3.71267	4422
3.71333	4411
3.71400	4400
3.71467	4389
3.71533	4378
3.71600	4367
3.71667	4357
3.71733	4346
3.71800	4336
3.71867	4326
3.71933	4316
3.72000	4307
3.72067	4297
3.72133	4288
3.72200	4279
3.72267	4270
3.72333	4261
3.72400	4252
3.72467	4243
3.72533	4235
3.72600	4227
3.72667	4219
3.72733	4211
3.72800	4203
3.72867	4195
3.72933	4187
3.73000	4180
3.73067	4172
3.73133	4165
3.73200	4158
3.73267	4151
3.73333	4144
3.73400	4137
3.73467	4130
3.73533	4124
3.73600	4117
3.73667	4111
3.73733	4105
3.73800	4098
3.73867	4092
3.73933	4086
3.74000	4081
3.74067	4075
3.74133	4069
3.74200	4064
3.74267	4058
3.74333	4053
3.74400	4047
3.74467	4042
3.74533	4037
3.74600	4032
3.74667	4027
3.74733	4022
3.74800	4017
3.74867	4012
3.74933	4008
3.75000	4003
3.75067	3998
3.75133	3994
3.75200	3989
3.75267	3985
3.75333	3980
3.75400	3976
3.75467	3972
3.75533	3967
3.75600	3963
3.75667	3959
3.75733	3955
3.75800	3951
3.75867	3947
3.75933	3943
3.76000	3939
3.76067	3935
3.76133	3931
3.76200	3928
3.76267	3924
3.76333	3920
3.76400	3917
3.76467	3913
3.76533	3910
3.76600	3907
3.76667	3903
3.76733	3900
3.76800	3897
3.76867	3893
3.76933	3890
3.77000	3887
3.77067	3884
3.77133	3881
3.77200	3878
3.77267	3875
3.77333	3872
3.77400	3869
3.77467	3866
3.77533	3863
3.77600	3860
3.77667	3857
3.77733	3854
3.77800	3852
3.77867	3849
3.77933	3846
3.78000	3844
3.78067	3841
3.78133	3838
3.78200	3836
3.78267	3833
3.78333	3831
3.78400	3829
3.78467	3826
3.78533	3824
3.78600	3821
3.78667	3819
3.78733	3817
3.78800	3814
3.78867	3812
3.78933	3810
3.79000	3808
3.79067	3805
3.79133	3803
3.79200	3801
3.79267	3799
3.79333	3797
3.79400	3795
3.79467	3793
3.79533	3791
3.79600	3789
3.79667	3787
3.79733	3786
3.79800	3784
3.79867	3782
3.79933	3780
3.80000	3778
3.80067	3777
3.80133	3775
3.80200	3773
3.80267	3772
3.80333	3770
3.80400	3768
3.80467	3767
3.80533	3765
3.80600	3763
3.80667	3762
3.80733	3760
3.80800	3759
3.80867	3757
3.80933	3755
3.81000	3754
3.81067	3752
3.81133	3751
3.81200	3749
3.81267	3748
3.81333	3746
3.81400	3745
3.81467	3743
3.81533	3742
3.81600	3740
3.81667	3739
3.81733	3737
3.81800	3736
3.81867	3734
3.81933	3733
3.82000	3732
3.82067	3730
3.82133	3729
3.82200	3727
3.82267	3726
3.82333	3724
3.82400	3723
3.82467	3722
3.82533	3720
3.82600	3719
3.82667	3717
3.82733	3716
3.82800	3714
3.82867	3713
3.82933	3711
3.83000	3710
3.83067	3709
3.83133	3707
3.83200	3706
3.83267	3705
3.83333	3703
3.83400	3702
3.83467	3701
3.83533	3700
3.83600	3698
3.83667	3697
3.83733	3696
3.83800	3694
3.83867	3693
3.83933	3692
3.84000	3690
3.84067	3689
3.84133	3688
3.84200	3686
3.84267	3685
3.84333	3684
3.84400	3682
3.84467	3681
3.84533	3680
3.84600	3679
3.84667	3677
3.84733	3676
3.84800	3675
3.84867	3674
3.84933	3673
3.85000	3671
3.85067	3670
3.85133	3669
3.85200	3668
3.85267	3667
3.85333	3666
3.85400	3665
3.85467	3664
3.85533	3663
3.85600	3662
3.85667	3661
3.85733	3660
3.85800	3659
3.85867	3658
3.85933	3657
3.86000	3656
3.86067	3655
3.86133	3654
3.86200	3653
3.86267	3652
3.86333	3651
3.86400	3650
3.86467	3649
3.86533	3648
3.86600	3647
3.86667	3646
3.86733	3645
3.86800	3644
3.86867	3643
3.86933	3642
3.87000	3641
3.87067	3640
3.87133	3639
3.87200	3638
3.87267	3637
3.87333	3636
3.87400	3635
3.87467	3634
3.87533	3633
3.87600	3632
3.87667	3631
3.87733	3631
3.87800	3630
3.87867	3629
3.87933	3628
3.88000	3627
3.88067	3626
3.88133	3625
3.88200	3624
3.88267	3624
3.88333	3623
3.88400	3622
3.88467	3621
3.88533	3620
3.88600	3619
3.88667	3618
3.88733	3617
3.88800	3616
3.88867	3616
3.88933	3615
3.89000	3614
3.89067	3613
3.89133	3612
3.89200	3611
3.89267	3610
3.89333	3610
3.89400	3609
3.89467	3608
3.89533	3607
3.89600	3606
3.89667	3606
3.89733	3605
3.89800	3604
3.89867	3603
3.89933	3603
3.90000	3602
3.90067	3601
3.90133	3601
3.90200	3600
3.90267	3599
3.90333	3599
3.90400	3598
3.90467	3597
3.90533	3597
3.90600	3596
3.90667	3596
3.90733	3595
3.90800	3594
3.90867	3594
3.90933	3593
3.91000	3593
3.91067	3592
3.91133	3592
3.91200	3592
3.91267	3591
3.91333	3591
3.91400	3590
3.91467	3590
3.91533	3589
3.91600	3589
3.91667	3588
3.91733	3588
3.91800	3587
3.91867	3587
3.91933	3586
3.92000	3586
3.92067	3585
3.92133	3585
3.92200	3585
3.92267	3584
3.92333	3584
3.92400	3583
3.92467	3583
3.92533	3582
3.92600	3582
3.92667	3581
3.92733	3581
3.92800	3580
3.92867	3580
3.92933	3579
3.93000	3579
3.93067	3578
3.93133	3577
3.93200	3577
3.93267	3576
3.93333	3576
3.93400	3575
3.93467	3575
3.93533	3574
3.93600	3574
3.93667	3573
3.93733	3573
3.93800	3573
3.93867	3572
3.93933	3572
3.94000	3571
3.94067	3571
3.94133	3571
3.94200	3570
3.94267	3570
3.94333	3569
3.94400	3569
3.94467	3569
3.94533	3568
3.94600	3568
3.94667	3568
3.94733	3567
3.94800	3567
3.94867	3567
3.94933	3566
3.95000	3566
3.95067	3565
3.95133	3565
3.95200	3565
3.95267	3564
3.95333	3564
3.95400	3564
3.95467	3563
3.95533	3563
3.95600	3562
3.95667	3562
3.95733	3562
3.95800	3562
3.95867	3561
3.95933	3561
3.96000	3561
3.96067	3560
3.96133	3560
3.96200	3560
3.96267	3559
3.96333	3559
3.96400	3559
3.96467	3559
3.96533	3559
3.96600	3559
3.96667	3558
3.96733	3558
3.96800	3558
3.96867	3558
3.96933	3558
3.97000	3558
3.97067	3558
3.97133	3558
3.97200	3558
3.97267	3558
3.97333	3558
3.97400	3558
3.97467	3557
3.97533	3557
3.97600	3557
3.97667	3557
3.97733	3557
3.97800	3557
3.97867	3557
3.97933	3557
3.98000	3557
3.98067	3557
3.98133	3557
3.98200	3558
3.98267	3558
3.98333	3558
3.98400	3558
3.98467	3558
3.98533	3558
3.98600	3559
3.98667	3559
3.98733	3559
3.98800	3559
3.98867	3560
3.98933	3560
3.99000	3560
3.99067	3560
3.99133	3560
3.99200	3561
3.99267	3561
3.99333	3561
3.99400	3562
3.99467	3562
3.99533	3562
3.99600	3563
3.99667	3563
3.99733	3563
3.99800	3564
3.99867	3564
3.99933	3565
4.00000	3565
4.00067	3565
4.00133	3566
4.00200	3566
4.00267	3567
4.00333	3567
4.00400	3568
4.00467	3568
4.00533	3569
4.00600	3569
4.00667	3570
4.00733	3571
4.00800	3571
4.00867	3572
4.00933	3572
4.01000	3573
4.01067	3574
4.01133	3575
4.01200	3575
4.01267	3576
4.01333	3577
4.01400	3578
4.01467	3579
4.01533	3579
4.01600	3580
4.01667	3581
4.01733	3582
4.01800	3583
4.01867	3584
4.01933	3585
4.02000	3587
4.02067	3588
4.02133	3589
4.02200	3591
4.02267	3592
4.02333	3594
4.02400	3596
4.02467	3597
4.02533	3599
4.02600	3601
4.02667	3603
4.02733	3605
4.02800	3607
4.02867	3609
4.02933	3611
4.03000	3613
4.03067	3615
4.03133	3618
4.03200	3620
4.03267	3622
4.03333	3625
4.03400	3627
4.03467	3630
4.03533	3632
4.03600	3635
4.03667	3638
4.03733	3640
4.03800	3643
4.03867	3646
4.03933	3649
4.04000	3651
4.04067	3654
4.04133	3657
4.04200	3660
4.04267	3663
4.04333	3666
4.04400	3669
4.04467	3672
4.04533	3675
4.04600	3678
4.04667	3681
4.04733	3685
4.04800	3688
4.04867	3691
4.04933	3694
4.05000	3697
4.05067	3701
4.05133	3704
4.05200	3708
4.05267	3711
4.05333	3715
4.05400	3718
4.05467	3721
4.05533	3725
4.05600	3729
4.05667	3732
4.05733	3736
4.05800	3740
4.05867	3743
4.05933	3747
4.06000	3751
4.06067	3755
4.06133	3759
4.06200	3763
4.06267	3767
4.06333	3771
4.06400	3775
4.06467	3779
4.06533	3783
4.06600	3787
4.06667	3791
4.06733	3795
4.06800	3800
4.06867	3804
4.06933	3808
4.07000	3812
4.07067	3817
4.07133	3821
4.07200	3825
4.07267	3830
4.07333	3834
4.07400	3839
4.07467	3843
4.07533	3848
4.07600	3852
4.07667	3857
4.07733	3861
4.07800	3866
4.07867	3871
4.07933	3875
4.08000	3880
4.08067	3885
4.08133	3889
4.08200	3894
4.08267	3899
4.08333	3903
4.08400	3908
4.08467	3913
4.08533	3918
4.08600	3922
4.08667	3927
4.08733	3932
4.08800	3937
4.08867	3942
4.08933	3947
4.09000	3952
4.09067	3956
4.09133	3961
4.09200	3966
4.09267	3971
4.09333	3976
4.09400	3981
4.09467	3986
4.09533	3991
4.09600	3996
4.09667	4000
4.09733	4005
4.09800	4010
4.09867	4015
4.09933	4019
4.10000	4024
4.10067	4029
4.10133	4034
4.10200	4038
4.10267	4043
4.10333	4047
4.10400	4052
4.10467	4056
4.10533	4061
4.10600	4065
4.10667	4069
4.10733	4074
4.10800	4078
4.10867	4082
4.10933	4086
4.11000	4090
4.11067	4094
4.11133	4098
4.11200	4102
4.11267	4106
4.11333	4110
4.11400	4114
4.11467	4117
4.11533	4121
4.11600	4124
4.11667	4128
4.11733	4131
4.11800	4135
4.11867	4138
4.11933	4141
4.12000	4144
4.12067	4147
4.12133	4150
4.12200	4153
4.12267	4156
4.12333	4158
4.12400	4161
4.12467	4163
4.12533	4166
4.12600	4168
4.12667	4170
4.12733	4172
4.12800	4174
4.12867	4176
4.12933	4178
4.13000	4180
4.13067	4182
4.13133	4183
4.13200	4184
4.13267	4186
4.13333	4187
4.13400	4188
4.13467	4189
4.13533	4190
4.13600	4190
4.13667	4191
4.13733	4192
4.13800	4192
4.13867	4193
4.13933	4193
4.14000	4194
4.14067	4194
4.14133	4194
4.14200	4194
4.14267	4194
4.14333	4194
4.14400	4194
4.14467	4194
4.14533	4194
4.14600	4194
4.14667	4193
4.14733	4193
4.14800	4192
4.14867	4192
4.14933	4191
4.15000	4191
4.15067	4190
4.15133	4189
4.15200	4188
4.15267	4188
4.15333	4187
4.15400	4186
4.15467	4185
4.15533	4184
4.15600	4183
4.15667	4182
4.15733	4181
4.15800	4180
4.15867	4179
4.15933	4178
4.16000	4177
4.16067	4176
4.16133	4175
4.16200	4174
4.16267	4173
4.16333	4172
4.16400	4171
4.16467	4170
4.16533	4169
4.16600	4168
4.16667	4168
4.16733	4167
4.16800	4166
4.16867	4166
4.16933	4165
4.17000	4165
4.17067	4164
4.17133	4164
4.17200	4164
4.17267	4163
4.17333	4163
4.17400	4163
4.17467	4163
4.17533	4163
4.17600	4164
4.17667	4164
4.17733	4164
4.17800	4165
4.17867	4166
4.17933	4166
4.18000	4167
4.18067	4168
4.18133	4169
4.18200	4171
4.18267	4172
4.18333	4174
4.18400	4175
4.18467	4177
4.18533	4179
4.18600	4181
4.18667	4184
4.18733	4186
4.18800	4188
4.18867	4191
4.18933	4194
4.19000	4197
4.19067	4200
4.19133	4204
4.19200	4207
4.19267	4211
4.19333	4215
4.19400	4219
4.19467	4223
4.19533	4228
4.19600	4233
4.19667	4238
4.19733	4243
4.19800	4248
4.19867	4254
4.19933	4260
4.20000	4266
4.20067	4272
4.20133	4278
4.20200	4285
4.20267	4292
4.20333	4299
4.20400	4306
4.20467	4314
4.20533	4322
4.20600	4330
4.20667	4338
4.20733	4347
4.20800	4355
4.20867	4364
4.20933	4374
4.21000	4383
4.21067	4393
4.21133	4403
4.21200	4413
4.21267	4424
4.21333	4435
4.21400	4446
4.21467	4457
4.21533	4469
4.21600	4481
4.21667	4493
4.21733	4506
4.21800	4519
4.21867	4532
4.21933	4546
4.22000	4560
4.22067	4574
4.22133	4589
4.22200	4605
4.22267	4620
4.22333	4636
4.22400	4653
4.22467	4670
4.22533	4687
4.22600	4705
4.22667	4723
4.22733	4741
4.22800	4761
4.22867	4780
4.22933	4800
4.23000	4821
4.23067	4842
4.23133	4863
4.23200	4885
4.23267	4908
4.23333	4931
4.23400	4954
4.23467	4978
4.23533	5003
4.23600	5028
4.23667	5053
4.23733	5079
4.23800	5106
4.23867	5132
4.23933	5160
4.24000	5188
4.24067	5216
4.24133	5245
4.24200	5274
4.24267	5304
4.24333	5335
4.24400	5366
4.24467	5397
4.24533	5429
4.24600	5462
4.24667	5495
4.24733	5529
4.24800	5563
4.24867	5598
4.24933	5634
4.25000	5669
4.25067	5706
4.25133	5743
4.25200	5780
4.25267	5819
4.25333	5857
4.25400	5896
4.25467	5936
4.25533	5976
4.25600	6017
4.25667	6058
4.25733	6100
4.25800	6143
4.25867	6186
4.25933	6229
4.26000	6273
4.26067	6318
4.26133	6363
4.26200	6408
4.26267	6454
4.26333	6500
4.26400	6547
4.26467	6594
4.26533	6642
4.26600	6690
4.26667	6739
4.26733	6788
4.26800	6838
4.26867	6888
4.26933	6938
4.27000	6989
4.27067	7040
4.27133	7092
4.27200	7144
4.27267	7197
4.27333	7250
4.27400	7303
4.27467	7357
4.27533	7411
4.27600	7465
4.27667	7520
4.27733	7575
4.27800	7631
4.27867	7687
4.27933	7743
4.28000	7799
4.28067	7856
4.28133	7913
4.28200	7970
4.28267	8028
4.28333	8086
4.28400	8144
4.28467	8202
4.28533	8261
4.28600	8319
4.28667	8379
4.28733	8438
4.28800	8497
4.28867	8557
4.28933	8616
4.29000	8676
4.29067	8736
4.29133	8796
4.29200	8856
4.29267	8916
4.29333	8976
4.29400	9036
4.29467	9096
4.29533	9156
4.29600	9216
4.29667	9276
4.29733	9336
4.29800	9396
4.29867	9456
4.29933	9515
4.30000	9575
4.30067	9634
4.30133	9693
4.30200	9752
4.30267	9810
4.30333	9869
4.30400	9927
4.30467	9985
4.30533	10042
4.30600	10100
4.30667	10157
4.30733	10214
4.30800	10271
4.30867	10328
4.30933	10384
4.31000	10440
4.31067	10495
4.31133	10550
4.31200	10605
4.31267	10659
4.31333	10713
4.31400	10766
4.31467	10818
4.31533	10870
4.31600	10921
4.31667	10971
4.31733	11021
4.31800	11070
4.31867	11118
4.31933	11166
4.32000	11212
4.32067	11258
4.32133	11303
4.32200	11347
4.32267	11391
4.32333	11433
4.32400	11475
4.32467	11516
4.32533	11555
4.32600	11594
4.32667	11632
4.32733	11668
4.32800	11704
4.32867	11738
4.32933	11771
4.33000	11803
4.33067	11834
4.33133	11864
4.33200	11892
4.33267	11919
4.33333	11945
4.33400	11970
4.33467	11994
4.33533	12016
4.33600	12037
4.33667	12056
4.33733	12075
4.33800	12091
4.33867	12107
4.33933	12121
4.34000	12134
4.34067	12145
4.34133	12155
4.34200	12164
4.34267	12171
4.34333	12177
4.34400	12182
4.34467	12185
4.34533	12187
4.34600	12187
4.34667	12186
4.34733	12183
4.34800	12179
4.34867	12174
4.34933	12167
4.35000	12159
4.35067	12150
4.35133	12139
4.35200	12126
4.35267	12112
4.35333	12097
4.35400	12081
4.35467	12063
4.35533	12044
4.35600	12023
4.35667	12002
4.35733	11979
4.35800	11954
4.35867	11929
4.35933	11902
4.36000	11875
4.36067	11846
4.36133	11816
4.36200	11785
4.36267	11753
4.36333	11720
4.36400	11686
4.36467	11651
4.36533	11616
4.36600	11579
4.36667	11541
4.36733	11503
4.36800	11463
4.36867	11423
4.36933	11382
4.37000	11341
4.37067	11298
4.37133	11255
4.37200	11212
4.37267	11168
4.37333	11123
4.37400	11078
4.37467	11032
4.37533	10986
4.37600	10940
4.37667	10893
4.37733	10846
4.37800	10798
4.37867	10751
4.37933	10702
4.38000	10654
4.38067	10606
4.38133	10557
4.38200	10508
4.38267	10459
4.38333	10410
4.38400	10360
4.38467	10311
4.38533	10262
4.38600	10212
4.38667	10163
4.38733	10113
4.38800	10064
4.38867	10014
4.38933	9965
4.39000	9915
4.39067	9866
4.39133	9817
4.39200	9768
4.39267	9720
4.39333	9671
4.39400	9623
4.39467	9575
4.39533	9528
4.39600	9480
4.39667	9433
4.39733	9387
4.39800	9341
4.39867	9295
4.39933	9249
4.40000	9204
4.40067	9159
4.40133	9115
4.40200	9071
4.40267	9027
4.40333	8984
4.40400	8941
4.40467	8899
4.40533	8857
4.40600	8816
4.40667	8775
4.40733	8735
4.40800	8695
4.40867	8655
4.40933	8616
4.41000	8578
4.41067	8540
4.41133	8503
4.41200	8466
4.41267	8429
4.41333	8394
4.41400	8358
4.41467	8323
4.41533	8289
4.41600	8255
4.41667	8222
4.41733	8189
4.41800	8156
4.41867	8124
4.41933	8093
4.42000	8062
4.42067	8032
4.42133	8002
4.42200	7973
4.42267	7944
4.42333	7916
4.42400	7888
4.42467	7861
4.42533	7834
4.42600	7808
4.42667	7782
4.42733	7757
4.42800	7732
4.42867	7708
4.42933	7684
4.43000	7660
4.43067	7637
4.43133	7615
4.43200	7593
4.43267	7571
4.43333	7550
4.43400	7529
4.43467	7509
4.43533	7489
4.43600	7470
4.43667	7451
4.43733	7433
4.43800	7415
4.43867	7398
4.43933	7381
4.44000	7365
4.44067	7348
4.44133	7333
4.44200	7318
4.44267	7303
4.44333	7288
4.44400	7275
4.44467	7261
4.44533	7248
4.44600	7235
4.44667	7223
4.44733	7211
4.44800	7199
4.44867	7188
4.44933	7177
4.45000	7166
4.45067	7156
4.45133	7146
4.45200	7137
4.45267	7128
4.45333	7119
4.45400	7110
4.45467	7102
4.45533	7094
4.45600	7087
4.45667	7079
4.45733	7072
4.45800	7065
4.45867	7059
4.45933	7052
4.46000	7046
4.46067	7041
4.46133	7035
4.46200	7030
4.46267	7025
4.46333	7021
4.46400	7017
4.46467	7013
4.46533	7009
4.46600	7005
4.46667	7002
4.46733	6999
4.46800	6996
4.46867	6994
4.46933	6991
4.47000	6989
4.47067	6987
4.47133	6986
4.47200	6984
4.47267	6983
4.47333	6982
4.47400	6981
4.47467	6980
4.47533	6979
4.47600	6979
4.47667	6978
4.47733	6978
4.47800	6978
4.47867	6978
4.47933	6978
4.48000	6979
4.48067	6979
4.48133	6980
4.48200	6980
4.48267	6981
4.48333	6982
4.48400	6983
4.48467	6984
4.48533	6986
4.48600	6987
4.48667	6989
4.48733	6990
4.48800	6992
4.48867	6994
4.48933	6996
4.49000	6998
4.49067	7000
4.49133	7002
4.49200	7004
4.49267	7006
4.49333	7008
4.49400	7011
4.49467	7013
4.49533	7015
4.49600	7017
4.49667	7019
4.49733	7022
4.49800	7024
4.49867	7026
4.49933	7028
4.50000	7030
4.50067	7032
4.50133	7034
4.50200	7036
4.50267	7038
4.50333	7040
4.50400	7042
4.50467	7044
4.50533	7045
4.50600	7047
4.50667	7049
4.50733	7051
4.50800	7053
4.50867	7054
4.50933	7056
4.51000	7058
4.51067	7060
4.51133	7061
4.51200	7063
4.51267	7065
4.51333	7066
4.51400	7068
4.51467	7070
4.51533	7072
4.51600	7073
4.51667	7075
4.51733	7077
4.51800	7079
4.51867	7081
4.51933	7083
4.52000	7085
4.52067	7087
4.52133	7089
4.52200	7092
4.52267	7094
4.52333	7097
4.52400	7100
4.52467	7103
4.52533	7106
4.52600	7109
4.52667	7112
4.52733	7116
4.52800	7120
4.52867	7124
4.52933	7128
4.53000	7132
4.53067	7137
4.53133	7141
4.53200	7146
4.53267	7152
4.53333	7157
4.53400	7162
4.53467	7168
4.53533	7174
4.53600	7181
4.53667	7187
4.53733	7194
4.53800	7201
4.53867	7209
4.53933	7217
4.54000	7225
4.54067	7234
4.54133	7243
4.54200	7252
4.54267	7262
4.54333	7272
4.54400	7282
4.54467	7293
4.54533	7305
4.54600	7316
4.54667	7328
4.54733	7341
4.54800	7354
4.54867	7367
4.54933	7381
4.55000	7395
4.55067	7410
4.55133	7425
4.55200	7440
4.55267	7456
4.55333	7472
4.55400	7489
4.55467	7506
4.55533	7524
4.55600	7542
4.55667	7560
4.55733	7579
4.55800	7598
4.55867	7618
4.55933	7638
4.56000	7659
4.56067	7680
4.56133	7701
4.56200	7723
4.56267	7745
4.56333	7768
4.56400	7791
4.56467	7815
4.56533	7839
4.56600	7864
4.56667	7889
4.56733	7914
4.56800	7940
4.56867	7966
4.56933	7992
4.57000	8018
4.57067	8045
4.57133	8072
4.57200	8100
4.57267	8127
4.57333	8155
4.57400	8183
4.57467	8211
4.57533	8240
4.57600	8268
4.57667	8297
4.57733	8326
4.57800	8354
4.57867	8383
4.57933	8412
4.58000	8441
4.58067	8471
4.58133	8500
4.58200	8529
4.58267	8558
4.58333	8587
4.58400	8617
4.58467	8646
4.58533	8675
4.58600	8704
4.58667	8733
4.58733	8762
4.58800	8790
4.58867	8819
4.58933	8847
4.59000	8876
4.59067	8904
4.59133	8932
4.59200	8959
4.59267	8987
4.59333	9014
4.59400	9041
4.59467	9067
4.59533	9094
4.59600	9120
4.59667	9146
4.59733	9171
4.59800	9196
4.59867	9221
4.59933	9246
4.60000	9270
4.60067	9294
4.60133	9317
4.60200	9341
4.60267	9363
4.60333	9386
4.60400	9408
4.60467	9429
4.60533	9450
4.60600	9471
4.60667	9491
4.60733	9511
4.60800	9530
4.60867	9549
4.60933	9567
4.61000	9585
4.61067	9603
4.61133	9620
4.61200	9636
4.61267	9652
4.61333	9667
4.61400	9682
4.61467	9697
4.61533	9710
4.61600	9723
4.61667	9736
4.61733	9748
4.61800	9759
4.61867	9770
4.61933	9780
4.62000	9790
4.62067	9799
4.62133	9807
4.62200	9815
4.62267	9822
4.62333	9829
4.62400	9835
4.62467	9840
4.62533	9845
4.62600	9850
4.62667	9854
4.62733	9857
4.62800	9860
4.62867	9862
4.62933	9864
4.63000	9866
4.63067	9867
4.63133	9868
4.63200	9868
4.63267	9867
4.63333	9866
4.63400	9865
4.63467	9863
4.63533	9861
4.63600	9858
4.63667	9856
4.63733	9852
4.63800	9849
4.63867	9844
4.63933	9840
4.64000	9835
4.64067	9830
4.64133	9824
4.64200	9818
4.64267	9812
4.64333	9805
4.64400	9798
4.64467	9791
4.64533	9784
4.64600	9776
4.64667	9768
4.64733	9759
4.64800	9751
4.64867	9742
4.64933	9732
4.65000	9723
4.65067	9713
4.65133	9703
4.65200	9693
4.65267	9682
4.65333	9671
4.65400	9660
4.65467	9648
4.65533	9637
4.65600	9625
4.65667	9613
4.65733	9601
4.65800	9589
4.65867	9576
4.65933	9563
4.66000	9551
4.66067	9537
4.66133	9524
4.66200	9511
4.66267	9497
4.66333	9483
4.66400	9470
4.66467	9456
4.66533	9441
4.66600	9427
4.66667	9413
4.66733	9399
4.66800	9384
4.66867	9369
4.66933	9355
4.67000	9340
4.67067	9325
4.67133	9310
4.67200	9295
4.67267	9280
4.67333	9265
4.67400	9250
4.67467	9235
4.67533	9220
4.67600	9205
4.67667	9189
4.67733	9174
4.67800	9159
4.67867	9144
4.67933	9129
4.68000	9114
4.68067	9099
4.68133	9084
4.68200	9069
4.68267	9054
4.68333	9039
4.68400	9025
4.68467	9010
4.68533	8995
4.68600	8980
4.68667	8966
4.68733	8951
4.68800	8937
4.68867	8923
4.68933	8909
4.69000	8894
4.69067	8881
4.69133	8867
4.69200	8853
4.69267	8839
4.69333	8826
4.69400	8812
4.69467	8799
4.69533	8785
4.69600	8772
4.69667	8759
4.69733	8745
4.69800	8732
4.69867	8719
4.69933	8706
4.70000	8693
4.70067	8680
4.70133	8667
4.70200	8654
4.70267	8641
4.70333	8628
4.70400	8615
4.70467	8603
4.70533	8590
4.70600	8577
4.70667	8565
4.70733	8553
4.70800	8540
4.70867	8528
4.70933	8516
4.71000	8504
4.71067	8492
4.71133	8480
4.71200	8468
4.71267	8456
4.71333	8445
4.71400	8433
4.71467	8421
4.71533	8410
4.71600	8398
4.71667	8387
4.71733	8376
4.71800	8365
4.71867	8354
4.71933	8343
4.72000	8332
4.72067	8321
4.72133	8311
4.72200	8300
4.72267	8290
4.72333	8280
4.72400	8269
4.72467	8259
4.72533	8249
4.72600	8239
4.72667	8229
4.72733	8220
4.72800	8210
4.72867	8200
4.72933	8191
4.73000	8182
4.73067	8172
4.73133	8163
4.73200	8154
4.73267	8145
4.73333	8135
4.73400	8126
4.73467	8117
4.73533	8108
4.73600	8099
4.73667	8090
4.73733	8081
4.73800	8073
4.73867	8064
4.73933	8055
4.74000	8047
4.74067	8038
4.74133	8030
4.74200	8021
4.74267	8013
4.74333	8005
4.74400	7997
4.74467	7989
4.74533	7981
4.74600	7973
4.74667	7966
4.74733	7958
4.74800	7951
4.74867	7943
4.74933	7936
4.75000	7929
4.75067	7921
4.75133	7914
4.75200	7907
4.75267	7900
4.75333	7892
4.75400	7885
4.75467	7878
4.75533	7871
4.75600	7864
4.75667	7856
4.75733	7849
4.75800	7842
4.75867	7835
4.75933	7828
4.76000	7821
4.76067	7814
4.76133	7807
4.76200	7800
4.76267	7793
4.76333	7786
4.76400	7780
4.76467	7773
4.76533	7766
4.76600	7760
4.76667	7753
4.76733	7747
4.76800	7741
4.76867	7734
4.76933	7728
4.77000	7722
4.77067	7716
4.77133	7710
4.77200	7704
4.77267	7698
4.77333	7692
4.77400	7686
4.77467	7680
4.77533	7675
4.77600	7669
4.77667	7663
4.77733	7658
4.77800	7652
4.77867	7647
4.77933	7642
4.78000	7636
4.78067	7631
4.78133	7626
4.78200	7620
4.78267	7615
4.78333	7610
4.78400	7605
4.78467	7600
4.78533	7595
4.78600	7590
4.78667	7585
4.78733	7579
4.78800	7574
4.78867	7569
4.78933	7564
4.79000	7560
4.79067	7555
4.79133	7550
4.79200	7545
4.79267	7540
4.79333	7535
4.79400	7530
4.79467	7526
4.79533	7521
4.79600	7516
4.79667	7511
4.79733	7506
4.79800	7501
4.79867	7496
4.79933	7491
4.80000	7486
4.80067	7482
4.80133	7477
4.80200	7472
4.80267	7467
4.80333	7463
4.80400	7458
4.80467	7453
4.80533	7449
4.80600	7444
4.80667	7440
4.80733	7435
4.80800	7431
4.80867	7426
4.80933	7422
4.81000	7417
4.81067	7413
4.81133	7409
4.81200	7404
4.81267	7400
4.81333	7396
4.81400	7391
4.81467	7387
4.81533	7383
4.81600	7378
4.81667	7374
4.81733	7370
4.81800	7366
4.81867	7361
4.81933	7357
4.82000	7353
4.82067	7349
4.82133	7344
4.82200	7340
4.82267	7336
4.82333	7332
4.82400	7328
4.82467	7324
4.82533	7320
4.82600	7316
4.82667	7312
4.82733	7308
4.82800	7304
4.82867	7300
4.82933	7296
4.83000	7292
4.83067	7289
4.83133	7285
4.83200	7281
4.83267	7277
4.83333	7273
4.83400	7269
4.83467	7266
4.83533	7262
4.83600	7258
4.83667	7254
4.83733	7250
4.83800	7246
4.83867	7242
4.83933	7238
4.84000	7234
4.84067	7230
4.84133	7225
4.84200	7221
4.84267	7217
4.84333	7213
4.84400	7208
4.84467	7204
4.84533	7200
4.84600	7195
4.84667	7191
4.84733	7186
4.84800	7182
4.84867	7178
4.84933	7173
4.85000	7169
4.85067	7165
4.85133	7160
4.85200	7156
4.85267	7152
4.85333	7147
4.85400	7143
4.85467	7139
4.85533	7134
4.85600	7130
4.85667	7126
4.85733	7122
4.85800	7117
4.85867	7113
4.85933	7109
4.86000	7105
4.86067	7101
4.86133	7097
4.86200	7093
4.86267	7089
4.86333	7085
4.86400	7081
4.86467	7077
4.86533	7073
4.86600	7069
4.86667	7065
4.86733	7061
4.86800	7057
4.86867	7053
4.86933	7049
4.87000	7045
4.87067	7041
4.87133	7037
4.87200	7033
4.87267	7029
4.87333	7025
4.87400	7022
4.87467	7018
4.87533	7014
4.87600	7010
4.87667	7006
4.87733	7002
4.87800	6998
4.87867	6994
4.87933	6990
4.88000	6986
4.88067	6982
4.88133	6978
4.88200	6974
4.88267	6970
4.88333	6966
4.88400	6962
4.88467	6958
4.88533	6954
4.88600	6951
4.88667	6947
4.88733	6943
4.88800	6939
4.88867	6936
4.88933	6932
4.89000	6929
4.89067	6925
4.89133	6921
4.89200	6918
4.89267	6914
4.89333	6911
4.89400	6907
4.89467	6904
4.89533	6900
4.89600	6897
4.89667	6893
4.89733	6890
4.89800	6887
4.89867	6883
4.89933	6880
4.90000	6877
4.90067	6873
4.90133	6870
4.90200	6867
4.90267	6863
4.90333	6860
4.90400	6857
4.90467	6854
4.90533	6850
4.90600	6847
4.90667	6844
4.90733	6841
4.90800	6837
4.90867	6834
4.90933	6831
4.91000	6827
4.91067	6824
4.91133	6821
4.91200	6818
4.91267	6815
4.91333	6811
4.91400	6808
4.91467	6805
4.91533	6802
4.91600	6799
4.91667	6796
4.91733	6792
4.91800	6789
4.91867	6786
4.91933	6783
4.92000	6780
4.92067	6777
4.92133	6774
4.92200	6771
4.92267	6768
4.92333	6765
4.92400	6762
4.92467	6759
4.92533	6756
4.92600	6754
4.92667	6751
4.92733	6748
4.92800	6745
4.92867	6742
4.92933	6739
4.93000	6736
4.93067	6733
4.93133	6730
4.93200	6727
4.93267	6724
4.93333	6721
4.93400	6718
4.93467	6715
4.93533	6712
4.93600	6709
4.93667	6706
4.93733	6704
4.93800	6701
4.93867	6698
4.93933	6695
4.94000	6693
4.94067	6690
4.94133	6687
4.94200	6685
4.94267	6682
4.94333	6680
4.94400	6677
4.94467	6675
4.94533	6672
4.94600	6670
4.94667	6668
4.94733	6665
4.94800	6663
4.94867	6661
4.94933	6658
4.95000	6656
4.95067	6654
4.95133	6651
4.95200	6649
4.95267	6647
4.95333	6644
4.95400	6642
4.95467	6640
4.95533	6638
4.95600	6635
4.95667	6633
4.95733	6631
4.95800	6629
4.95867	6627
4.95933	6625
4.96000	6623
4.96067	6621
4.96133	6618
4.96200	6616
4.96267	6614
4.96333	6612
4.96400	6610
4.96467	6608
4.96533	6605
4.96600	6603
4.96667	6601
4.96733	6599
4.96800	6597
4.96867	6595
4.96933	6593
4.97000	6591
4.97067	6589
4.97133	6586
4.97200	6584
4.97267	6582
4.97333	6580
4.97400	6578
4.97467	6575
4.97533	6573
4.97600	6571
4.97667	6569
4.97733	6566
4.97800	6564
4.97867	6562
4.97933	6560
4.98000	6557
4.98067	6555
4.98133	6553
4.98200	6551
4.98267	6548
4.98333	6546
4.98400	6544
4.98467	6541
4.98533	6539
4.98600	6537
4.98667	6534
4.98733	6532
4.98800	6530
4.98867	6527
4.98933	6525
4.99000	6523
4.99067	6520
4.99133	6518
4.99200	6516
4.99267	6514
4.99333	6511
4.99400	6509
4.99467	6507
4.99533	6504
4.99600	6502
4.99667	6500
4.99733	6497
4.99800	6495
4.99867	6492
4.99933	6490
5.00000	6488
5.00067	6485
5.00133	6483
5.00200	6480
5.00267	6478
5.00333	6475
5.00400	6472
5.00467	6470
5.00533	6467
5.00600	6465
5.00667	6462
5.00733	6459
5.00800	6457
5.00867	6454
5.00933	6452
5.01000	6449
5.01067	6446
5.01133	6444
5.01200	6441
5.01267	6439
5.01333	6436
5.01400	6433
5.01467	6431
5.01533	6428
5.01600	6426
5.01667	6423
5.01733	6420
5.01800	6418
5.01867	6415
5.01933	6412
5.02000	6410
5.02067	6407
5.02133	6405
5.02200	6402
5.02267	6399
5.02333	6397
5.02400	6394
5.02467	6392
5.02533	6389
5.02600	6387
5.02667	6384
5.02733	6382
5.02800	6379
5.02867	6377
5.02933	6374
5.03000	6372
5.03067	6369
5.03133	6367
5.03200	6364
5.03267	6362
5.03333	6359
5.03400	6357
5.03467	6354
5.03533	6352
5.03600	6349
5.03667	6347
5.03733	6344
5.03800	6342
5.03867	6340
5.03933	6337
5.04000	6335
5.04067	6333
5.04133	6330
5.04200	6328
5.04267	6326
5.04333	6323
5.04400	6321
5.04467	6319
5.04533	6316
5.04600	6314
5.04667	6312
5.04733	6309
5.04800	6307
5.04867	6305
5.04933	6302
5.05000	6300
5.05067	6298
5.05133	6295
5.05200	6293
5.05267	6291
5.05333	6289
5.05400	6286
5.05467	6284
5.05533	6282
5.05600	6279
5.05667	6277
5.05733	6275
5.05800	6272
5.05867	6270
5.05933	6268
5.06000	6265
5.06067	6263
5.06133	6261
5.06200	6259
5.06267	6256
5.06333	6254
5.06400	6252
5.06467	6250
5.06533	6247
5.06600	6245
5.06667	6243
5.06733	6241
5.06800	6239
5.06867	6236
5.06933	6234
5.07000	6232
5.07067	6230
5.07133	6228
5.07200	6226
5.07267	6223
5.07333	6221
5.07400	6219
5.07467	6217
5.07533	6215
5.07600	6213
5.07667	6211
5.07733	6209
5.07800	6207
5.07867	6205
5.07933	6203
5.08000	6201
5.08067	6199
5.08133	6197
5.08200	6195
5.08267	6193
5.08333	6191
5.08400	6189
5.08467	6187
5.08533	6186
5.08600	6184
5.08667	6182
5.08733	6180
5.08800	6179
5.08867	6177
5.08933	6175
5.09000	6174
5.09067	6172
5.09133	6170
5.09200	6169
5.09267	6167
5.09333	6166
5.09400	6164
5.09467	6162
5.09533	6161
5.09600	6159
5.09667	6158
5.09733	6156
5.09800	6155
5.09867	6153
5.09933	6152
5.10000	6150
5.10067	6149
5.10133	6148
5.10200	6146
5.10267	6145
5.10333	6144
5.10400	6142
5.10467	6141
5.10533	6140
5.10600	6139
5.10667	6137
5.10733	6136
5.10800	6135
5.10867	6133
5.10933	6132
5.11000	6131
5.11067	6130
5.11133	6129
5.11200	6127
5.11267	6126
5.11333	6125
5.11400	6124
5.11467	6122
5.11533	6121
5.11600	6120
5.11667	6119
5.11733	6118
5.11800	6117
5.11867	6115
5.11933	6114
5.12000	6113
5.12067	6112
5.12133	6111
5.12200	6110
5.12267	6108
5.12333	6107
5.12400	6106
5.12467	6105
5.12533	6104
5.12600	6103
5.12667	6102
5.12733	6101
5.12800	6100
5.12867	6099
5.12933	6098
5.13000	6097
5.13067	6096
5.13133	6095
5.13200	6095
5.13267	6094
5.13333	6093
5.13400	6093
5.13467	6092
5.13533	6092
5.13600	6091
5.13667	6091
5.13733	6090
5.13800	6090
5.13867	6090
5.13933	6089
5.14000	6089
5.14067	6089
5.14133	6089
5.14200	6089
5.14267	6089
5.14333	6089
5.14400	6089
5.14467	6089
5.14533	6090
5.14600	6090
5.14667	6090
5.14733	6091
5.14800	6091
5.14867	6092
5.14933	6092
5.15000	6093
5.15067	6094
5.15133	6094
5.15200	6095
5.15267	6096
5.15333	6097
5.15400	6098
5.15467	6099
5.15533	6100
5.15600	6101
5.15667	6102
5.15733	6103
5.15800	6105
5.15867	6106
5.15933	6108
5.16000	6109
5.16067	6111
5.16133	6113
5.16200	6115
5.16267	6117
5.16333	6118
5.16400	6120
5.16467	6123
5.16533	6125
5.16600	6127
5.16667	6129
5.16733	6132
5.16800	6134
5.16867	6137
5.16933	6139
5.17000	6142
5.17067	6145
5.17133	6147
5.17200	6150
5.17267	6153
5.17333	6156
5.17400	6159
5.17467	6162
5.17533	6165
5.17600	6167
5.17667	6170
5.17733	6173
5.17800	6177
5.17867	6180
5.17933	6183
5.18000	6186
5.18067	6189
5.18133	6193
5.18200	6196
5.18267	6199
5.18333	6203
5.18400	6206
5.18467	6210
5.18533	6213
5.18600	6217
5.18667	6220
5.18733	6224
5.18800	6227
5.18867	6231
5.18933	6235
5.19000	6239
5.19067	6242
5.19133	6246
5.19200	6250
5.19267	6253
5.19333	6257
5.19400	6261
5.19467	6265
5.19533	6268
5.19600	6272
5.19667	6276
5.19733	6280
5.19800	6283
5.19867	6287
5.19933	6291
5.20000	6294
5.20067	6298
5.20133	6302
5.20200	6306
5.20267	6309
5.20333	6313
5.20400	6317
5.20467	6320
5.20533	6324
5.20600	6328
5.20667	6331
5.20733	6335
5.20800	6338
5.20867	6341
5.20933	6345
5.21000	6348
5.21067	6351
5.21133	6355
5.21200	6358
5.21267	6361
5.21333	6364
5.21400	6367
5.21467	6370
5.21533	6373
5.21600	6376
5.21667	6378
5.21733	6381
5.21800	6384
5.21867	6386
5.21933	6389
5.22000	6391
5.22067	6394
5.22133	6396
5.22200	6398
5.22267	6401
5.22333	6403
5.22400	6405
5.22467	6407
5.22533	6409
5.22600	6411
5.22667	6413
5.22733	6414
5.22800	6416
5.22867	6418
5.22933	6419
5.23000	6421
5.23067	6422
5.23133	6424
5.23200	6425
5.23267	6426
5.23333	6427
5.23400	6428
5.23467	6429
5.23533	6430
5.23600	6431
5.23667	6431
5.23733	6432
5.23800	6432
5.23867	6433
5.23933	6433
5.24000	6433
5.24067	6433
5.24133	6433
5.24200	6433
5.24267	6432
5.24333	6432
5.24400	6431
5.24467	6431
5.24533	6430
5.24600	6429
5.24667	6429
5.24733	6428
5.24800	6427
5.24867	6426
5.24933	6425
5.25000	6423
5.25067	6422
5.25133	6421
5.25200	6419
5.25267	6418
5.25333	6416
5.25400	6415
5.25467	6413
5.25533	6411
5.25600	6409
5.25667	6407
5.25733	6405
5.25800	6403
5.25867	6401
5.25933	6399
5.26000	6397
5.26067	6394
5.26133	6392
5.26200	6390
5.26267	6388
5.26333	6386
5.26400	6383
5.26467	6381
5.26533	6379
5.26600	6376
5.26667	6374
5.26733	6371
5.26800	6369
5.26867	6366
5.26933	6364
5.27000	6361
5.27067	6359
5.27133	6356
5.27200	6353
5.27267	6350
5.27333	6348
5.27400	6345
5.27467	6342
5.27533	6339
5.27600	6336
5.27667	6333
5.27733	6330
5.27800	6327
5.27867	6323
5.27933	6320
5.28000	6317
5.28067	6314
5.28133	6311
5.28200	6307
5.28267	6304
5.28333	6301
5.28400	6297
5.28467	6294
5.28533	6291
5.28600	6287
5.28667	6284
5.28733	6281
5.28800	6277
5.28867	6274
5.28933	6271
5.29000	6268
5.29067	6264
5.29133	6261
5.29200	6258
5.29267	6255
5.29333	6252
5.29400	6249
5.29467	6246
5.29533	6243
5.29600	6240
5.29667	6237
5.29733	6234
5.29800	6231
5.29867	6228
5.29933	6225
5.30000	6222
5.30067	6219
5.30133	6215
5.30200	6212
5.30267	6209
5.30333	6206
5.30400	6203
5.30467	6200
5.30533	6197
5.30600	6194
5.30667	6192
5.30733	6189
5.30800	6186
5.30867	6183
5.30933	6180
5.31000	6177
5.31067	6174
5.31133	6171
5.31200	6168
5.31267	6165
5.31333	6162
5.31400	6159
5.31467	6156
5.31533	6153
5.31600	6150
5.31667	6147
5.31733	6144
5.31800	6141
5.31867	6138
5.31933	6135
5.32000	6132
5.32067	6130
5.32133	6127
5.32200	6124
5.32267	6121
5.32333	6118
5.32400	6116
5.32467	6113
5.32533	6110
5.32600	6108
5.32667	6105
5.32733	6102
5.32800	6100
5.32867	6097
5.32933	6094
5.33000	6092
5.33067	6089
5.33133	6086
5.33200	6084
5.33267	6081
5.33333	6079
5.33400	6076
5.33467	6074
5.33533	6071
5.33600	6069
5.33667	6066
5.33733	6064
5.33800	6062
5.33867	6059
5.33933	6057
5.34000	6055
5.34067	6052
5.34133	6050
5.34200	6048
5.34267	6046
5.34333	6044
5.34400	6041
5.34467	6039
5.34533	6037
5.34600	6035
5.34667	6033
5.34733	6031
5.34800	6029
5.34867	6027
5.34933	6025
5.35000	6022
5.35067	6020
5.35133	6018
5.35200	6016
5.35267	6014
5.35333	6012
5.35400	6010
5.35467	6008
5.35533	6005
5.35600	6003
5.35667	6001
5.35733	5999
5.35800	5997
5.35867	5995
5.35933	5993
5.36000	5990
5.36067	5988
5.36133	5986
5.36200	5984
5.36267	5982
5.36333	5980
5.36400	5978
5.36467	5976
5.36533	5974
5.36600	5973
5.36667	5971
5.36733	5969
5.36800	5967
5.36867	5965
5.36933	5964
5.37000	5962
5.37067	5960
5.37133	5959
5.37200	5957
5.37267	5955
5.37333	5954
5.37400	5952
5.37467	5950
5.37533	5949
5.37600	5947
5.37667	5946
5.37733	5945
5.37800	5943
5.37867	5942
5.37933	5940
5.38000	5939
5.38067	5938
5.38133	5936
5.38200	5935
5.38267	5933
5.38333	5932
5.38400	5930
5.38467	5929
5.38533	5927
5.38600	5926
5.38667	5924
5.38733	5922
5.38800	5921
5.38867	5919
5.38933	5917
5.39000	5916
5.39067	5914
5.39133	5912
5.39200	5911
5.39267	5909
5.39333	5907
5.39400	5905
5.39467	5903
5.39533	5902
5.39600	5900
5.39667	5898
5.39733	5897
5.39800	5895
5.39867	5893
5.39933	5892
5.40000	5890
5.40067	5889
5.40133	5887
5.40200	5885
5.40267	5884
5.40333	5882
5.40400	5881
5.40467	5879
5.40533	5878
5.40600	5876
5.40667	5875
5.40733	5873
5.40800	5872
5.40867	5870
5.40933	5869
5.41000	5867
5.41067	5866
5.41133	5864
5.41200	5862
5.41267	5861
5.41333	5859
5.41400	5858
5.41467	5856
5.41533	5855
5.41600	5853
5.41667	5852
5.41733	5850
5.41800	5849
5.41867	5847
5.41933	5846
5.42000	5844
5.42067	5843
5.42133	5841
5.42200	5840
5.42267	5838
5.42333	5837
5.42400	5835
5.42467	5834
5.42533	5832
5.42600	5831
5.42667	5829
5.42733	5827
5.42800	5826
5.42867	5824
5.42933	5822
5.43000	5821
5.43067	5819
5.43133	5817
5.43200	5815
5.43267	5813
5.43333	5812
5.43400	5810
5.43467	5808
5.43533	5806
5.43600	5804
5.43667	5803
5.43733	5801
5.43800	5799
5.43867	5797
5.43933	5795
5.44000	5794
5.44067	5792
5.44133	5790
5.44200	5788
5.44267	5787
5.44333	5785
5.44400	5783
5.44467	5782
5.44533	5780
5.44600	5778
5.44667	5777
5.44733	5775
5.44800	5773
5.44867	5771
5.44933	5770
5.45000	5768
5.45067	5766
5.45133	5765
5.45200	5763
5.45267	5761
5.45333	5760
5.45400	5758
5.45467	5757
5.45533	5755
5.45600	5753
5.45667	5752
5.45733	5750
5.45800	5748
5.45867	5746
5.45933	5745
5.46000	5743
5.46067	5741
5.46133	5739
5.46200	5738
5.46267	5736
5.46333	5734
5.46400	5732
5.46467	5731
5.46533	5729
5.46600	5727
5.46667	5725
5.46733	5723
5.46800	5722
5.46867	5720
5.46933	5718
5.47000	5717
5.47067	5715
5.47133	5713
5.47200	5712
5.47267	5710
5.47333	5708
5.47400	5707
5.47467	5705
5.47533	5703
5.47600	5702
5.47667	5700
5.47733	5699
5.47800	5697
5.47867	5695
5.47933	5693
5.48000	5692
5.48067	5690
5.48133	5688
5.48200	5687
5.48267	5685
5.48333	5683
5.48400	5682
5.48467	5680
5.48533	5678
5.48600	5677
5.48667	5675
5.48733	5673
5.48800	5672
5.48867	5670
5.48933	5668
5.49000	5667
5.49067	5665
5.49133	5664
5.49200	5662
5.49267	5661
5.49333	5659
5.49400	5658
5.49467	5656
5.49533	5655
5.49600	5654
5.49667	5652
5.49733	5651
5.49800	5650
5.49867	5649
5.49933	5648
5.50000	5646
5.50067	5645
5.50133	5644
5.50200	5643
5.50267	5642
5.50333	5641
5.50400	5640
5.50467	5639
5.50533	5638
5.50600	5636
5.50667	5635
5.50733	5634
5.50800	5633
5.50867	5632
5.50933	5631
5.51000	5630
5.51067	5629
5.51133	5628
5.51200	5627
5.51267	5626
5.51333	5625
5.51400	5624
5.51467	5622
5.51533	5621
5.51600	5620
5.51667	5619
5.51733	5618
5.51800	5617
5.51867	5616
5.51933	5615
5.52000	5614
5.52067	5613
5.52133	5613
5.52200	5612
5.52267	5611
5.52333	5610
5.52400	5609
5.52467	5608
5.52533	5607
5.52600	5606
5.52667	5605
5.52733	5604
5.52800	5603
5.52867	5603
5.52933	5602
5.53000	5601
5.53067	5600
5.53133	5600
5.53200	5599
5.53267	5598
5.53333	5597
5.53400	5597
5.53467	5596
5.53533	5595
5.53600	5595
5.53667	5594
5.53733	5594
5.53800	5593
5.53867	5592
5.53933	5592
5.54000	5591
5.54067	5590
5.54133	5590
5.54200	5589
5.54267	5589
5.54333	5588
5.54400	5588
5.54467	5587
5.54533	5587
5.54600	5586
5.54667	5585
5.54733	5585
5.54800	5584
5.54867	5584
5.54933	5583
5.55000	5583
5.55067	5582
5.55133	5582
5.55200	5581
5.55267	5581
5.55333	5580
5.55400	5580
5.55467	5580
5.55533	5579
5.55600	5579
5.55667	5578
5.55733	5578
5.55800	5577
5.55867	5577
5.55933	5576
5.56000	5576
5.56067	5575
5.56133	5575
5.56200	5575
5.56267	5574
5.56333	5574
5.56400	5573
5.56467	5573
5.56533	5573
5.56600	5572
5.56667	5572
5.56733	5572
5.56800	5571
5.56867	5571
5.56933	5571
5.57000	5571
5.57067	5570
5.57133	5570
5.57200	5570
5.57267	5569
5.57333	5569
5.57400	5569
5.57467	5569
5.57533	5568
5.57600	5568
5.57667	5567
5.57733	5567
5.57800	5567
5.57867	5566
5.57933	5566
5.58000	5566
5.58067	5566
5.58133	5565
5.58200	5565
5.58267	5565
5.58333	5564
5.58400	5564
5.58467	5564
5.58533	5564
5.58600	5563
5.58667	5563
5.58733	5563
5.58800	5562
5.58867	5562
5.58933	5562
5.59000	5561
5.59067	5561
5.59133	5561
5.59200	5560
5.59267	5560
5.59333	5559
5.59400	5559
5.59467	5559
5.59533	5558
5.59600	5558
5.59667	5557
5.59733	5557
5.59800	5556
5.59867	5556
5.59933	5555
5.60000	5555
5.60067	5554
5.60133	5554
5.60200	5553
5.60267	5553
5.60333	5552
5.60400	5552
5.60467	5551
5.60533	5550
5.60600	5550
5.60667	5549
5.60733	5548
5.60800	5548
5.60867	5547
5.60933	5547
5.61000	5546
5.61067	5545
5.61133	5545
5.61200	5544
5.61267	5544
5.61333	5543
5.61400	5543
5.61467	5542
5.61533	5542
5.61600	5541
5.61667	5541
5.61733	5540
5.61800	5540
5.61867	5539
5.61933	5539
5.62000	5538
5.62067	5538
5.62133	5537
5.62200	5537
5.62267	5536
5.62333	5536
5.62400	5535
5.62467	5534
5.62533	5534
5.62600	5533
5.62667	5532
5.62733	5532
5.62800	5531
5.62867	5530
5.62933	5529
5.63000	5528
5.63067	5528
5.63133	5527
5.63200	5526
5.63267	5525
5.63333	5524
5.63400	5523
5.63467	5523
5.63533	5522
5.63600	5521
5.63667	5520
5.63733	5519
5.63800	5518
5.63867	5517
5.63933	5516
5.64000	5515
5.64067	5514
5.64133	5513
5.64200	5512
5.64267	5511
5.64333	5510
5.64400	5510
5.64467	5509
5.64533	5508
5.64600	5507
5.64667	5506
5.64733	5505
5.64800	5504
5.64867	5503
5.64933	5502
5.65000	5501
5.65067	5500
5.65133	5499
5.65200	5498
5.65267	5497
5.65333	5496
5.65400	5495
5.65467	5494
5.65533	5493
5.65600	5492
5.65667	5491
5.65733	5490
5.65800	5489
5.65867	5488
5.65933	5487
5.66000	5486
5.66067	5484
5.66133	5483
5.66200	5482
5.66267	5481
5.66333	5480
5.66400	5479
5.66467	5478
5.66533	5477
5.66600	5476
5.66667	5475
5.66733	5474
5.66800	5473
5.66867	5472
5.66933	5471
5.67000	5470
5.67067	5469
5.67133	5468
5.67200	5467
5.67267	5466
5.67333	5465
5.67400	5464
5.67467	5463
5.67533	5462
5.67600	5461
5.67667	5460
5.67733	5459
5.67800	5458
5.67867	5457
5.67933	5456
5.68000	5455
5.68067	5454
5.68133	5453
5.68200	5452
5.68267	5451
5.68333	5450
5.68400	5449
5.68467	5448
5.68533	5447
5.68600	5446
5.68667	5445
5.68733	5444
5.68800	5443
5.68867	5443
5.68933	5442
5.69000	5441
5.69067	5440
5.69133	5439
5.69200	5438
5.69267	5437
5.69333	5436
5.69400	5436
5.69467	5435
5.69533	5434
5.69600	5433
5.69667	5432
5.69733	5431
5.69800	5431
5.69867	5430
5.69933	5429
5.70000	5428
5.70067	5427
5.70133	5427
5.70200	5426
5.70267	5425
5.70333	5424
5.70400	5423
5.70467	5422
5.70533	5421
5.70600	5420
5.70667	5419
5.70733	5419
5.70800	5418
5.70867	5417
5.70933	5416
5.71000	5415
5.71067	5414
5.71133	5414
5.71200	5413
5.71267	5412
5.71333	5411
5.71400	5410
5.71467	5410
5.71533	5409
5.71600	5408
5.71667	5407
5.71733	5407
5.71800	5406
5.71867	5405
5.71933	5405
5.72000	5404
5.72067	5403
5.72133	5403
5.72200	5402
5.72267	5401
5.72333	5400
5.72400	5400
5.72467	5399
5.72533	5398
5.72600	5398
5.72667	5397
5.72733	5397
5.72800	5396
5.72867	5396
5.72933	5395
5.73000	5394
5.73067	5394
5.73133	5393
5.73200	5393
5.73267	5392
5.73333	5392
5.73400	5391
5.73467	5391
5.73533	5390
5.73600	5389
5.73667	5389
5.73733	5388
5.73800	5388
5.73867	5388
5.73933	5387
5.74000	5387
5.74067	5386
5.74133	5386
5.74200	5385
5.74267	5385
5.74333	5385
5.74400	5384
5.74467	5384
5.74533	5384
5.74600	5383
5.74667	5383
5.74733	5383
5.74800	5382
5.74867	5382
5.74933	5382
5.75000	5382
5.75067	5382
5.75133	5381
5.75200	5381
5.75267	5381
5.75333	5381
5.75400	5381
5.75467	5380
5.75533	5380
5.75600	5380
5.75667	5380
5.75733	5380
5.75800	5380
5.75867	5380
5.75933	5380
5.76000	5380
5.76067	5380
5.76133	5380
5.76200	5380
5.76267	5380
5.76333	5380
5.76400	5380
5.76467	5380
5.76533	5380
5.76600	5380
5.76667	5381
5.76733	5381
5.76800	5381
5.76867	5381
5.76933	5381
5.77000	5381
5.77067	5381
5.77133	5381
5.77200	5381
5.77267	5382
5.77333	5382
5.77400	5382
5.77467	5382
5.77533	5382
5.77600	5382
5.77667	5382
5.77733	5383
5.77800	5383
5.77867	5383
5.77933	5383
5.78000	5383
5.78067	5383
5.78133	5384
5.78200	5384
5.78267	5384
5.78333	5384
5.78400	5384
5.78467	5385
5.78533	5385
5.78600	5385
5.78667	5385
5.78733	5386
5.78800	5386
5.78867	5386
5.78933	5387
5.79000	5387
5.79067	5387
5.79133	5387
5.79200	5388
5.79267	5388
5.79333	5388
5.79400	5389
5.79467	5389
5.79533	5390
5.79600	5390
5.79667	5390
5.79733	5391
5.79800	5391
5.79867	5392
5.79933	5392
5.80000	5393
5.80067	5393
5.80133	5394
5.80200	5394
5.80267	5395
5.80333	5396
5.80400	5396
5.80467	5397
5.80533	5397
5.80600	5398
5.80667	5398
5.80733	5399
5.80800	5400
5.80867	5400
5.80933	5401
5.81000	5402
5.81067	5402
5.81133	5403
5.81200	5403
5.81267	5404
5.81333	5405
5.81400	5406
5.81467	5406
5.81533	5407
5.81600	5408
5.81667	5408
5.81733	5409
5.81800	5410
5.81867	5411
5.81933	5411
5.82000	5412
5.82067	5412
5.82133	5413
5.82200	5414
5.82267	5414
5.82333	5415
5.82400	5415
5.82467	5416
5.82533	5416
5.82600	5417
5.82667	5417
5.82733	5418
5.82800	5418
5.82867	5419
5.82933	5419
5.83000	5419
5.83067	5420
5.83133	5420
5.83200	5420
5.83267	5421
5.83333	5421
5.83400	5422
5.83467	5422
5.83533	5422
5.83600	5423
5.83667	5423
5.83733	5423
5.83800	5424
5.83867	5424
5.83933	5424
5.84000	5424
5.84067	5424
5.84133	5424
5.84200	5424
5.84267	5424
5.84333	5424
5.84400	5424
5.84467	5424
5.84533	5424
5.84600	5424
5.84667	5424
5.84733	5424
5.84800	5424
5.84867	5424
5.84933	5424
5.85000	5424
5.85067	5424
5.85133	5424
5.85200	5424
5.85267	5424
5.85333	5424
5.85400	5424
5.85467	5424
5.85533	5424
5.85600	5424
5.85667	5424
5.85733	5423
5.85800	5423
5.85867	5423
5.85933	5423
5.86000	5423
5.86067	5422
5.86133	5422
5.86200	5422
5.86267	5421
5.86333	5421
5.86400	5421
5.86467	5421
5.86533	5420
5.86600	5420
5.86667	5419
5.86733	5419
5.86800	5419
5.86867	5418
5.86933	5418
5.87000	5417
5.87067	5417
5.87133	5416
5.87200	5416
5.87267	5415
5.87333	5414
5.87400	5414
5.87467	5413
5.87533	5413
5.87600	5412
5.87667	5412
5.87733	5411
5.87800	5410
5.87867	5410
5.87933	5409
5.88000	5409
5.88067	5408
5.88133	5408
5.88200	5407
5.88267	5407
5.88333	5406
5.88400	5406
5.88467	5405
5.88533	5405
5.88600	5404
5.88667	5404
5.88733	5403
5.88800	5403
5.88867	5402
5.88933	5402
5.89000	5401
5.89067	5401
5.89133	5400
5.89200	5400
5.89267	5399
5.89333	5399
5.89400	5398
5.89467	5398
5.89533	5397
5.89600	5397
5.89667	5396
5.89733	5396
5.89800	5395
5.89867	5395
5.89933	5394
5.90000	5394
5.90067	5393
5.90133	5393
5.90200	5392
5.90267	5392
5.90333	5391
5.90400	5391
5.90467	5391
5.90533	5390
5.90600	5390
5.90667	5390
5.90733	5390
5.90800	5389
5.90867	5389
5.90933	5389
5.91000	5388
5.91067	5388
5.91133	5388
5.91200	5388
5.91267	5388
5.91333	5387
5.91400	5387
5.91467	5387
5.91533	5387
5.91600	5387
5.91667	5387
5.91733	5386
5.91800	5386
5.91867	5386
5.91933	5386
5.92000	5386
5.92067	5386
5.92133	5386
5.92200	5385
5.92267	5385
5.92333	5385
5.92400	5385
5.92467	5385
5.92533	5384
5.92600	5384
5.92667	5384
5.92733	5384
5.92800	5383
5.92867	5383
5.92933	5383
5.93000	5382
5.93067	5382
5.93133	5382
5.93200	5382
5.93267	5382
5.93333	5381
5.93400	5381
5.93467	5381
5.93533	5381
5.93600	5381
5.93667	5380
5.93733	5380
5.93800	5380
5.93867	5380
5.93933	5380
5.94000	5380
5.94067	5380
5.94133	5380
5.94200	5380
5.94267	5379
5.94333	5379
5.94400	5379
5.94467	5379
5.94533	5379
5.94600	5379
5.94667	5379
5.94733	5379
5.94800	5379
5.94867	5379
5.94933	5379
5.95000	5379
5.95067	5379
5.95133	5379
5.95200	5379
5.95267	5379
5.95333	5379
5.95400	5379
5.95467	5379
5.95533	5380
5.95600	5380
5.95667	5380
5.95733	5380
5.95800	5380
5.95867	5380
5.95933	5380
5.96000	5381
5.96067	5381
5.96133	5381
5.96200	5381
5.96267	5382
5.96333	5382
5.96400	5382
5.96467	5382
5.96533	5383
5.96600	5383
5.96667	5383
5.96733	5384
5.96800	5384
5.96867	5384
5.96933	5384
5.97000	5385
5.97067	5385
5.97133	5385
5.97200	5385
5.97267	5386
5.97333	5386
5.97400	5386
5.97467	5386
5.97533	5386
5.97600	5387
5.97667	5387
5.97733	5387
5.97800	5388
5.97867	5388
5.97933	5388
5.98000	5389
5.98067	5389
5.98133	5389
5.98200	5390
5.98267	5390
5.98333	5390
5.98400	5390
5.98467	5391
5.98533	5391
5.98600	5391
5.98667	5391
5.98733	5392
5.98800	5392
5.98867	5392
5.98933	5392
5.99000	5393
5.99067	5393
5.99133	5393
5.99200	5393
5.99267	5393
5.99333	5393
5.99400	5393
5.99467	5393
5.99533	5393
5.99600	5393
5.99667	5393
5.99733	5393
5.99800	5393
5.99867	5393
5.99933	5393
6.00000	5393
6.00067	5393
6.00133	5393
6.00200	5393
6.00267	5393
6.00333	5393
6.00400	5393
6.00467	5393
6.00533	5393
6.00600	5393
6.00667	5393
6.00733	5393
6.00800	5393
6.00867	5393
6.00933	5393
6.01000	5393
6.01067	5393
6.01133	5392
6.01200	5392
6.01267	5392
6.01333	5392
6.01400	5392
6.01467	5392
6.01533	5392
6.01600	5392
6.01667	5392
6.01733	5392
6.01800	5392
6.01867	5391
6.01933	5391
6.02000	5391
6.02067	5391
6.02133	5391
6.02200	5391
6.02267	5391
6.02333	5391
6.02400	5391
6.02467	5391
6.02533	5391
6.02600	5390
6.02667	5390
6.02733	5390
6.02800	5390
6.02867	5390
6.02933	5390
6.03000	5390
6.03067	5389
6.03133	5389
6.03200	5389
6.03267	5389
6.03333	5389
6.03400	5389
6.03467	5389
6.03533	5389
6.03600	5389
6.03667	5388
6.03733	5388
6.03800	5388
6.03867	5388
6.03933	5388
6.04000	5388
6.04067	5388
6.04133	5388
6.04200	5388
6.04267	5388
6.04333	5388
6.04400	5388
6.04467	5388
6.04533	5388
6.04600	5388
6.04667	5388
6.04733	5388
6.04800	5388
6.04867	5387
6.04933	5387
6.05000	5387
6.05067	5387
6.05133	5387
6.05200	5387
6.05267	5387
6.05333	5387
6.05400	5387
6.05467	5387
6.05533	5387
6.05600	5387
6.05667	5387
6.05733	5387
6.05800	5387
6.05867	5387
6.05933	5387
6.06000	5387
6.06067	5387
6.06133	5387
6.06200	5387
6.06267	5387
6.06333	5387
6.06400	5387
6.06467	5387
6.06533	5387
6.06600	5387
6.06667	5387
6.06733	5387
6.06800	5387
6.06867	5388
6.06933	5388
6.07000	5387
6.07067	5387
6.07133	5387
6.07200	5387
6.07267	5387
6.07333	5387
6.07400	5387
6.07467	5387
6.07533	5387
6.07600	5387
6.07667	5387
6.07733	5386
6.07800	5386
6.07867	5386
6.07933	5386
6.08000	5386
6.08067	5386
6.08133	5385
6.08200	5385
6.08267	5385
6.08333	5385
6.08400	5384
6.08467	5384
6.08533	5384
6.08600	5384
6.08667	5383
6.08733	5383
6.08800	5383
6.08867	5382
6.08933	5382
6.09000	5382
6.09067	5381
6.09133	5381
6.09200	5381
6.09267	5381
6.09333	5380
6.09400	5380
6.09467	5380
6.09533	5380
6.09600	5379
6.09667	5379
6.09733	5379
6.09800	5379
6.09867	5379
6.09933	5378
6.10000	5378
6.10067	5378
6.10133	5378
6.10200	5377
6.10267	5377
6.10333	5377
6.10400	5377
6.10467	5377
6.10533	5376
6.10600	5376
6.10667	5376
6.10733	5376
6.10800	5376
6.10867	5376
6.10933	5375
6.11000	5375
6.11067	5375
6.11133	5375
6.11200	5375
6.11267	5375
6.11333	5374
6.11400	5374
6.11467	5374
6.11533	5374
6.11600	5374
6.11667	5374
6.11733	5374
6.11800	5373
6.11867	5373
6.11933	5373
6.12000	5373
6.12067	5373
6.12133	5373
6.12200	5373
6.12267	5372
6.12333	5372
6.12400	5372
6.12467	5372
6.12533	5372
6.12600	5372
6.12667	5372
6.12733	5372
6.12800	5372
6.12867	5372
6.12933	5372
6.13000	5372
6.13067	5372
6.13133	5372
6.13200	5372
6.13267	5372
6.13333	5371
6.13400	5371
6.13467	5371
6.13533	5371
6.13600	5371
6.13667	5371
6.13733	5371
6.13800	5371
6.13867	5371
6.13933	5371
6.14000	5371
6.14067	5371
6.14133	5371
6.14200	5371
6.14267	5370
6.14333	5370
6.14400	5370
6.14467	5370
6.14533	5370
6.14600	5370
6.14667	5370
6.14733	5370
6.14800	5370
6.14867	5369
6.14933	5369
6.15000	5369
6.15067	5369
6.15133	5368
6.15200	5368
6.15267	5368
6.15333	5368
6.15400	5367
6.15467	5367
6.15533	5366
6.15600	5366
6.15667	5366
6.15733	5365
6.15800	5365
6.15867	5364
6.15933	5364
6.16000	5363
6.16067	5363
6.16133	5362
6.16200	5362
6.16267	5362
6.16333	5361
6.16400	5361
6.16467	5360
6.16533	5360
6.16600	5360
6.16667	5359
6.16733	5359
6.16800	5358
6.16867	5358
6.16933	5358
6.17000	5357
6.17067	5357
6.17133	5356
6.17200	5356
6.17267	5356
6.17333	5355
6.17400	5355
6.17467	5354
6.17533	5354
6.17600	5354
6.17667	5353
6.17733	5353
6.17800	5353
6.17867	5352
6.17933	5352
6.18000	5352
6.18067	5352
6.18133	5351
6.18200	5351
6.18267	5351
6.18333	5351
6.18400	5350
6.18467	5350
6.18533	5350
6.18600	5349
6.18667	5349
6.18733	5349
6.18800	5349
6.18867	5348
6.18933	5348
6.19000	5348
6.19067	5347
6.19133	5347
6.19200	5347
6.19267	5347
6.19333	5346
6.19400	5346
6.19467	5346
6.19533	5345
6.19600	5345
6.19667	5345
6.19733	5345
6.19800	5344
6.19867	5344
6.19933	5344
6.20000	5344
6.20067	5343
6.20133	5343
6.20200	5343
6.20267	5343
6.20333	5343
6.20400	5343
6.20467	5342
6.20533	5342
6.20600	5342
6.20667	5342
6.20733	5342
6.20800	5342
6.20867	5342
6.20933	5342
6.21000	5341
6.21067	5341
6.21133	5341
6.21200	5341
6.21267	5341
6.21333	5341
6.21400	5341
6.21467	5341
6.21533	5341
6.21600	5341
6.21667	5341
6.21733	5341
6.21800	5341
6.21867	5341
6.21933	5341
6.22000	5341
6.22067	5341
6.22133	5341
6.22200	5341
6.22267	5341
6.22333	5341
6.22400	5341
6.22467	5341
6.22533	5341
6.22600	5341
6.22667	5341
6.22733	5341
6.22800	5341
6.22867	5341
6.22933	5341
6.23000	5341
6.23067	5341
6.23133	5342
6.23200	5342
6.23267	5342
6.23333	5342
6.23400	5342
6.23467	5342
6.23533	5343
6.23600	5343
6.23667	5343
6.23733	5343
6.23800	5343
6.23867	5344
6.23933	5344
6.24000	5344
6.24067	5345
6.24133	5345
6.24200	5345
6.24267	5346
6.24333	5346
6.24400	5347
6.24467	5347
6.24533	5348
6.24600	5348
6.24667	5349
6.24733	5349
6.24800	5350
6.24867	5351
6.24933	5351
6.25000	5352
6.25067	5352
6.25133	5353
6.25200	5354
6.25267	5354
6.25333	5355
6.25400	5355
6.25467	5356
6.25533	5357
6.25600	5357
6.25667	5358
6.25733	5358
6.25800	5359
6.25867	5359
6.25933	5360
6.26000	5360
6.26067	5361
6.26133	5361
6.26200	5362
6.26267	5362
6.26333	5363
6.26400	5364
6.26467	5364
6.26533	5364
6.26600	5365
6.26667	5365
6.26733	5366
6.26800	5366
6.26867	5367
6.26933	5367
6.27000	5367
6.27067	5368
6.27133	5368
6.27200	5368
6.27267	5369
6.27333	5369
6.27400	5369
6.27467	5370
6.27533	5370
6.27600	5370
6.27667	5371
6.27733	5371
6.27800	5371
6.27867	5372
6.27933	5372
6.28000	5373
6.28067	5373
6.28133	5373
6.28200	5374
6.28267	5374
6.28333	5375
6.28400	5375
6.28467	5375
6.28533	5376
6.28600	5376
6.28667	5377
6.28733	5377
6.28800	5378
6.28867	5378
6.28933	5378
6.29000	5379
6.29067	5379
6.29133	5380
6.29200	5380
6.29267	5381
6.29333	5381
6.29400	5381
6.29467	5382
6.29533	5382
6.29600	5382
6.29667	5383
6.29733	5383
6.29800	5384
6.29867	5384
6.29933	5384
6.30000	5385
6.30067	5385
6.30133	5386
6.30200	5386
6.30267	5386
6.30333	5387
6.30400	5387
6.30467	5387
6.30533	5388
6.30600	5388
6.30667	5388
6.30733	5388
6.30800	5389
6.30867	5389
6.30933	5389
6.31000	5389
6.31067	5390
6.31133	5390
6.31200	5390
6.31267	5391
6.31333	5391
6.31400	5391
6.31467	5391
6.31533	5391
6.31600	5391
6.31667	5392
6.31733	5392
6.31800	5392
6.31867	5392
6.31933	5392
6.32000	5392
6.32067	5392
6.32133	5392
6.32200	5392
6.32267	5392
6.32333	5391
6.32400	5391
6.32467	5391
6.32533	5391
6.32600	5391
6.32667	5390
6.32733	5390
6.32800	5390
6.32867	5389
6.32933	5389
6.33000	5389
6.33067	5388
6.33133	5388
6.33200	5388
6.33267	5387
6.33333	5387
6.33400	5387
6.33467	5386
6.33533	5386
6.33600	5385
6.33667	5385
6.33733	5385
6.33800	5384
6.33867	5384
6.33933	5384
6.34000	5384
6.34067	5383
6.34133	5383
6.34200	5383
6.34267	5383
6.34333	5382
6.34400	5382
6.34467	5382
6.34533	5382
6.34600	5381
6.34667	5381
6.34733	5381
6.34800	5381
6.34867	5381
6.34933	5380
6.35000	5380
6.35067	5380
6.35133	5380
6.35200	5379
6.35267	5379
6.35333	5379
6.35400	5378
6.35467	5378
6.35533	5378
6.35600	5377
6.35667	5377
6.35733	5377
6.35800	5377
6.35867	5377
6.35933	5376
6.36000	5376
6.36067	5376
6.36133	5376
6.36200	5375
6.36267	5375
6.36333	5375
6.36400	5375
6.36467	5374
6.36533	5374
6.36600	5374
6.36667	5374
6.36733	5374
6.36800	5374
6.36867	5374
6.36933	5373
6.37000	5373
6.37067	5373
6.37133	5373
6.37200	5373
6.37267	5372
6.37333	5372
6.37400	5372
6.37467	5372
6.37533	5371
6.37600	5371
6.37667	5371
6.37733	5371
6.37800	5370
6.37867	5370
6.37933	5370
6.38000	5369
6.38067	5369
6.38133	5369
6.38200	5368
6.38267	5368
6.38333	5368
6.38400	5367
6.38467	5367
6.38533	5367
6.38600	5366
6.38667	5366
6.38733	5365
6.38800	5365
6.38867	5365
6.38933	5364
6.39000	5364
6.39067	5364
6.39133	5363
6.39200	5363
6.39267	5363
6.39333	5362
6.39400	5362
6.39467	5362
6.39533	5362
6.39600	5361
6.39667	5361
6.39733	5361
6.39800	5360
6.39867	5360
6.39933	5360

