[Header]
Application Name	LabSolutions
Version	5.73
Data File Name	C:\LabSolutions\Data\Project1\stephen\2016-01-06\6.gcd
Output Date	1/11/2016
Output Time	1:19:39 PM

[Configuration]
Instrument Name	WEISSTA-PC-Instrument1
Instrument #	1
Line #	1
# of Detectors	1
Detector ID	DET#2
Detector Name	DFID1
# of Channels	1

[Chromatogram (Ch1)]
Interval(msec)	40
# of Points	9599
Start Time(min)	0.001
End Time(min)	6.399
R.Time (min)	Intensity
0.00067	10
0.00133	10
0.00200	10
0.00267	10
0.00333	10
0.00400	10
0.00467	10
0.00533	10
0.00600	10
0.00667	10
0.00733	9
0.00800	9
0.00867	9
0.00933	8
0.01000	7
0.01067	6
0.01133	5
0.01200	3
0.01267	1
0.01333	-2
0.01400	-5
0.01467	-8
0.01533	-12
0.01600	-16
0.01667	-20
0.01733	-25
0.01800	-30
0.01867	-35
0.01933	-41
0.02000	-47
0.02067	-52
0.02133	-58
0.02200	-64
0.02267	-70
0.02333	-76
0.02400	-82
0.02467	-88
0.02533	-93
0.02600	-99
0.02667	-104
0.02733	-110
0.02800	-115
0.02867	-120
0.02933	-125
0.03000	-129
0.03067	-133
0.03133	-138
0.03200	-142
0.03267	-145
0.03333	-149
0.03400	-153
0.03467	-156
0.03533	-159
0.03600	-162
0.03667	-164
0.03733	-167
0.03800	-169
0.03867	-172
0.03933	-174
0.04000	-176
0.04067	-178
0.04133	-179
0.04200	-181
0.04267	-182
0.04333	-183
0.04400	-185
0.04467	-186
0.04533	-186
0.04600	-187
0.04667	-188
0.04733	-188
0.04800	-189
0.04867	-189
0.04933	-189
0.05000	-190
0.05067	-190
0.05133	-190
0.05200	-190
0.05267	-190
0.05333	-190
0.05400	-189
0.05467	-189
0.05533	-189
0.05600	-189
0.05667	-189
0.05733	-188
0.05800	-188
0.05867	-187
0.05933	-187
0.06000	-187
0.06067	-186
0.06133	-185
0.06200	-185
0.06267	-184
0.06333	-184
0.06400	-183
0.06467	-182
0.06533	-181
0.06600	-181
0.06667	-180
0.06733	-179
0.06800	-178
0.06867	-177
0.06933	-176
0.07000	-175
0.07067	-174
0.07133	-174
0.07200	-173
0.07267	-172
0.07333	-171
0.07400	-170
0.07467	-169
0.07533	-169
0.07600	-168
0.07667	-167
0.07733	-166
0.07800	-165
0.07867	-165
0.07933	-164
0.08000	-163
0.08067	-162
0.08133	-161
0.08200	-160
0.08267	-159
0.08333	-158
0.08400	-158
0.08467	-157
0.08533	-156
0.08600	-155
0.08667	-154
0.08733	-153
0.08800	-152
0.08867	-150
0.08933	-148
0.09000	-140
0.09067	-127
0.09133	-107
0.09200	-77
0.09267	-35
0.09333	17
0.09400	89
0.09467	182
0.09533	296
0.09600	423
0.09667	563
0.09733	740
0.09800	952
0.09867	1183
0.09933	1447
0.10000	1787
0.10067	2145
0.10133	2505
0.10200	2890
0.10267	3298
0.10333	3739
0.10400	4209
0.10467	4678
0.10533	5145
0.10600	5602
0.10667	6067
0.10733	6527
0.10800	6987
0.10867	7484
0.10933	8001
0.11000	8526
0.11067	9069
0.11133	9611
0.11200	10152
0.11267	10689
0.11333	11221
0.11400	11742
0.11467	12239
0.11533	12708
0.11600	13181
0.11667	13621
0.11733	14018
0.11800	14391
0.11867	14782
0.11933	15152
0.12000	15484
0.12067	15784
0.12133	16056
0.12200	16302
0.12267	16551
0.12333	16777
0.12400	16968
0.12467	17130
0.12533	17260
0.12600	17381
0.12667	17490
0.12733	17584
0.12800	17660
0.12867	17716
0.12933	17750
0.13000	17764
0.13067	17791
0.13133	17852
0.13200	17912
0.13267	17961
0.13333	18000
0.13400	18043
0.13467	18119
0.13533	18307
0.13600	18866
0.13667	20697
0.13733	26131
0.13800	40022
0.13867	71663
0.13933	136172
0.14000	256917
0.14067	463010
0.14133	786744
0.14200	1258483
0.14267	1906409
0.14333	2753878
0.14400	3820504
0.14467	5119454
0.14533	6659480
0.14600	8444654
0.14667	10477645
0.14733	12758069
0.14800	15283005
0.14867	18053095
0.14933	21077735
0.15000	24364169
0.15067	27908028
0.15133	31691303
0.15200	35687904
0.15267	39867946
0.15333	44202185
0.15400	48663892
0.15467	53229406
0.15533	57877186
0.15600	62587379
0.15667	67341501
0.15733	72122822
0.15800	76915659
0.15867	81705099
0.15933	86476659
0.16000	91216931
0.16067	95913321
0.16133	100553906
0.16200	105127318
0.16267	109622301
0.16333	114027838
0.16400	118333478
0.16467	122529168
0.16533	126605529
0.16600	130553620
0.16667	134364981
0.16733	138031543
0.16800	141545927
0.16867	144901667
0.16933	148092760
0.17000	151114048
0.17067	153962010
0.17133	156635216
0.17200	159132546
0.17267	161452569
0.17333	163593191
0.17400	165552767
0.17467	167330012
0.17533	168924971
0.17600	170337797
0.17667	171569649
0.17733	172622390
0.17800	173498806
0.17867	174202052
0.17933	174735798
0.18000	175103996
0.18067	175311158
0.18133	175362087
0.18200	175261850
0.18267	175015704
0.18333	174629006
0.18400	174107300
0.18467	173456229
0.18533	172681632
0.18600	171789265
0.18667	170784907
0.18733	169674276
0.18800	168463191
0.18867	167157409
0.18933	165762719
0.19000	164284772
0.19067	162729207
0.19133	161101479
0.19200	159406950
0.19267	157650787
0.19333	155838024
0.19400	153973479
0.19467	152061813
0.19533	150107457
0.19600	148114674
0.19667	146087534
0.19733	144029963
0.19800	141945770
0.19867	139838673
0.19933	137712301
0.20000	135570154
0.20067	133415655
0.20133	131252213
0.20200	129083153
0.20267	126911435
0.20333	124739517
0.20400	122569385
0.20467	120402774
0.20533	118241257
0.20600	116086382
0.20667	113939653
0.20733	111802582
0.20800	109676642
0.20867	107563290
0.20933	105463920
0.21000	103379879
0.21067	101312434
0.21133	99262787
0.21200	97232066
0.21267	95221323
0.21333	93231535
0.21400	91263608
0.21467	89318368
0.21533	87396567
0.21600	85498892
0.21667	83625960
0.21733	81778329
0.21800	79956499
0.21867	78160911
0.21933	76391948
0.22000	74649946
0.22067	72935188
0.22133	71247913
0.22200	69588312
0.22267	67956532
0.22333	66352677
0.22400	64776811
0.22467	63228966
0.22533	61709136
0.22600	60217281
0.22667	58753335
0.22733	57317202
0.22800	55908759
0.22867	54527861
0.22933	53174333
0.23000	51847985
0.23067	50548607
0.23133	49275969
0.23200	48029827
0.23267	46809923
0.23333	45615983
0.23400	44447723
0.23467	43304842
0.23533	42187033
0.23600	41093973
0.23667	40025334
0.23733	38980779
0.23800	37959967
0.23867	36962547
0.23933	35988167
0.24000	35036466
0.24067	34107085
0.24133	33199657
0.24200	32313817
0.24267	31449195
0.24333	30605421
0.24400	29782124
0.24467	28978934
0.24533	28195481
0.24600	27431396
0.24667	26686312
0.24733	25959862
0.24800	25251683
0.24867	24561412
0.24933	23888687
0.25000	23233149
0.25067	22594444
0.25133	21972238
0.25200	21366278
0.25267	20776471
0.25333	20202867
0.25400	19645542
0.25467	19104427
0.25533	18579276
0.25600	18069674
0.25667	17575108
0.25733	17095014
0.25800	16628821
0.25867	16175973
0.25933	15735947
0.26000	15308253
0.26067	14892440
0.26133	14488088
0.26200	14094812
0.26267	13712275
0.26333	13340188
0.26400	12978312
0.26467	12626416
0.26533	12284267
0.26600	11951607
0.26667	11628167
0.26733	11313666
0.26800	11007825
0.26867	10710373
0.26933	10421046
0.27000	10139594
0.27067	9865778
0.27133	9599373
0.27200	9340163
0.27267	9087943
0.27333	8842516
0.27400	8603693
0.27467	8371296
0.27533	8145150
0.27600	7925089
0.27667	7710951
0.27733	7502580
0.27800	7299826
0.27867	7102541
0.27933	6910584
0.28000	6723817
0.28067	6542107
0.28133	6365323
0.28200	6193337
0.28267	6026028
0.28333	5863275
0.28400	5704961
0.28467	5550973
0.28533	5401198
0.28600	5255530
0.28667	5113860
0.28733	4976088
0.28800	4842111
0.28867	4711832
0.28933	4585153
0.29000	4461982
0.29067	4342228
0.29133	4225800
0.29200	4112611
0.29267	4002575
0.29333	3895611
0.29400	3791636
0.29467	3690572
0.29533	3592343
0.29600	3496871
0.29667	3404086
0.29733	3313913
0.29800	3226284
0.29867	3141131
0.29933	3058387
0.30000	2977988
0.30067	2899869
0.30133	2823970
0.30200	2750231
0.30267	2678592
0.30333	2608997
0.30400	2541390
0.30467	2475716
0.30533	2411922
0.30600	2349957
0.30667	2289770
0.30733	2231312
0.30800	2174536
0.30867	2119395
0.30933	2065843
0.31000	2013836
0.31067	1963332
0.31133	1914287
0.31200	1866662
0.31267	1820417
0.31333	1775513
0.31400	1731914
0.31467	1689582
0.31533	1648481
0.31600	1608576
0.31667	1569834
0.31733	1532221
0.31800	1495706
0.31867	1460260
0.31933	1425852
0.32000	1392456
0.32067	1360044
0.32133	1328592
0.32200	1298074
0.32267	1268469
0.32333	1239756
0.32400	1211914
0.32467	1184924
0.32533	1158770
0.32600	1133436
0.32667	1108906
0.32733	1085166
0.32800	1062203
0.32867	1040004
0.32933	1018560
0.33000	997860
0.33067	977895
0.33133	958657
0.33200	940139
0.33267	922333
0.33333	905235
0.33400	888840
0.33467	873143
0.33533	858143
0.33600	843839
0.33667	830234
0.33733	817331
0.33800	805134
0.33867	793649
0.33933	782882
0.34000	772838
0.34067	763521
0.34133	754935
0.34200	747083
0.34267	739968
0.34333	733593
0.34400	727957
0.34467	723063
0.34533	718908
0.34600	715488
0.34667	712795
0.34733	710818
0.34800	709544
0.34867	708956
0.34933	709034
0.35000	709753
0.35067	711085
0.35133	712999
0.35200	715459
0.35267	718426
0.35333	721863
0.35400	725728
0.35467	729984
0.35533	734594
0.35600	739520
0.35667	744728
0.35733	750184
0.35800	755858
0.35867	761719
0.35933	767740
0.36000	773892
0.36067	780152
0.36133	786497
0.36200	792905
0.36267	799355
0.36333	805828
0.36400	812307
0.36467	818777
0.36533	825224
0.36600	831638
0.36667	838013
0.36733	844345
0.36800	850630
0.36867	856868
0.36933	863057
0.37000	869198
0.37067	875290
0.37133	881336
0.37200	887335
0.37267	893290
0.37333	899201
0.37400	905070
0.37467	910900
0.37533	916695
0.37600	922455
0.37667	928185
0.37733	933887
0.37800	939568
0.37867	945230
0.37933	950879
0.38000	956518
0.38067	962148
0.38133	967771
0.38200	973388
0.38267	979004
0.38333	984621
0.38400	990239
0.38467	995863
0.38533	1001494
0.38600	1007133
0.38667	1012785
0.38733	1018453
0.38800	1024141
0.38867	1029859
0.38933	1035615
0.39000	1041421
0.39067	1047293
0.39133	1053246
0.39200	1059298
0.39267	1065466
0.39333	1071766
0.39400	1078210
0.39467	1084806
0.39533	1091558
0.39600	1098469
0.39667	1105536
0.39733	1112756
0.39800	1120122
0.39867	1127623
0.39933	1135247
0.40000	1142980
0.40067	1150811
0.40133	1158730
0.40200	1166727
0.40267	1174791
0.40333	1182911
0.40400	1191075
0.40467	1199270
0.40533	1207486
0.40600	1215711
0.40667	1223931
0.40733	1232129
0.40800	1240288
0.40867	1248382
0.40933	1256385
0.41000	1264267
0.41067	1271996
0.41133	1279537
0.41200	1286851
0.41267	1293901
0.41333	1300645
0.41400	1307044
0.41467	1313054
0.41533	1318634
0.41600	1323735
0.41667	1328312
0.41733	1332315
0.41800	1335695
0.41867	1338402
0.41933	1340392
0.42000	1341618
0.42067	1342040
0.42133	1341617
0.42200	1340315
0.42267	1338097
0.42333	1334937
0.42400	1330812
0.42467	1325713
0.42533	1319639
0.42600	1312604
0.42667	1304628
0.42733	1295743
0.42800	1285989
0.42867	1275410
0.42933	1264055
0.43000	1251978
0.43067	1239231
0.43133	1225867
0.43200	1211940
0.43267	1197501
0.43333	1182599
0.43400	1167283
0.43467	1151600
0.43533	1135593
0.43600	1119304
0.43667	1102773
0.43733	1086039
0.43800	1069137
0.43867	1052101
0.43933	1034964
0.44000	1017754
0.44067	1000500
0.44133	983228
0.44200	965962
0.44267	948724
0.44333	931535
0.44400	914414
0.44467	897379
0.44533	880447
0.44600	863632
0.44667	846948
0.44733	830408
0.44800	814023
0.44867	797805
0.44933	781762
0.45000	765905
0.45067	750242
0.45133	734780
0.45200	719526
0.45267	704487
0.45333	689666
0.45400	675069
0.45467	660700
0.45533	646563
0.45600	632659
0.45667	618991
0.45733	605562
0.45800	592371
0.45867	579421
0.45933	566712
0.46000	554244
0.46067	542017
0.46133	530031
0.46200	518285
0.46267	506780
0.46333	495513
0.46400	484485
0.46467	473694
0.46533	463140
0.46600	452821
0.46667	442735
0.46733	432883
0.46800	423262
0.46867	413871
0.46933	404708
0.47000	395772
0.47067	387059
0.47133	378566
0.47200	370288
0.47267	362220
0.47333	354359
0.47400	346701
0.47467	339241
0.47533	331976
0.47600	324901
0.47667	318012
0.47733	311305
0.47800	304775
0.47867	298417
0.47933	292229
0.48000	286204
0.48067	280341
0.48133	274633
0.48200	269078
0.48267	263672
0.48333	258410
0.48400	253290
0.48467	248307
0.48533	243458
0.48600	238739
0.48667	234147
0.48733	229679
0.48800	225331
0.48867	221101
0.48933	216984
0.49000	212978
0.49067	209080
0.49133	205287
0.49200	201595
0.49267	198002
0.49333	194506
0.49400	191102
0.49467	187789
0.49533	184564
0.49600	181424
0.49667	178367
0.49733	175390
0.49800	172490
0.49867	169666
0.49933	166915
0.50000	164235
0.50067	161625
0.50133	159081
0.50200	156603
0.50267	154187
0.50333	151833
0.50400	149538
0.50467	147301
0.50533	145120
0.50600	142993
0.50667	140919
0.50733	138896
0.50800	136922
0.50867	134997
0.50933	133118
0.51000	131285
0.51067	129496
0.51133	127749
0.51200	126044
0.51267	124379
0.51333	122753
0.51400	121165
0.51467	119614
0.51533	118098
0.51600	116617
0.51667	115170
0.51733	113755
0.51800	112372
0.51867	111019
0.51933	109697
0.52000	108403
0.52067	107138
0.52133	105900
0.52200	104689
0.52267	103504
0.52333	102343
0.52400	101207
0.52467	100094
0.52533	99005
0.52600	97937
0.52667	96892
0.52733	95867
0.52800	94863
0.52867	93878
0.52933	92913
0.53000	91967
0.53067	91039
0.53133	90129
0.53200	89236
0.53267	88359
0.53333	87499
0.53400	86655
0.53467	85826
0.53533	85013
0.53600	84214
0.53667	83429
0.53733	82658
0.53800	81900
0.53867	81155
0.53933	80424
0.54000	79704
0.54067	78997
0.54133	78301
0.54200	77617
0.54267	76944
0.54333	76282
0.54400	75630
0.54467	74989
0.54533	74358
0.54600	73737
0.54667	73125
0.54733	72523
0.54800	71930
0.54867	71347
0.54933	70772
0.55000	70205
0.55067	69647
0.55133	69097
0.55200	68555
0.55267	68022
0.55333	67496
0.55400	66977
0.55467	66466
0.55533	65963
0.55600	65466
0.55667	64977
0.55733	64495
0.55800	64019
0.55867	63550
0.55933	63087
0.56000	62631
0.56067	62181
0.56133	61737
0.56200	61299
0.56267	60867
0.56333	60441
0.56400	60020
0.56467	59604
0.56533	59194
0.56600	58789
0.56667	58389
0.56733	57994
0.56800	57604
0.56867	57218
0.56933	56837
0.57000	56460
0.57067	56088
0.57133	55720
0.57200	55356
0.57267	54996
0.57333	54640
0.57400	54289
0.57467	53941
0.57533	53597
0.57600	53257
0.57667	52920
0.57733	52587
0.57800	52258
0.57867	51932
0.57933	51610
0.58000	51290
0.58067	50975
0.58133	50662
0.58200	50352
0.58267	50046
0.58333	49743
0.58400	49442
0.58467	49144
0.58533	48850
0.58600	48557
0.58667	48268
0.58733	47981
0.58800	47697
0.58867	47416
0.58933	47137
0.59000	46861
0.59067	46587
0.59133	46316
0.59200	46047
0.59267	45781
0.59333	45517
0.59400	45256
0.59467	44997
0.59533	44741
0.59600	44486
0.59667	44234
0.59733	43985
0.59800	43737
0.59867	43492
0.59933	43249
0.60000	43008
0.60067	42770
0.60133	42534
0.60200	42300
0.60267	42068
0.60333	41838
0.60400	41610
0.60467	41385
0.60533	41161
0.60600	40940
0.60667	40721
0.60733	40504
0.60800	40289
0.60867	40076
0.60933	39866
0.61000	39657
0.61067	39451
0.61133	39246
0.61200	39044
0.61267	38844
0.61333	38645
0.61400	38449
0.61467	38255
0.61533	38063
0.61600	37872
0.61667	37684
0.61733	37498
0.61800	37314
0.61867	37132
0.61933	36951
0.62000	36773
0.62067	36596
0.62133	36421
0.62200	36248
0.62267	36077
0.62333	35908
0.62400	35740
0.62467	35573
0.62533	35409
0.62600	35245
0.62667	35084
0.62733	34923
0.62800	34764
0.62867	34607
0.62933	34450
0.63000	34295
0.63067	34142
0.63133	33989
0.63200	33838
0.63267	33688
0.63333	33540
0.63400	33392
0.63467	33246
0.63533	33101
0.63600	32957
0.63667	32815
0.63733	32674
0.63800	32534
0.63867	32396
0.63933	32258
0.64000	32123
0.64067	31988
0.64133	31855
0.64200	31723
0.64267	31593
0.64333	31464
0.64400	31337
0.64467	31211
0.64533	31086
0.64600	30963
0.64667	30841
0.64733	30721
0.64800	30601
0.64867	30483
0.64933	30366
0.65000	30251
0.65067	30136
0.65133	30022
0.65200	29909
0.65267	29798
0.65333	29686
0.65400	29576
0.65467	29466
0.65533	29357
0.65600	29249
0.65667	29141
0.65733	29034
0.65800	28927
0.65867	28820
0.65933	28714
0.66000	28608
0.66067	28502
0.66133	28396
0.66200	28291
0.66267	28186
0.66333	28081
0.66400	27976
0.66467	27872
0.66533	27767
0.66600	27663
0.66667	27559
0.66733	27455
0.66800	27352
0.66867	27248
0.66933	27145
0.67000	27042
0.67067	26939
0.67133	26836
0.67200	26734
0.67267	26631
0.67333	26529
0.67400	26428
0.67467	26326
0.67533	26225
0.67600	26124
0.67667	26023
0.67733	25923
0.67800	25824
0.67867	25724
0.67933	25626
0.68000	25528
0.68067	25430
0.68133	25334
0.68200	25238
0.68267	25143
0.68333	25049
0.68400	24956
0.68467	24865
0.68533	24774
0.68600	24686
0.68667	24598
0.68733	24513
0.68800	24430
0.68867	24348
0.68933	24270
0.69000	24193
0.69067	24119
0.69133	24048
0.69200	23980
0.69267	23915
0.69333	23854
0.69400	23796
0.69467	23742
0.69533	23692
0.69600	23646
0.69667	23604
0.69733	23567
0.69800	23533
0.69867	23503
0.69933	23477
0.70000	23455
0.70067	23436
0.70133	23421
0.70200	23408
0.70267	23397
0.70333	23389
0.70400	23383
0.70467	23377
0.70533	23373
0.70600	23369
0.70667	23365
0.70733	23360
0.70800	23355
0.70867	23348
0.70933	23339
0.71000	23329
0.71067	23316
0.71133	23301
0.71200	23283
0.71267	23262
0.71333	23238
0.71400	23211
0.71467	23180
0.71533	23146
0.71600	23109
0.71667	23069
0.71733	23026
0.71800	22979
0.71867	22929
0.71933	22877
0.72000	22822
0.72067	22764
0.72133	22703
0.72200	22641
0.72267	22576
0.72333	22509
0.72400	22440
0.72467	22369
0.72533	22296
0.72600	22223
0.72667	22147
0.72733	22071
0.72800	21993
0.72867	21914
0.72933	21835
0.73000	21754
0.73067	21673
0.73133	21592
0.73200	21510
0.73267	21427
0.73333	21344
0.73400	21261
0.73467	21178
0.73533	21095
0.73600	21011
0.73667	20928
0.73733	20844
0.73800	20761
0.73867	20677
0.73933	20594
0.74000	20512
0.74067	20429
0.74133	20347
0.74200	20265
0.74267	20183
0.74333	20102
0.74400	20021
0.74467	19941
0.74533	19861
0.74600	19782
0.74667	19703
0.74733	19624
0.74800	19547
0.74867	19469
0.74933	19393
0.75000	19317
0.75067	19241
0.75133	19166
0.75200	19092
0.75267	19018
0.75333	18945
0.75400	18872
0.75467	18800
0.75533	18729
0.75600	18659
0.75667	18589
0.75733	18519
0.75800	18451
0.75867	18383
0.75933	18316
0.76000	18249
0.76067	18183
0.76133	18117
0.76200	18053
0.76267	17989
0.76333	17925
0.76400	17862
0.76467	17800
0.76533	17738
0.76600	17677
0.76667	17616
0.76733	17556
0.76800	17497
0.76867	17438
0.76933	17380
0.77000	17323
0.77067	17266
0.77133	17210
0.77200	17154
0.77267	17099
0.77333	17044
0.77400	16990
0.77467	16937
0.77533	16884
0.77600	16831
0.77667	16779
0.77733	16728
0.77800	16677
0.77867	16627
0.77933	16577
0.78000	16527
0.78067	16478
0.78133	16430
0.78200	16382
0.78267	16335
0.78333	16288
0.78400	16241
0.78467	16195
0.78533	16150
0.78600	16105
0.78667	16060
0.78733	16016
0.78800	15972
0.78867	15928
0.78933	15885
0.79000	15843
0.79067	15801
0.79133	15759
0.79200	15717
0.79267	15676
0.79333	15635
0.79400	15595
0.79467	15555
0.79533	15515
0.79600	15476
0.79667	15436
0.79733	15398
0.79800	15359
0.79867	15321
0.79933	15284
0.80000	15246
0.80067	15209
0.80133	15173
0.80200	15136
0.80267	15100
0.80333	15064
0.80400	15029
0.80467	14994
0.80533	14959
0.80600	14924
0.80667	14890
0.80733	14856
0.80800	14822
0.80867	14789
0.80933	14756
0.81000	14723
0.81067	14690
0.81133	14658
0.81200	14626
0.81267	14594
0.81333	14562
0.81400	14531
0.81467	14500
0.81533	14469
0.81600	14439
0.81667	14409
0.81733	14379
0.81800	14349
0.81867	14320
0.81933	14291
0.82000	14262
0.82067	14234
0.82133	14205
0.82200	14177
0.82267	14149
0.82333	14122
0.82400	14094
0.82467	14067
0.82533	14040
0.82600	14013
0.82667	13987
0.82733	13960
0.82800	13934
0.82867	13908
0.82933	13882
0.83000	13857
0.83067	13831
0.83133	13806
0.83200	13781
0.83267	13756
0.83333	13731
0.83400	13706
0.83467	13682
0.83533	13657
0.83600	13633
0.83667	13609
0.83733	13585
0.83800	13561
0.83867	13537
0.83933	13514
0.84000	13490
0.84067	13467
0.84133	13443
0.84200	13420
0.84267	13397
0.84333	13374
0.84400	13351
0.84467	13329
0.84533	13306
0.84600	13284
0.84667	13261
0.84733	13239
0.84800	13217
0.84867	13194
0.84933	13172
0.85000	13150
0.85067	13129
0.85133	13107
0.85200	13085
0.85267	13064
0.85333	13042
0.85400	13021
0.85467	12999
0.85533	12978
0.85600	12956
0.85667	12935
0.85733	12914
0.85800	12893
0.85867	12872
0.85933	12851
0.86000	12830
0.86067	12809
0.86133	12788
0.86200	12768
0.86267	12747
0.86333	12726
0.86400	12705
0.86467	12685
0.86533	12664
0.86600	12644
0.86667	12623
0.86733	12603
0.86800	12583
0.86867	12563
0.86933	12543
0.87000	12522
0.87067	12502
0.87133	12482
0.87200	12462
0.87267	12442
0.87333	12423
0.87400	12403
0.87467	12383
0.87533	12363
0.87600	12344
0.87667	12324
0.87733	12305
0.87800	12285
0.87867	12266
0.87933	12247
0.88000	12228
0.88067	12209
0.88133	12190
0.88200	12171
0.88267	12152
0.88333	12133
0.88400	12115
0.88467	12096
0.88533	12078
0.88600	12059
0.88667	12041
0.88733	12023
0.88800	12005
0.88867	11987
0.88933	11969
0.89000	11951
0.89067	11934
0.89133	11916
0.89200	11899
0.89267	11882
0.89333	11864
0.89400	11847
0.89467	11830
0.89533	11814
0.89600	11797
0.89667	11780
0.89733	11764
0.89800	11747
0.89867	11731
0.89933	11715
0.90000	11699
0.90067	11683
0.90133	11667
0.90200	11651
0.90267	11635
0.90333	11619
0.90400	11603
0.90467	11588
0.90533	11572
0.90600	11556
0.90667	11541
0.90733	11525
0.90800	11510
0.90867	11494
0.90933	11479
0.91000	11464
0.91067	11448
0.91133	11433
0.91200	11418
0.91267	11403
0.91333	11388
0.91400	11373
0.91467	11358
0.91533	11343
0.91600	11328
0.91667	11313
0.91733	11298
0.91800	11284
0.91867	11269
0.91933	11254
0.92000	11240
0.92067	11225
0.92133	11210
0.92200	11196
0.92267	11182
0.92333	11167
0.92400	11153
0.92467	11139
0.92533	11125
0.92600	11111
0.92667	11097
0.92733	11083
0.92800	11069
0.92867	11055
0.92933	11041
0.93000	11028
0.93067	11014
0.93133	11001
0.93200	10987
0.93267	10974
0.93333	10961
0.93400	10948
0.93467	10935
0.93533	10922
0.93600	10909
0.93667	10896
0.93733	10883
0.93800	10871
0.93867	10858
0.93933	10846
0.94000	10833
0.94067	10821
0.94133	10808
0.94200	10796
0.94267	10783
0.94333	10771
0.94400	10758
0.94467	10746
0.94533	10734
0.94600	10721
0.94667	10709
0.94733	10696
0.94800	10684
0.94867	10672
0.94933	10659
0.95000	10647
0.95067	10634
0.95133	10622
0.95200	10610
0.95267	10597
0.95333	10585
0.95400	10573
0.95467	10561
0.95533	10548
0.95600	10536
0.95667	10525
0.95733	10513
0.95800	10501
0.95867	10490
0.95933	10478
0.96000	10467
0.96067	10456
0.96133	10444
0.96200	10434
0.96267	10423
0.96333	10412
0.96400	10401
0.96467	10391
0.96533	10381
0.96600	10370
0.96667	10360
0.96733	10350
0.96800	10340
0.96867	10330
0.96933	10320
0.97000	10311
0.97067	10301
0.97133	10291
0.97200	10282
0.97267	10272
0.97333	10262
0.97400	10252
0.97467	10242
0.97533	10233
0.97600	10223
0.97667	10213
0.97733	10202
0.97800	10192
0.97867	10182
0.97933	10171
0.98000	10161
0.98067	10150
0.98133	10139
0.98200	10129
0.98267	10118
0.98333	10107
0.98400	10096
0.98467	10084
0.98533	10073
0.98600	10062
0.98667	10050
0.98733	10039
0.98800	10027
0.98867	10016
0.98933	10004
0.99000	9992
0.99067	9980
0.99133	9969
0.99200	9957
0.99267	9945
0.99333	9933
0.99400	9921
0.99467	9909
0.99533	9897
0.99600	9885
0.99667	9873
0.99733	9861
0.99800	9849
0.99867	9837
0.99933	9825
1.00000	9813
1.00067	9801
1.00133	9789
1.00200	9777
1.00267	9764
1.00333	9752
1.00400	9741
1.00467	9729
1.00533	9717
1.00600	9705
1.00667	9693
1.00733	9681
1.00800	9669
1.00867	9658
1.00933	9646
1.01000	9634
1.01067	9623
1.01133	9611
1.01200	9600
1.01267	9588
1.01333	9577
1.01400	9566
1.01467	9555
1.01533	9544
1.01600	9532
1.01667	9522
1.01733	9511
1.01800	9500
1.01867	9490
1.01933	9479
1.02000	9469
1.02067	9459
1.02133	9448
1.02200	9439
1.02267	9429
1.02333	9419
1.02400	9409
1.02467	9400
1.02533	9391
1.02600	9381
1.02667	9372
1.02733	9363
1.02800	9355
1.02867	9346
1.02933	9337
1.03000	9329
1.03067	9321
1.03133	9312
1.03200	9304
1.03267	9296
1.03333	9288
1.03400	9280
1.03467	9273
1.03533	9265
1.03600	9257
1.03667	9250
1.03733	9242
1.03800	9234
1.03867	9227
1.03933	9219
1.04000	9211
1.04067	9204
1.04133	9196
1.04200	9188
1.04267	9180
1.04333	9173
1.04400	9165
1.04467	9157
1.04533	9149
1.04600	9141
1.04667	9133
1.04733	9125
1.04800	9117
1.04867	9109
1.04933	9101
1.05000	9093
1.05067	9085
1.05133	9077
1.05200	9069
1.05267	9060
1.05333	9052
1.05400	9044
1.05467	9036
1.05533	9028
1.05600	9019
1.05667	9011
1.05733	9003
1.05800	8995
1.05867	8987
1.05933	8979
1.06000	8971
1.06067	8963
1.06133	8955
1.06200	8946
1.06267	8938
1.06333	8930
1.06400	8922
1.06467	8915
1.06533	8907
1.06600	8899
1.06667	8891
1.06733	8883
1.06800	8875
1.06867	8867
1.06933	8859
1.07000	8851
1.07067	8843
1.07133	8835
1.07200	8827
1.07267	8819
1.07333	8811
1.07400	8803
1.07467	8795
1.07533	8787
1.07600	8779
1.07667	8771
1.07733	8763
1.07800	8755
1.07867	8747
1.07933	8740
1.08000	8732
1.08067	8724
1.08133	8716
1.08200	8709
1.08267	8701
1.08333	8693
1.08400	8686
1.08467	8678
1.08533	8671
1.08600	8663
1.08667	8656
1.08733	8648
1.08800	8641
1.08867	8633
1.08933	8626
1.09000	8618
1.09067	8611
1.09133	8604
1.09200	8596
1.09267	8589
1.09333	8581
1.09400	8574
1.09467	8566
1.09533	8559
1.09600	8552
1.09667	8544
1.09733	8537
1.09800	8530
1.09867	8522
1.09933	8515
1.10000	8508
1.10067	8500
1.10133	8493
1.10200	8486
1.10267	8479
1.10333	8472
1.10400	8465
1.10467	8457
1.10533	8450
1.10600	8443
1.10667	8436
1.10733	8429
1.10800	8423
1.10867	8416
1.10933	8409
1.11000	8402
1.11067	8395
1.11133	8388
1.11200	8381
1.11267	8374
1.11333	8368
1.11400	8361
1.11467	8354
1.11533	8347
1.11600	8341
1.11667	8334
1.11733	8328
1.11800	8321
1.11867	8315
1.11933	8308
1.12000	8302
1.12067	8295
1.12133	8289
1.12200	8283
1.12267	8277
1.12333	8271
1.12400	8265
1.12467	8259
1.12533	8253
1.12600	8247
1.12667	8241
1.12733	8235
1.12800	8229
1.12867	8224
1.12933	8218
1.13000	8213
1.13067	8207
1.13133	8202
1.13200	8197
1.13267	8192
1.13333	8187
1.13400	8182
1.13467	8177
1.13533	8172
1.13600	8167
1.13667	8162
1.13733	8158
1.13800	8153
1.13867	8149
1.13933	8144
1.14000	8140
1.14067	8136
1.14133	8132
1.14200	8128
1.14267	8125
1.14333	8121
1.14400	8118
1.14467	8114
1.14533	8111
1.14600	8107
1.14667	8104
1.14733	8100
1.14800	8097
1.14867	8094
1.14933	8091
1.15000	8087
1.15067	8084
1.15133	8081
1.15200	8078
1.15267	8075
1.15333	8071
1.15400	8068
1.15467	8065
1.15533	8062
1.15600	8058
1.15667	8055
1.15733	8052
1.15800	8048
1.15867	8045
1.15933	8041
1.16000	8037
1.16067	8034
1.16133	8030
1.16200	8026
1.16267	8022
1.16333	8018
1.16400	8014
1.16467	8010
1.16533	8006
1.16600	8002
1.16667	7998
1.16733	7993
1.16800	7989
1.16867	7985
1.16933	7980
1.17000	7976
1.17067	7971
1.17133	7967
1.17200	7962
1.17267	7957
1.17333	7953
1.17400	7948
1.17467	7943
1.17533	7938
1.17600	7933
1.17667	7928
1.17733	7923
1.17800	7918
1.17867	7913
1.17933	7908
1.18000	7903
1.18067	7898
1.18133	7893
1.18200	7888
1.18267	7883
1.18333	7878
1.18400	7873
1.18467	7868
1.18533	7863
1.18600	7858
1.18667	7853
1.18733	7848
1.18800	7844
1.18867	7839
1.18933	7834
1.19000	7829
1.19067	7824
1.19133	7820
1.19200	7815
1.19267	7810
1.19333	7805
1.19400	7801
1.19467	7796
1.19533	7792
1.19600	7787
1.19667	7783
1.19733	7778
1.19800	7774
1.19867	7770
1.19933	7765
1.20000	7761
1.20067	7757
1.20133	7753
1.20200	7749
1.20267	7745
1.20333	7741
1.20400	7737
1.20467	7733
1.20533	7730
1.20600	7726
1.20667	7723
1.20733	7719
1.20800	7716
1.20867	7712
1.20933	7709
1.21000	7706
1.21067	7703
1.21133	7700
1.21200	7697
1.21267	7695
1.21333	7692
1.21400	7690
1.21467	7687
1.21533	7685
1.21600	7683
1.21667	7680
1.21733	7678
1.21800	7676
1.21867	7675
1.21933	7673
1.22000	7671
1.22067	7669
1.22133	7668
1.22200	7666
1.22267	7665
1.22333	7664
1.22400	7663
1.22467	7661
1.22533	7660
1.22600	7659
1.22667	7658
1.22733	7657
1.22800	7656
1.22867	7655
1.22933	7655
1.23000	7654
1.23067	7653
1.23133	7652
1.23200	7652
1.23267	7651
1.23333	7651
1.23400	7650
1.23467	7650
1.23533	7649
1.23600	7649
1.23667	7648
1.23733	7648
1.23800	7648
1.23867	7648
1.23933	7647
1.24000	7647
1.24067	7647
1.24133	7647
1.24200	7646
1.24267	7646
1.24333	7646
1.24400	7646
1.24467	7646
1.24533	7646
1.24600	7646
1.24667	7646
1.24733	7646
1.24800	7646
1.24867	7646
1.24933	7646
1.25000	7646
1.25067	7646
1.25133	7646
1.25200	7646
1.25267	7646
1.25333	7646
1.25400	7645
1.25467	7645
1.25533	7645
1.25600	7645
1.25667	7645
1.25733	7645
1.25800	7645
1.25867	7645
1.25933	7645
1.26000	7645
1.26067	7645
1.26133	7645
1.26200	7645
1.26267	7645
1.26333	7645
1.26400	7645
1.26467	7645
1.26533	7646
1.26600	7646
1.26667	7646
1.26733	7647
1.26800	7648
1.26867	7648
1.26933	7649
1.27000	7650
1.27067	7651
1.27133	7652
1.27200	7653
1.27267	7655
1.27333	7656
1.27400	7658
1.27467	7660
1.27533	7662
1.27600	7664
1.27667	7667
1.27733	7670
1.27800	7674
1.27867	7677
1.27933	7682
1.28000	7686
1.28067	7691
1.28133	7696
1.28200	7702
1.28267	7708
1.28333	7714
1.28400	7720
1.28467	7727
1.28533	7735
1.28600	7742
1.28667	7750
1.28733	7757
1.28800	7766
1.28867	7774
1.28933	7782
1.29000	7790
1.29067	7799
1.29133	7807
1.29200	7815
1.29267	7823
1.29333	7831
1.29400	7839
1.29467	7846
1.29533	7853
1.29600	7860
1.29667	7867
1.29733	7873
1.29800	7879
1.29867	7885
1.29933	7890
1.30000	7895
1.30067	7899
1.30133	7903
1.30200	7907
1.30267	7910
1.30333	7913
1.30400	7915
1.30467	7917
1.30533	7919
1.30600	7920
1.30667	7921
1.30733	7921
1.30800	7921
1.30867	7920
1.30933	7919
1.31000	7918
1.31067	7916
1.31133	7915
1.31200	7912
1.31267	7910
1.31333	7907
1.31400	7904
1.31467	7900
1.31533	7897
1.31600	7893
1.31667	7889
1.31733	7884
1.31800	7879
1.31867	7874
1.31933	7869
1.32000	7864
1.32067	7859
1.32133	7853
1.32200	7847
1.32267	7841
1.32333	7835
1.32400	7828
1.32467	7822
1.32533	7815
1.32600	7808
1.32667	7801
1.32733	7793
1.32800	7786
1.32867	7779
1.32933	7771
1.33000	7763
1.33067	7756
1.33133	7748
1.33200	7740
1.33267	7732
1.33333	7724
1.33400	7716
1.33467	7707
1.33533	7699
1.33600	7691
1.33667	7683
1.33733	7674
1.33800	7666
1.33867	7658
1.33933	7649
1.34000	7641
1.34067	7633
1.34133	7624
1.34200	7616
1.34267	7608
1.34333	7599
1.34400	7591
1.34467	7583
1.34533	7575
1.34600	7567
1.34667	7558
1.34733	7550
1.34800	7542
1.34867	7534
1.34933	7526
1.35000	7518
1.35067	7510
1.35133	7502
1.35200	7494
1.35267	7486
1.35333	7479
1.35400	7471
1.35467	7463
1.35533	7455
1.35600	7448
1.35667	7440
1.35733	7433
1.35800	7425
1.35867	7418
1.35933	7410
1.36000	7403
1.36067	7396
1.36133	7389
1.36200	7382
1.36267	7375
1.36333	7368
1.36400	7361
1.36467	7354
1.36533	7347
1.36600	7341
1.36667	7334
1.36733	7328
1.36800	7322
1.36867	7315
1.36933	7309
1.37000	7303
1.37067	7297
1.37133	7291
1.37200	7285
1.37267	7280
1.37333	7274
1.37400	7268
1.37467	7262
1.37533	7257
1.37600	7251
1.37667	7246
1.37733	7240
1.37800	7235
1.37867	7230
1.37933	7224
1.38000	7219
1.38067	7214
1.38133	7209
1.38200	7204
1.38267	7199
1.38333	7195
1.38400	7190
1.38467	7185
1.38533	7181
1.38600	7176
1.38667	7172
1.38733	7167
1.38800	7163
1.38867	7158
1.38933	7154
1.39000	7150
1.39067	7146
1.39133	7141
1.39200	7137
1.39267	7133
1.39333	7129
1.39400	7125
1.39467	7121
1.39533	7117
1.39600	7113
1.39667	7109
1.39733	7104
1.39800	7100
1.39867	7096
1.39933	7092
1.40000	7088
1.40067	7084
1.40133	7080
1.40200	7076
1.40267	7072
1.40333	7069
1.40400	7065
1.40467	7061
1.40533	7057
1.40600	7053
1.40667	7049
1.40733	7045
1.40800	7041
1.40867	7037
1.40933	7033
1.41000	7029
1.41067	7025
1.41133	7022
1.41200	7018
1.41267	7014
1.41333	7010
1.41400	7006
1.41467	7002
1.41533	6998
1.41600	6995
1.41667	6991
1.41733	6987
1.41800	6983
1.41867	6979
1.41933	6976
1.42000	6972
1.42067	6968
1.42133	6964
1.42200	6961
1.42267	6957
1.42333	6954
1.42400	6950
1.42467	6947
1.42533	6943
1.42600	6940
1.42667	6936
1.42733	6933
1.42800	6930
1.42867	6926
1.42933	6923
1.43000	6920
1.43067	6917
1.43133	6914
1.43200	6910
1.43267	6907
1.43333	6904
1.43400	6901
1.43467	6898
1.43533	6895
1.43600	6892
1.43667	6889
1.43733	6886
1.43800	6883
1.43867	6880
1.43933	6877
1.44000	6874
1.44067	6871
1.44133	6868
1.44200	6865
1.44267	6862
1.44333	6859
1.44400	6856
1.44467	6853
1.44533	6850
1.44600	6846
1.44667	6843
1.44733	6840
1.44800	6838
1.44867	6835
1.44933	6832
1.45000	6829
1.45067	6826
1.45133	6823
1.45200	6821
1.45267	6818
1.45333	6815
1.45400	6813
1.45467	6810
1.45533	6808
1.45600	6805
1.45667	6803
1.45733	6800
1.45800	6798
1.45867	6796
1.45933	6793
1.46000	6791
1.46067	6788
1.46133	6786
1.46200	6784
1.46267	6781
1.46333	6779
1.46400	6777
1.46467	6774
1.46533	6772
1.46600	6770
1.46667	6767
1.46733	6765
1.46800	6763
1.46867	6761
1.46933	6758
1.47000	6756
1.47067	6754
1.47133	6752
1.47200	6750
1.47267	6748
1.47333	6746
1.47400	6744
1.47467	6742
1.47533	6740
1.47600	6738
1.47667	6736
1.47733	6733
1.47800	6731
1.47867	6729
1.47933	6727
1.48000	6725
1.48067	6722
1.48133	6720
1.48200	6718
1.48267	6716
1.48333	6713
1.48400	6711
1.48467	6708
1.48533	6706
1.48600	6704
1.48667	6701
1.48733	6699
1.48800	6696
1.48867	6694
1.48933	6692
1.49000	6689
1.49067	6687
1.49133	6684
1.49200	6682
1.49267	6679
1.49333	6677
1.49400	6674
1.49467	6672
1.49533	6669
1.49600	6667
1.49667	6665
1.49733	6662
1.49800	6660
1.49867	6657
1.49933	6655
1.50000	6652
1.50067	6649
1.50133	6647
1.50200	6644
1.50267	6642
1.50333	6639
1.50400	6636
1.50467	6634
1.50533	6631
1.50600	6629
1.50667	6626
1.50733	6624
1.50800	6621
1.50867	6619
1.50933	6616
1.51000	6614
1.51067	6612
1.51133	6610
1.51200	6607
1.51267	6605
1.51333	6603
1.51400	6601
1.51467	6599
1.51533	6596
1.51600	6594
1.51667	6592
1.51733	6590
1.51800	6588
1.51867	6586
1.51933	6584
1.52000	6581
1.52067	6579
1.52133	6577
1.52200	6575
1.52267	6573
1.52333	6571
1.52400	6569
1.52467	6567
1.52533	6565
1.52600	6563
1.52667	6561
1.52733	6559
1.52800	6557
1.52867	6555
1.52933	6553
1.53000	6551
1.53067	6549
1.53133	6547
1.53200	6545
1.53267	6544
1.53333	6542
1.53400	6540
1.53467	6538
1.53533	6536
1.53600	6535
1.53667	6533
1.53733	6531
1.53800	6530
1.53867	6528
1.53933	6526
1.54000	6524
1.54067	6523
1.54133	6521
1.54200	6520
1.54267	6518
1.54333	6516
1.54400	6515
1.54467	6513
1.54533	6512
1.54600	6510
1.54667	6509
1.54733	6507
1.54800	6506
1.54867	6504
1.54933	6503
1.55000	6501
1.55067	6500
1.55133	6499
1.55200	6497
1.55267	6496
1.55333	6495
1.55400	6493
1.55467	6492
1.55533	6491
1.55600	6490
1.55667	6488
1.55733	6487
1.55800	6486
1.55867	6484
1.55933	6483
1.56000	6482
1.56067	6481
1.56133	6479
1.56200	6478
1.56267	6477
1.56333	6475
1.56400	6474
1.56467	6473
1.56533	6472
1.56600	6470
1.56667	6469
1.56733	6468
1.56800	6467
1.56867	6465
1.56933	6464
1.57000	6463
1.57067	6462
1.57133	6460
1.57200	6459
1.57267	6458
1.57333	6457
1.57400	6455
1.57467	6454
1.57533	6453
1.57600	6451
1.57667	6450
1.57733	6449
1.57800	6447
1.57867	6446
1.57933	6444
1.58000	6443
1.58067	6441
1.58133	6440
1.58200	6438
1.58267	6437
1.58333	6435
1.58400	6433
1.58467	6432
1.58533	6430
1.58600	6429
1.58667	6427
1.58733	6426
1.58800	6424
1.58867	6423
1.58933	6422
1.59000	6420
1.59067	6419
1.59133	6417
1.59200	6416
1.59267	6415
1.59333	6413
1.59400	6412
1.59467	6411
1.59533	6409
1.59600	6408
1.59667	6407
1.59733	6406
1.59800	6405
1.59867	6404
1.59933	6402
1.60000	6401
1.60067	6400
1.60133	6399
1.60200	6398
1.60267	6397
1.60333	6395
1.60400	6394
1.60467	6393
1.60533	6392
1.60600	6390
1.60667	6389
1.60733	6388
1.60800	6387
1.60867	6386
1.60933	6384
1.61000	6383
1.61067	6382
1.61133	6381
1.61200	6379
1.61267	6378
1.61333	6377
1.61400	6376
1.61467	6374
1.61533	6373
1.61600	6372
1.61667	6370
1.61733	6369
1.61800	6368
1.61867	6366
1.61933	6365
1.62000	6364
1.62067	6363
1.62133	6361
1.62200	6360
1.62267	6359
1.62333	6358
1.62400	6356
1.62467	6355
1.62533	6354
1.62600	6352
1.62667	6351
1.62733	6350
1.62800	6349
1.62867	6347
1.62933	6346
1.63000	6345
1.63067	6344
1.63133	6342
1.63200	6341
1.63267	6340
1.63333	6339
1.63400	6338
1.63467	6336
1.63533	6335
1.63600	6334
1.63667	6333
1.63733	6332
1.63800	6331
1.63867	6331
1.63933	6330
1.64000	6329
1.64067	6328
1.64133	6327
1.64200	6327
1.64267	6326
1.64333	6325
1.64400	6325
1.64467	6324
1.64533	6324
1.64600	6323
1.64667	6322
1.64733	6322
1.64800	6321
1.64867	6320
1.64933	6320
1.65000	6319
1.65067	6318
1.65133	6318
1.65200	6317
1.65267	6317
1.65333	6316
1.65400	6315
1.65467	6315
1.65533	6314
1.65600	6313
1.65667	6313
1.65733	6312
1.65800	6311
1.65867	6311
1.65933	6310
1.66000	6309
1.66067	6309
1.66133	6308
1.66200	6307
1.66267	6307
1.66333	6306
1.66400	6305
1.66467	6304
1.66533	6303
1.66600	6303
1.66667	6302
1.66733	6301
1.66800	6300
1.66867	6299
1.66933	6298
1.67000	6297
1.67067	6297
1.67133	6296
1.67200	6295
1.67267	6294
1.67333	6293
1.67400	6292
1.67467	6291
1.67533	6290
1.67600	6289
1.67667	6288
1.67733	6287
1.67800	6286
1.67867	6285
1.67933	6284
1.68000	6283
1.68067	6282
1.68133	6281
1.68200	6280
1.68267	6279
1.68333	6278
1.68400	6277
1.68467	6276
1.68533	6275
1.68600	6273
1.68667	6272
1.68733	6271
1.68800	6270
1.68867	6269
1.68933	6267
1.69000	6266
1.69067	6265
1.69133	6264
1.69200	6263
1.69267	6261
1.69333	6260
1.69400	6259
1.69467	6257
1.69533	6256
1.69600	6255
1.69667	6253
1.69733	6252
1.69800	6251
1.69867	6249
1.69933	6248
1.70000	6247
1.70067	6245
1.70133	6244
1.70200	6242
1.70267	6241
1.70333	6240
1.70400	6238
1.70467	6237
1.70533	6235
1.70600	6234
1.70667	6233
1.70733	6231
1.70800	6230
1.70867	6229
1.70933	6228
1.71000	6226
1.71067	6225
1.71133	6224
1.71200	6223
1.71267	6222
1.71333	6221
1.71400	6220
1.71467	6219
1.71533	6219
1.71600	6218
1.71667	6218
1.71733	6218
1.71800	6218
1.71867	6219
1.71933	6221
1.72000	6223
1.72067	6226
1.72133	6230
1.72200	6235
1.72267	6242
1.72333	6251
1.72400	6262
1.72467	6276
1.72533	6293
1.72600	6315
1.72667	6341
1.72733	6373
1.72800	6412
1.72867	6459
1.72933	6515
1.73000	6583
1.73067	6665
1.73133	6761
1.73200	6876
1.73267	7011
1.73333	7171
1.73400	7357
1.73467	7575
1.73533	7828
1.73600	8121
1.73667	8460
1.73733	8849
1.73800	9296
1.73867	9805
1.73933	10385
1.74000	11042
1.74067	11785
1.74133	12621
1.74200	13558
1.74267	14605
1.74333	15771
1.74400	17064
1.74467	18493
1.74533	20066
1.74600	21791
1.74667	23676
1.74733	25729
1.74800	27958
1.74867	30369
1.74933	32969
1.75000	35762
1.75067	38752
1.75133	41943
1.75200	45339
1.75267	48941
1.75333	52750
1.75400	56764
1.75467	60980
1.75533	65395
1.75600	70002
1.75667	74794
1.75733	79760
1.75800	84887
1.75867	90165
1.75933	95578
1.76000	101110
1.76067	106744
1.76133	112462
1.76200	118245
1.76267	124071
1.76333	129918
1.76400	135764
1.76467	141586
1.76533	147360
1.76600	153061
1.76667	158667
1.76733	164154
1.76800	169499
1.76867	174683
1.76933	179683
1.77000	184482
1.77067	189059
1.77133	193398
1.77200	197483
1.77267	201303
1.77333	204848
1.77400	208109
1.77467	211081
1.77533	213761
1.77600	216145
1.77667	218235
1.77733	220031
1.77800	221537
1.77867	222756
1.77933	223695
1.78000	224361
1.78067	224761
1.78133	224905
1.78200	224803
1.78267	224465
1.78333	223902
1.78400	223125
1.78467	222145
1.78533	220974
1.78600	219623
1.78667	218103
1.78733	216427
1.78800	214604
1.78867	212645
1.78933	210561
1.79000	208363
1.79067	206060
1.79133	203661
1.79200	201176
1.79267	198614
1.79333	195982
1.79400	193289
1.79467	190543
1.79533	187750
1.79600	184916
1.79667	182049
1.79733	179155
1.79800	176238
1.79867	173304
1.79933	170359
1.80000	167406
1.80067	164450
1.80133	161495
1.80200	158545
1.80267	155604
1.80333	152673
1.80400	149757
1.80467	146859
1.80533	143980
1.80600	141123
1.80667	138290
1.80733	135484
1.80800	132706
1.80867	129957
1.80933	127240
1.81000	124555
1.81067	121904
1.81133	119287
1.81200	116706
1.81267	114162
1.81333	111655
1.81400	109186
1.81467	106756
1.81533	104364
1.81600	102012
1.81667	99700
1.81733	97427
1.81800	95195
1.81867	93003
1.81933	90851
1.82000	88739
1.82067	86667
1.82133	84635
1.82200	82643
1.82267	80690
1.82333	78777
1.82400	76903
1.82467	75068
1.82533	73272
1.82600	71514
1.82667	69793
1.82733	68110
1.82800	66464
1.82867	64855
1.82933	63282
1.83000	61744
1.83067	60242
1.83133	58774
1.83200	57340
1.83267	55940
1.83333	54573
1.83400	53239
1.83467	51937
1.83533	50666
1.83600	49426
1.83667	48217
1.83733	47037
1.83800	45887
1.83867	44765
1.83933	43672
1.84000	42607
1.84067	41568
1.84133	40556
1.84200	39570
1.84267	38610
1.84333	37674
1.84400	36764
1.84467	35877
1.84533	35013
1.84600	34172
1.84667	33354
1.84733	32558
1.84800	31783
1.84867	31029
1.84933	30295
1.85000	29582
1.85067	28887
1.85133	28212
1.85200	27555
1.85267	26917
1.85333	26296
1.85400	25692
1.85467	25105
1.85533	24534
1.85600	23980
1.85667	23441
1.85733	22917
1.85800	22407
1.85867	21912
1.85933	21432
1.86000	20964
1.86067	20510
1.86133	20070
1.86200	19641
1.86267	19225
1.86333	18821
1.86400	18428
1.86467	18047
1.86533	17677
1.86600	17317
1.86667	16968
1.86733	16629
1.86800	16299
1.86867	15979
1.86933	15669
1.87000	15367
1.87067	15075
1.87133	14790
1.87200	14514
1.87267	14247
1.87333	13987
1.87400	13734
1.87467	13489
1.87533	13251
1.87600	13021
1.87667	12797
1.87733	12579
1.87800	12368
1.87867	12164
1.87933	11965
1.88000	11772
1.88067	11585
1.88133	11403
1.88200	11227
1.88267	11056
1.88333	10890
1.88400	10729
1.88467	10573
1.88533	10421
1.88600	10274
1.88667	10132
1.88733	9993
1.88800	9859
1.88867	9729
1.88933	9603
1.89000	9480
1.89067	9361
1.89133	9246
1.89200	9134
1.89267	9025
1.89333	8920
1.89400	8818
1.89467	8719
1.89533	8623
1.89600	8529
1.89667	8439
1.89733	8351
1.89800	8266
1.89867	8184
1.89933	8104
1.90000	8026
1.90067	7951
1.90133	7878
1.90200	7807
1.90267	7738
1.90333	7672
1.90400	7607
1.90467	7544
1.90533	7484
1.90600	7425
1.90667	7367
1.90733	7312
1.90800	7258
1.90867	7205
1.90933	7154
1.91000	7105
1.91067	7057
1.91133	7010
1.91200	6965
1.91267	6921
1.91333	6878
1.91400	6837
1.91467	6796
1.91533	6757
1.91600	6719
1.91667	6682
1.91733	6646
1.91800	6610
1.91867	6576
1.91933	6543
1.92000	6510
1.92067	6479
1.92133	6448
1.92200	6418
1.92267	6389
1.92333	6360
1.92400	6332
1.92467	6305
1.92533	6279
1.92600	6254
1.92667	6229
1.92733	6204
1.92800	6181
1.92867	6158
1.92933	6135
1.93000	6113
1.93067	6092
1.93133	6071
1.93200	6051
1.93267	6031
1.93333	6012
1.93400	5993
1.93467	5974
1.93533	5957
1.93600	5939
1.93667	5922
1.93733	5906
1.93800	5889
1.93867	5874
1.93933	5858
1.94000	5843
1.94067	5829
1.94133	5815
1.94200	5801
1.94267	5787
1.94333	5774
1.94400	5761
1.94467	5748
1.94533	5736
1.94600	5724
1.94667	5712
1.94733	5701
1.94800	5690
1.94867	5679
1.94933	5668
1.95000	5658
1.95067	5648
1.95133	5638
1.95200	5628
1.95267	5619
1.95333	5610
1.95400	5601
1.95467	5592
1.95533	5583
1.95600	5575
1.95667	5567
1.95733	5559
1.95800	5551
1.95867	5544
1.95933	5536
1.96000	5529
1.96067	5522
1.96133	5516
1.96200	5509
1.96267	5503
1.96333	5496
1.96400	5490
1.96467	5484
1.96533	5478
1.96600	5473
1.96667	5467
1.96733	5461
1.96800	5456
1.96867	5451
1.96933	5446
1.97000	5441
1.97067	5436
1.97133	5431
1.97200	5426
1.97267	5421
1.97333	5417
1.97400	5412
1.97467	5408
1.97533	5403
1.97600	5399
1.97667	5395
1.97733	5391
1.97800	5386
1.97867	5382
1.97933	5378
1.98000	5375
1.98067	5371
1.98133	5367
1.98200	5363
1.98267	5360
1.98333	5356
1.98400	5353
1.98467	5349
1.98533	5346
1.98600	5343
1.98667	5340
1.98733	5336
1.98800	5333
1.98867	5330
1.98933	5327
1.99000	5325
1.99067	5322
1.99133	5319
1.99200	5317
1.99267	5314
1.99333	5311
1.99400	5309
1.99467	5306
1.99533	5304
1.99600	5302
1.99667	5299
1.99733	5297
1.99800	5295
1.99867	5292
1.99933	5290
2.00000	5288
2.00067	5285
2.00133	5283
2.00200	5281
2.00267	5279
2.00333	5276
2.00400	5274
2.00467	5272
2.00533	5270
2.00600	5267
2.00667	5265
2.00733	5263
2.00800	5260
2.00867	5258
2.00933	5256
2.01000	5253
2.01067	5251
2.01133	5248
2.01200	5246
2.01267	5243
2.01333	5241
2.01400	5238
2.01467	5236
2.01533	5233
2.01600	5230
2.01667	5228
2.01733	5225
2.01800	5222
2.01867	5220
2.01933	5217
2.02000	5214
2.02067	5212
2.02133	5209
2.02200	5207
2.02267	5204
2.02333	5202
2.02400	5199
2.02467	5197
2.02533	5195
2.02600	5192
2.02667	5190
2.02733	5187
2.02800	5185
2.02867	5182
2.02933	5180
2.03000	5177
2.03067	5175
2.03133	5172
2.03200	5169
2.03267	5167
2.03333	5164
2.03400	5161
2.03467	5159
2.03533	5156
2.03600	5153
2.03667	5150
2.03733	5148
2.03800	5145
2.03867	5142
2.03933	5140
2.04000	5137
2.04067	5134
2.04133	5132
2.04200	5129
2.04267	5126
2.04333	5124
2.04400	5121
2.04467	5119
2.04533	5116
2.04600	5114
2.04667	5111
2.04733	5109
2.04800	5107
2.04867	5104
2.04933	5102
2.05000	5100
2.05067	5098
2.05133	5095
2.05200	5093
2.05267	5091
2.05333	5089
2.05400	5087
2.05467	5085
2.05533	5083
2.05600	5080
2.05667	5078
2.05733	5076
2.05800	5074
2.05867	5072
2.05933	5070
2.06000	5068
2.06067	5066
2.06133	5064
2.06200	5062
2.06267	5059
2.06333	5057
2.06400	5055
2.06467	5053
2.06533	5051
2.06600	5049
2.06667	5047
2.06733	5045
2.06800	5043
2.06867	5041
2.06933	5039
2.07000	5037
2.07067	5036
2.07133	5034
2.07200	5032
2.07267	5030
2.07333	5028
2.07400	5026
2.07467	5024
2.07533	5023
2.07600	5021
2.07667	5019
2.07733	5018
2.07800	5016
2.07867	5015
2.07933	5013
2.08000	5012
2.08067	5010
2.08133	5009
2.08200	5007
2.08267	5005
2.08333	5004
2.08400	5002
2.08467	5001
2.08533	4999
2.08600	4998
2.08667	4996
2.08733	4995
2.08800	4993
2.08867	4992
2.08933	4990
2.09000	4989
2.09067	4987
2.09133	4986
2.09200	4984
2.09267	4983
2.09333	4981
2.09400	4980
2.09467	4978
2.09533	4977
2.09600	4975
2.09667	4974
2.09733	4972
2.09800	4971
2.09867	4969
2.09933	4968
2.10000	4966
2.10067	4965
2.10133	4963
2.10200	4962
2.10267	4961
2.10333	4959
2.10400	4958
2.10467	4956
2.10533	4955
2.10600	4953
2.10667	4952
2.10733	4951
2.10800	4949
2.10867	4948
2.10933	4947
2.11000	4945
2.11067	4944
2.11133	4943
2.11200	4941
2.11267	4940
2.11333	4939
2.11400	4937
2.11467	4936
2.11533	4935
2.11600	4934
2.11667	4933
2.11733	4931
2.11800	4930
2.11867	4929
2.11933	4928
2.12000	4927
2.12067	4925
2.12133	4924
2.12200	4923
2.12267	4922
2.12333	4921
2.12400	4919
2.12467	4918
2.12533	4917
2.12600	4916
2.12667	4914
2.12733	4913
2.12800	4912
2.12867	4910
2.12933	4909
2.13000	4908
2.13067	4907
2.13133	4906
2.13200	4904
2.13267	4903
2.13333	4902
2.13400	4901
2.13467	4900
2.13533	4899
2.13600	4897
2.13667	4896
2.13733	4895
2.13800	4894
2.13867	4893
2.13933	4892
2.14000	4891
2.14067	4890
2.14133	4889
2.14200	4888
2.14267	4887
2.14333	4885
2.14400	4884
2.14467	4883
2.14533	4882
2.14600	4881
2.14667	4880
2.14733	4879
2.14800	4878
2.14867	4877
2.14933	4875
2.15000	4874
2.15067	4873
2.15133	4872
2.15200	4871
2.15267	4870
2.15333	4868
2.15400	4867
2.15467	4866
2.15533	4865
2.15600	4864
2.15667	4863
2.15733	4861
2.15800	4860
2.15867	4859
2.15933	4858
2.16000	4857
2.16067	4856
2.16133	4854
2.16200	4853
2.16267	4852
2.16333	4851
2.16400	4850
2.16467	4848
2.16533	4847
2.16600	4846
2.16667	4845
2.16733	4843
2.16800	4842
2.16867	4841
2.16933	4839
2.17000	4838
2.17067	4837
2.17133	4836
2.17200	4834
2.17267	4833
2.17333	4832
2.17400	4831
2.17467	4830
2.17533	4828
2.17600	4827
2.17667	4826
2.17733	4825
2.17800	4824
2.17867	4823
2.17933	4822
2.18000	4821
2.18067	4819
2.18133	4818
2.18200	4817
2.18267	4816
2.18333	4815
2.18400	4814
2.18467	4813
2.18533	4812
2.18600	4811
2.18667	4810
2.18733	4809
2.18800	4808
2.18867	4807
2.18933	4807
2.19000	4806
2.19067	4805
2.19133	4804
2.19200	4803
2.19267	4802
2.19333	4801
2.19400	4800
2.19467	4800
2.19533	4799
2.19600	4798
2.19667	4797
2.19733	4796
2.19800	4796
2.19867	4795
2.19933	4794
2.20000	4793
2.20067	4793
2.20133	4792
2.20200	4791
2.20267	4791
2.20333	4790
2.20400	4790
2.20467	4789
2.20533	4789
2.20600	4789
2.20667	4789
2.20733	4788
2.20800	4788
2.20867	4788
2.20933	4788
2.21000	4788
2.21067	4788
2.21133	4788
2.21200	4789
2.21267	4789
2.21333	4789
2.21400	4790
2.21467	4790
2.21533	4791
2.21600	4791
2.21667	4792
2.21733	4793
2.21800	4793
2.21867	4794
2.21933	4795
2.22000	4796
2.22067	4797
2.22133	4798
2.22200	4799
2.22267	4800
2.22333	4801
2.22400	4802
2.22467	4803
2.22533	4804
2.22600	4805
2.22667	4805
2.22733	4806
2.22800	4807
2.22867	4808
2.22933	4809
2.23000	4810
2.23067	4810
2.23133	4811
2.23200	4812
2.23267	4812
2.23333	4813
2.23400	4813
2.23467	4813
2.23533	4814
2.23600	4814
2.23667	4814
2.23733	4814
2.23800	4814
2.23867	4814
2.23933	4814
2.24000	4814
2.24067	4814
2.24133	4814
2.24200	4813
2.24267	4813
2.24333	4813
2.24400	4812
2.24467	4812
2.24533	4812
2.24600	4811
2.24667	4811
2.24733	4810
2.24800	4810
2.24867	4809
2.24933	4809
2.25000	4808
2.25067	4808
2.25133	4807
2.25200	4807
2.25267	4806
2.25333	4806
2.25400	4805
2.25467	4805
2.25533	4804
2.25600	4803
2.25667	4803
2.25733	4802
2.25800	4801
2.25867	4801
2.25933	4800
2.26000	4799
2.26067	4798
2.26133	4798
2.26200	4797
2.26267	4796
2.26333	4795
2.26400	4794
2.26467	4793
2.26533	4792
2.26600	4791
2.26667	4790
2.26733	4789
2.26800	4788
2.26867	4787
2.26933	4786
2.27000	4785
2.27067	4784
2.27133	4783
2.27200	4782
2.27267	4780
2.27333	4779
2.27400	4778
2.27467	4777
2.27533	4775
2.27600	4774
2.27667	4773
2.27733	4771
2.27800	4770
2.27867	4769
2.27933	4767
2.28000	4766
2.28067	4765
2.28133	4763
2.28200	4762
2.28267	4760
2.28333	4759
2.28400	4757
2.28467	4756
2.28533	4754
2.28600	4753
2.28667	4751
2.28733	4750
2.28800	4748
2.28867	4747
2.28933	4745
2.29000	4744
2.29067	4742
2.29133	4740
2.29200	4739
2.29267	4738
2.29333	4736
2.29400	4735
2.29467	4733
2.29533	4732
2.29600	4731
2.29667	4729
2.29733	4728
2.29800	4727
2.29867	4725
2.29933	4724
2.30000	4723
2.30067	4721
2.30133	4720
2.30200	4719
2.30267	4718
2.30333	4717
2.30400	4716
2.30467	4715
2.30533	4714
2.30600	4713
2.30667	4712
2.30733	4711
2.30800	4710
2.30867	4709
2.30933	4708
2.31000	4708
2.31067	4707
2.31133	4706
2.31200	4705
2.31267	4705
2.31333	4704
2.31400	4704
2.31467	4703
2.31533	4703
2.31600	4702
2.31667	4702
2.31733	4701
2.31800	4701
2.31867	4701
2.31933	4700
2.32000	4700
2.32067	4700
2.32133	4699
2.32200	4699
2.32267	4699
2.32333	4699
2.32400	4698
2.32467	4698
2.32533	4698
2.32600	4698
2.32667	4698
2.32733	4698
2.32800	4698
2.32867	4698
2.32933	4698
2.33000	4698
2.33067	4698
2.33133	4698
2.33200	4698
2.33267	4698
2.33333	4698
2.33400	4698
2.33467	4699
2.33533	4699
2.33600	4699
2.33667	4699
2.33733	4699
2.33800	4700
2.33867	4700
2.33933	4700
2.34000	4700
2.34067	4700
2.34133	4701
2.34200	4701
2.34267	4701
2.34333	4701
2.34400	4702
2.34467	4702
2.34533	4702
2.34600	4702
2.34667	4702
2.34733	4702
2.34800	4703
2.34867	4703
2.34933	4703
2.35000	4703
2.35067	4704
2.35133	4704
2.35200	4704
2.35267	4704
2.35333	4705
2.35400	4705
2.35467	4705
2.35533	4706
2.35600	4706
2.35667	4706
2.35733	4707
2.35800	4707
2.35867	4707
2.35933	4707
2.36000	4708
2.36067	4708
2.36133	4708
2.36200	4709
2.36267	4709
2.36333	4710
2.36400	4710
2.36467	4710
2.36533	4711
2.36600	4711
2.36667	4711
2.36733	4712
2.36800	4712
2.36867	4712
2.36933	4713
2.37000	4713
2.37067	4713
2.37133	4714
2.37200	4714
2.37267	4714
2.37333	4714
2.37400	4714
2.37467	4714
2.37533	4715
2.37600	4715
2.37667	4715
2.37733	4715
2.37800	4715
2.37867	4715
2.37933	4715
2.38000	4715
2.38067	4715
2.38133	4715
2.38200	4715
2.38267	4715
2.38333	4715
2.38400	4715
2.38467	4715
2.38533	4715
2.38600	4715
2.38667	4715
2.38733	4715
2.38800	4715
2.38867	4715
2.38933	4714
2.39000	4714
2.39067	4714
2.39133	4714
2.39200	4714
2.39267	4714
2.39333	4714
2.39400	4714
2.39467	4714
2.39533	4714
2.39600	4714
2.39667	4714
2.39733	4714
2.39800	4714
2.39867	4714
2.39933	4713
2.40000	4713
2.40067	4713
2.40133	4713
2.40200	4713
2.40267	4713
2.40333	4713
2.40400	4712
2.40467	4712
2.40533	4712
2.40600	4712
2.40667	4712
2.40733	4712
2.40800	4712
2.40867	4712
2.40933	4712
2.41000	4712
2.41067	4711
2.41133	4711
2.41200	4711
2.41267	4711
2.41333	4711
2.41400	4710
2.41467	4710
2.41533	4710
2.41600	4710
2.41667	4709
2.41733	4709
2.41800	4709
2.41867	4708
2.41933	4708
2.42000	4708
2.42067	4707
2.42133	4707
2.42200	4707
2.42267	4706
2.42333	4706
2.42400	4706
2.42467	4705
2.42533	4705
2.42600	4704
2.42667	4704
2.42733	4703
2.42800	4703
2.42867	4702
2.42933	4702
2.43000	4701
2.43067	4701
2.43133	4700
2.43200	4700
2.43267	4699
2.43333	4698
2.43400	4698
2.43467	4697
2.43533	4696
2.43600	4695
2.43667	4694
2.43733	4693
2.43800	4693
2.43867	4692
2.43933	4691
2.44000	4690
2.44067	4688
2.44133	4687
2.44200	4686
2.44267	4685
2.44333	4684
2.44400	4682
2.44467	4681
2.44533	4680
2.44600	4678
2.44667	4677
2.44733	4676
2.44800	4674
2.44867	4673
2.44933	4671
2.45000	4670
2.45067	4668
2.45133	4667
2.45200	4665
2.45267	4664
2.45333	4662
2.45400	4660
2.45467	4658
2.45533	4657
2.45600	4655
2.45667	4653
2.45733	4651
2.45800	4650
2.45867	4648
2.45933	4646
2.46000	4644
2.46067	4643
2.46133	4641
2.46200	4639
2.46267	4637
2.46333	4635
2.46400	4634
2.46467	4632
2.46533	4630
2.46600	4628
2.46667	4626
2.46733	4624
2.46800	4622
2.46867	4621
2.46933	4619
2.47000	4617
2.47067	4615
2.47133	4613
2.47200	4611
2.47267	4610
2.47333	4608
2.47400	4606
2.47467	4604
2.47533	4602
2.47600	4600
2.47667	4599
2.47733	4597
2.47800	4595
2.47867	4593
2.47933	4591
2.48000	4589
2.48067	4588
2.48133	4586
2.48200	4584
2.48267	4582
2.48333	4580
2.48400	4578
2.48467	4577
2.48533	4575
2.48600	4573
2.48667	4571
2.48733	4570
2.48800	4568
2.48867	4566
2.48933	4565
2.49000	4563
2.49067	4562
2.49133	4560
2.49200	4558
2.49267	4557
2.49333	4555
2.49400	4554
2.49467	4552
2.49533	4551
2.49600	4549
2.49667	4548
2.49733	4546
2.49800	4545
2.49867	4543
2.49933	4542
2.50000	4540
2.50067	4538
2.50133	4537
2.50200	4535
2.50267	4534
2.50333	4532
2.50400	4530
2.50467	4529
2.50533	4527
2.50600	4526
2.50667	4524
2.50733	4523
2.50800	4521
2.50867	4520
2.50933	4518
2.51000	4516
2.51067	4515
2.51133	4513
2.51200	4512
2.51267	4510
2.51333	4509
2.51400	4507
2.51467	4506
2.51533	4504
2.51600	4503
2.51667	4502
2.51733	4500
2.51800	4499
2.51867	4497
2.51933	4496
2.52000	4494
2.52067	4493
2.52133	4491
2.52200	4490
2.52267	4488
2.52333	4486
2.52400	4485
2.52467	4483
2.52533	4482
2.52600	4480
2.52667	4478
2.52733	4477
2.52800	4475
2.52867	4474
2.52933	4472
2.53000	4470
2.53067	4468
2.53133	4467
2.53200	4465
2.53267	4463
2.53333	4461
2.53400	4460
2.53467	4458
2.53533	4456
2.53600	4455
2.53667	4453
2.53733	4451
2.53800	4449
2.53867	4448
2.53933	4446
2.54000	4444
2.54067	4442
2.54133	4441
2.54200	4439
2.54267	4437
2.54333	4436
2.54400	4434
2.54467	4432
2.54533	4431
2.54600	4429
2.54667	4427
2.54733	4426
2.54800	4424
2.54867	4423
2.54933	4421
2.55000	4419
2.55067	4418
2.55133	4416
2.55200	4415
2.55267	4413
2.55333	4412
2.55400	4410
2.55467	4409
2.55533	4407
2.55600	4406
2.55667	4404
2.55733	4403
2.55800	4401
2.55867	4400
2.55933	4399
2.56000	4397
2.56067	4396
2.56133	4394
2.56200	4393
2.56267	4392
2.56333	4390
2.56400	4389
2.56467	4388
2.56533	4386
2.56600	4385
2.56667	4383
2.56733	4382
2.56800	4381
2.56867	4380
2.56933	4379
2.57000	4378
2.57067	4377
2.57133	4375
2.57200	4374
2.57267	4373
2.57333	4372
2.57400	4371
2.57467	4370
2.57533	4369
2.57600	4368
2.57667	4367
2.57733	4366
2.57800	4365
2.57867	4364
2.57933	4363
2.58000	4362
2.58067	4361
2.58133	4360
2.58200	4359
2.58267	4358
2.58333	4357
2.58400	4356
2.58467	4355
2.58533	4354
2.58600	4353
2.58667	4352
2.58733	4351
2.58800	4350
2.58867	4349
2.58933	4348
2.59000	4347
2.59067	4346
2.59133	4345
2.59200	4344
2.59267	4343
2.59333	4342
2.59400	4341
2.59467	4340
2.59533	4339
2.59600	4338
2.59667	4337
2.59733	4336
2.59800	4335
2.59867	4334
2.59933	4333
2.60000	4332
2.60067	4331
2.60133	4330
2.60200	4329
2.60267	4328
2.60333	4327
2.60400	4326
2.60467	4325
2.60533	4324
2.60600	4323
2.60667	4322
2.60733	4322
2.60800	4321
2.60867	4320
2.60933	4319
2.61000	4318
2.61067	4317
2.61133	4316
2.61200	4315
2.61267	4315
2.61333	4314
2.61400	4313
2.61467	4312
2.61533	4311
2.61600	4310
2.61667	4309
2.61733	4309
2.61800	4308
2.61867	4307
2.61933	4306
2.62000	4305
2.62067	4304
2.62133	4303
2.62200	4302
2.62267	4301
2.62333	4301
2.62400	4300
2.62467	4299
2.62533	4298
2.62600	4298
2.62667	4297
2.62733	4296
2.62800	4295
2.62867	4294
2.62933	4294
2.63000	4293
2.63067	4292
2.63133	4291
2.63200	4290
2.63267	4290
2.63333	4289
2.63400	4288
2.63467	4287
2.63533	4287
2.63600	4286
2.63667	4285
2.63733	4284
2.63800	4283
2.63867	4282
2.63933	4282
2.64000	4281
2.64067	4280
2.64133	4279
2.64200	4278
2.64267	4277
2.64333	4276
2.64400	4276
2.64467	4275
2.64533	4274
2.64600	4273
2.64667	4272
2.64733	4271
2.64800	4270
2.64867	4270
2.64933	4269
2.65000	4268
2.65067	4267
2.65133	4266
2.65200	4265
2.65267	4264
2.65333	4263
2.65400	4262
2.65467	4261
2.65533	4260
2.65600	4259
2.65667	4258
2.65733	4256
2.65800	4255
2.65867	4254
2.65933	4253
2.66000	4252
2.66067	4251
2.66133	4250
2.66200	4248
2.66267	4247
2.66333	4246
2.66400	4245
2.66467	4244
2.66533	4242
2.66600	4241
2.66667	4240
2.66733	4239
2.66800	4237
2.66867	4236
2.66933	4235
2.67000	4233
2.67067	4232
2.67133	4231
2.67200	4229
2.67267	4228
2.67333	4226
2.67400	4225
2.67467	4224
2.67533	4222
2.67600	4221
2.67667	4219
2.67733	4218
2.67800	4216
2.67867	4215
2.67933	4214
2.68000	4212
2.68067	4211
2.68133	4210
2.68200	4208
2.68267	4207
2.68333	4206
2.68400	4204
2.68467	4203
2.68533	4202
2.68600	4201
2.68667	4200
2.68733	4199
2.68800	4197
2.68867	4196
2.68933	4195
2.69000	4194
2.69067	4193
2.69133	4192
2.69200	4191
2.69267	4190
2.69333	4189
2.69400	4188
2.69467	4187
2.69533	4186
2.69600	4185
2.69667	4184
2.69733	4184
2.69800	4183
2.69867	4182
2.69933	4181
2.70000	4180
2.70067	4180
2.70133	4179
2.70200	4178
2.70267	4177
2.70333	4177
2.70400	4176
2.70467	4175
2.70533	4175
2.70600	4174
2.70667	4173
2.70733	4173
2.70800	4172
2.70867	4171
2.70933	4171
2.71000	4170
2.71067	4169
2.71133	4168
2.71200	4168
2.71267	4167
2.71333	4166
2.71400	4165
2.71467	4165
2.71533	4164
2.71600	4163
2.71667	4162
2.71733	4162
2.71800	4161
2.71867	4160
2.71933	4159
2.72000	4158
2.72067	4158
2.72133	4157
2.72200	4156
2.72267	4156
2.72333	4155
2.72400	4154
2.72467	4153
2.72533	4153
2.72600	4152
2.72667	4151
2.72733	4151
2.72800	4150
2.72867	4149
2.72933	4149
2.73000	4148
2.73067	4147
2.73133	4147
2.73200	4146
2.73267	4145
2.73333	4145
2.73400	4144
2.73467	4143
2.73533	4143
2.73600	4142
2.73667	4142
2.73733	4141
2.73800	4141
2.73867	4141
2.73933	4140
2.74000	4140
2.74067	4139
2.74133	4139
2.74200	4139
2.74267	4138
2.74333	4138
2.74400	4138
2.74467	4138
2.74533	4137
2.74600	4137
2.74667	4137
2.74733	4137
2.74800	4137
2.74867	4136
2.74933	4136
2.75000	4136
2.75067	4136
2.75133	4136
2.75200	4135
2.75267	4135
2.75333	4135
2.75400	4135
2.75467	4135
2.75533	4135
2.75600	4135
2.75667	4135
2.75733	4135
2.75800	4135
2.75867	4135
2.75933	4135
2.76000	4135
2.76067	4135
2.76133	4135
2.76200	4136
2.76267	4136
2.76333	4137
2.76400	4137
2.76467	4137
2.76533	4138
2.76600	4138
2.76667	4139
2.76733	4140
2.76800	4140
2.76867	4141
2.76933	4142
2.77000	4142
2.77067	4143
2.77133	4144
2.77200	4145
2.77267	4146
2.77333	4147
2.77400	4148
2.77467	4149
2.77533	4150
2.77600	4151
2.77667	4152
2.77733	4153
2.77800	4155
2.77867	4156
2.77933	4157
2.78000	4158
2.78067	4160
2.78133	4161
2.78200	4163
2.78267	4165
2.78333	4166
2.78400	4168
2.78467	4170
2.78533	4172
2.78600	4174
2.78667	4176
2.78733	4178
2.78800	4180
2.78867	4182
2.78933	4184
2.79000	4187
2.79067	4189
2.79133	4192
2.79200	4194
2.79267	4197
2.79333	4200
2.79400	4203
2.79467	4206
2.79533	4209
2.79600	4212
2.79667	4215
2.79733	4218
2.79800	4222
2.79867	4225
2.79933	4229
2.80000	4232
2.80067	4236
2.80133	4240
2.80200	4243
2.80267	4247
2.80333	4251
2.80400	4255
2.80467	4259
2.80533	4263
2.80600	4267
2.80667	4271
2.80733	4275
2.80800	4279
2.80867	4283
2.80933	4287
2.81000	4291
2.81067	4295
2.81133	4299
2.81200	4303
2.81267	4307
2.81333	4310
2.81400	4314
2.81467	4318
2.81533	4321
2.81600	4325
2.81667	4328
2.81733	4332
2.81800	4335
2.81867	4338
2.81933	4342
2.82000	4345
2.82067	4348
2.82133	4350
2.82200	4353
2.82267	4356
2.82333	4358
2.82400	4361
2.82467	4363
2.82533	4365
2.82600	4367
2.82667	4369
2.82733	4371
2.82800	4373
2.82867	4375
2.82933	4376
2.83000	4377
2.83067	4379
2.83133	4380
2.83200	4381
2.83267	4381
2.83333	4382
2.83400	4383
2.83467	4383
2.83533	4383
2.83600	4383
2.83667	4383
2.83733	4383
2.83800	4383
2.83867	4382
2.83933	4382
2.84000	4381
2.84067	4381
2.84133	4380
2.84200	4379
2.84267	4378
2.84333	4376
2.84400	4375
2.84467	4374
2.84533	4372
2.84600	4370
2.84667	4369
2.84733	4367
2.84800	4365
2.84867	4363
2.84933	4361
2.85000	4359
2.85067	4357
2.85133	4355
2.85200	4353
2.85267	4351
2.85333	4349
2.85400	4347
2.85467	4345
2.85533	4342
2.85600	4340
2.85667	4338
2.85733	4336
2.85800	4334
2.85867	4331
2.85933	4329
2.86000	4327
2.86067	4325
2.86133	4323
2.86200	4321
2.86267	4319
2.86333	4317
2.86400	4315
2.86467	4313
2.86533	4311
2.86600	4309
2.86667	4307
2.86733	4305
2.86800	4303
2.86867	4302
2.86933	4300
2.87000	4299
2.87067	4297
2.87133	4296
2.87200	4295
2.87267	4294
2.87333	4293
2.87400	4292
2.87467	4291
2.87533	4290
2.87600	4290
2.87667	4289
2.87733	4289
2.87800	4289
2.87867	4289
2.87933	4289
2.88000	4290
2.88067	4291
2.88133	4291
2.88200	4292
2.88267	4293
2.88333	4295
2.88400	4296
2.88467	4298
2.88533	4300
2.88600	4302
2.88667	4304
2.88733	4307
2.88800	4310
2.88867	4313
2.88933	4316
2.89000	4319
2.89067	4322
2.89133	4326
2.89200	4330
2.89267	4334
2.89333	4338
2.89400	4343
2.89467	4347
2.89533	4352
2.89600	4357
2.89667	4362
2.89733	4367
2.89800	4373
2.89867	4378
2.89933	4383
2.90000	4389
2.90067	4394
2.90133	4400
2.90200	4406
2.90267	4411
2.90333	4417
2.90400	4423
2.90467	4428
2.90533	4434
2.90600	4440
2.90667	4445
2.90733	4450
2.90800	4456
2.90867	4461
2.90933	4466
2.91000	4470
2.91067	4475
2.91133	4479
2.91200	4483
2.91267	4487
2.91333	4491
2.91400	4494
2.91467	4497
2.91533	4500
2.91600	4503
2.91667	4505
2.91733	4507
2.91800	4509
2.91867	4510
2.91933	4511
2.92000	4512
2.92067	4512
2.92133	4512
2.92200	4512
2.92267	4512
2.92333	4511
2.92400	4509
2.92467	4508
2.92533	4506
2.92600	4504
2.92667	4501
2.92733	4498
2.92800	4495
2.92867	4492
2.92933	4488
2.93000	4484
2.93067	4480
2.93133	4475
2.93200	4471
2.93267	4466
2.93333	4461
2.93400	4455
2.93467	4450
2.93533	4444
2.93600	4438
2.93667	4432
2.93733	4426
2.93800	4420
2.93867	4413
2.93933	4406
2.94000	4400
2.94067	4393
2.94133	4386
2.94200	4379
2.94267	4372
2.94333	4365
2.94400	4357
2.94467	4350
2.94533	4343
2.94600	4335
2.94667	4328
2.94733	4320
2.94800	4313
2.94867	4306
2.94933	4298
2.95000	4291
2.95067	4283
2.95133	4276
2.95200	4268
2.95267	4261
2.95333	4253
2.95400	4246
2.95467	4239
2.95533	4232
2.95600	4225
2.95667	4218
2.95733	4211
2.95800	4204
2.95867	4197
2.95933	4190
2.96000	4184
2.96067	4177
2.96133	4170
2.96200	4164
2.96267	4158
2.96333	4152
2.96400	4146
2.96467	4140
2.96533	4134
2.96600	4128
2.96667	4122
2.96733	4116
2.96800	4111
2.96867	4105
2.96933	4100
2.97000	4095
2.97067	4089
2.97133	4084
2.97200	4079
2.97267	4074
2.97333	4069
2.97400	4064
2.97467	4060
2.97533	4055
2.97600	4050
2.97667	4046
2.97733	4042
2.97800	4037
2.97867	4033
2.97933	4029
2.98000	4024
2.98067	4020
2.98133	4016
2.98200	4012
2.98267	4008
2.98333	4004
2.98400	4000
2.98467	3997
2.98533	3993
2.98600	3989
2.98667	3986
2.98733	3982
2.98800	3978
2.98867	3975
2.98933	3972
2.99000	3968
2.99067	3965
2.99133	3962
2.99200	3959
2.99267	3955
2.99333	3952
2.99400	3949
2.99467	3946
2.99533	3943
2.99600	3940
2.99667	3937
2.99733	3934
2.99800	3931
2.99867	3928
2.99933	3925
3.00000	3923
3.00067	3920
3.00133	3917
3.00200	3914
3.00267	3911
3.00333	3909
3.00400	3906
3.00467	3903
3.00533	3901
3.00600	3898
3.00667	3896
3.00733	3893
3.00800	3891
3.00867	3888
3.00933	3886
3.01000	3884
3.01067	3881
3.01133	3879
3.01200	3877
3.01267	3874
3.01333	3872
3.01400	3870
3.01467	3868
3.01533	3866
3.01600	3863
3.01667	3861
3.01733	3859
3.01800	3857
3.01867	3855
3.01933	3853
3.02000	3851
3.02067	3849
3.02133	3848
3.02200	3846
3.02267	3844
3.02333	3842
3.02400	3840
3.02467	3838
3.02533	3837
3.02600	3835
3.02667	3833
3.02733	3831
3.02800	3829
3.02867	3828
3.02933	3826
3.03000	3824
3.03067	3823
3.03133	3821
3.03200	3819
3.03267	3818
3.03333	3816
3.03400	3815
3.03467	3813
3.03533	3812
3.03600	3810
3.03667	3809
3.03733	3807
3.03800	3806
3.03867	3804
3.03933	3803
3.04000	3801
3.04067	3800
3.04133	3798
3.04200	3797
3.04267	3795
3.04333	3794
3.04400	3793
3.04467	3791
3.04533	3790
3.04600	3789
3.04667	3787
3.04733	3786
3.04800	3785
3.04867	3783
3.04933	3782
3.05000	3781
3.05067	3780
3.05133	3778
3.05200	3777
3.05267	3776
3.05333	3775
3.05400	3774
3.05467	3773
3.05533	3772
3.05600	3771
3.05667	3769
3.05733	3768
3.05800	3767
3.05867	3766
3.05933	3765
3.06000	3764
3.06067	3763
3.06133	3762
3.06200	3761
3.06267	3760
3.06333	3759
3.06400	3758
3.06467	3757
3.06533	3756
3.06600	3755
3.06667	3754
3.06733	3753
3.06800	3752
3.06867	3751
3.06933	3750
3.07000	3749
3.07067	3748
3.07133	3747
3.07200	3746
3.07267	3745
3.07333	3744
3.07400	3744
3.07467	3743
3.07533	3742
3.07600	3741
3.07667	3740
3.07733	3740
3.07800	3739
3.07867	3738
3.07933	3738
3.08000	3737
3.08067	3736
3.08133	3736
3.08200	3735
3.08267	3734
3.08333	3734
3.08400	3733
3.08467	3733
3.08533	3732
3.08600	3731
3.08667	3731
3.08733	3730
3.08800	3730
3.08867	3729
3.08933	3728
3.09000	3728
3.09067	3727
3.09133	3727
3.09200	3726
3.09267	3725
3.09333	3725
3.09400	3724
3.09467	3723
3.09533	3722
3.09600	3721
3.09667	3721
3.09733	3720
3.09800	3719
3.09867	3718
3.09933	3717
3.10000	3716
3.10067	3715
3.10133	3715
3.10200	3714
3.10267	3713
3.10333	3712
3.10400	3711
3.10467	3710
3.10533	3709
3.10600	3708
3.10667	3707
3.10733	3706
3.10800	3705
3.10867	3704
3.10933	3703
3.11000	3702
3.11067	3700
3.11133	3699
3.11200	3698
3.11267	3697
3.11333	3696
3.11400	3695
3.11467	3694
3.11533	3693
3.11600	3692
3.11667	3691
3.11733	3690
3.11800	3689
3.11867	3688
3.11933	3687
3.12000	3686
3.12067	3685
3.12133	3683
3.12200	3682
3.12267	3681
3.12333	3680
3.12400	3679
3.12467	3677
3.12533	3676
3.12600	3675
3.12667	3674
3.12733	3672
3.12800	3671
3.12867	3670
3.12933	3669
3.13000	3668
3.13067	3667
3.13133	3666
3.13200	3664
3.13267	3663
3.13333	3662
3.13400	3661
3.13467	3660
3.13533	3659
3.13600	3658
3.13667	3657
3.13733	3656
3.13800	3655
3.13867	3655
3.13933	3654
3.14000	3653
3.14067	3652
3.14133	3652
3.14200	3651
3.14267	3650
3.14333	3650
3.14400	3649
3.14467	3648
3.14533	3648
3.14600	3647
3.14667	3647
3.14733	3646
3.14800	3645
3.14867	3645
3.14933	3644
3.15000	3644
3.15067	3643
3.15133	3642
3.15200	3642
3.15267	3641
3.15333	3640
3.15400	3640
3.15467	3639
3.15533	3638
3.15600	3638
3.15667	3637
3.15733	3636
3.15800	3635
3.15867	3635
3.15933	3634
3.16000	3633
3.16067	3633
3.16133	3632
3.16200	3632
3.16267	3631
3.16333	3630
3.16400	3630
3.16467	3629
3.16533	3628
3.16600	3628
3.16667	3627
3.16733	3626
3.16800	3626
3.16867	3625
3.16933	3624
3.17000	3623
3.17067	3622
3.17133	3622
3.17200	3621
3.17267	3620
3.17333	3619
3.17400	3618
3.17467	3617
3.17533	3617
3.17600	3616
3.17667	3615
3.17733	3614
3.17800	3613
3.17867	3612
3.17933	3611
3.18000	3611
3.18067	3610
3.18133	3609
3.18200	3608
3.18267	3608
3.18333	3607
3.18400	3606
3.18467	3605
3.18533	3605
3.18600	3604
3.18667	3603
3.18733	3602
3.18800	3602
3.18867	3601
3.18933	3600
3.19000	3600
3.19067	3599
3.19133	3598
3.19200	3598
3.19267	3597
3.19333	3596
3.19400	3596
3.19467	3595
3.19533	3594
3.19600	3594
3.19667	3593
3.19733	3592
3.19800	3592
3.19867	3591
3.19933	3590
3.20000	3589
3.20067	3589
3.20133	3588
3.20200	3587
3.20267	3586
3.20333	3586
3.20400	3585
3.20467	3584
3.20533	3583
3.20600	3583
3.20667	3582
3.20733	3581
3.20800	3580
3.20867	3580
3.20933	3579
3.21000	3578
3.21067	3578
3.21133	3577
3.21200	3576
3.21267	3576
3.21333	3575
3.21400	3575
3.21467	3574
3.21533	3574
3.21600	3573
3.21667	3573
3.21733	3572
3.21800	3571
3.21867	3571
3.21933	3570
3.22000	3570
3.22067	3569
3.22133	3569
3.22200	3568
3.22267	3567
3.22333	3567
3.22400	3566
3.22467	3566
3.22533	3565
3.22600	3565
3.22667	3564
3.22733	3564
3.22800	3564
3.22867	3563
3.22933	3563
3.23000	3562
3.23067	3562
3.23133	3562
3.23200	3561
3.23267	3561
3.23333	3561
3.23400	3560
3.23467	3560
3.23533	3560
3.23600	3559
3.23667	3559
3.23733	3558
3.23800	3558
3.23867	3558
3.23933	3557
3.24000	3557
3.24067	3557
3.24133	3556
3.24200	3556
3.24267	3555
3.24333	3555
3.24400	3555
3.24467	3554
3.24533	3554
3.24600	3553
3.24667	3553
3.24733	3553
3.24800	3552
3.24867	3552
3.24933	3551
3.25000	3551
3.25067	3551
3.25133	3550
3.25200	3550
3.25267	3550
3.25333	3549
3.25400	3549
3.25467	3549
3.25533	3548
3.25600	3548
3.25667	3548
3.25733	3547
3.25800	3547
3.25867	3547
3.25933	3546
3.26000	3546
3.26067	3546
3.26133	3546
3.26200	3545
3.26267	3545
3.26333	3545
3.26400	3544
3.26467	3544
3.26533	3544
3.26600	3544
3.26667	3543
3.26733	3543
3.26800	3543
3.26867	3542
3.26933	3542
3.27000	3542
3.27067	3541
3.27133	3541
3.27200	3541
3.27267	3540
3.27333	3540
3.27400	3540
3.27467	3540
3.27533	3539
3.27600	3539
3.27667	3539
3.27733	3539
3.27800	3538
3.27867	3538
3.27933	3538
3.28000	3538
3.28067	3538
3.28133	3537
3.28200	3537
3.28267	3537
3.28333	3537
3.28400	3537
3.28467	3536
3.28533	3536
3.28600	3536
3.28667	3535
3.28733	3535
3.28800	3535
3.28867	3535
3.28933	3534
3.29000	3534
3.29067	3534
3.29133	3534
3.29200	3534
3.29267	3533
3.29333	3533
3.29400	3533
3.29467	3533
3.29533	3533
3.29600	3533
3.29667	3533
3.29733	3532
3.29800	3532
3.29867	3532
3.29933	3532
3.30000	3532
3.30067	3532
3.30133	3531
3.30200	3531
3.30267	3531
3.30333	3531
3.30400	3531
3.30467	3531
3.30533	3530
3.30600	3530
3.30667	3530
3.30733	3530
3.30800	3529
3.30867	3529
3.30933	3529
3.31000	3529
3.31067	3528
3.31133	3528
3.31200	3528
3.31267	3528
3.31333	3527
3.31400	3527
3.31467	3527
3.31533	3527
3.31600	3526
3.31667	3526
3.31733	3526
3.31800	3526
3.31867	3525
3.31933	3525
3.32000	3525
3.32067	3525
3.32133	3524
3.32200	3524
3.32267	3524
3.32333	3523
3.32400	3523
3.32467	3523
3.32533	3522
3.32600	3522
3.32667	3522
3.32733	3521
3.32800	3521
3.32867	3521
3.32933	3520
3.33000	3520
3.33067	3520
3.33133	3519
3.33200	3519
3.33267	3518
3.33333	3518
3.33400	3518
3.33467	3517
3.33533	3517
3.33600	3516
3.33667	3516
3.33733	3515
3.33800	3515
3.33867	3514
3.33933	3514
3.34000	3513
3.34067	3513
3.34133	3512
3.34200	3512
3.34267	3511
3.34333	3511
3.34400	3510
3.34467	3509
3.34533	3509
3.34600	3508
3.34667	3508
3.34733	3507
3.34800	3506
3.34867	3506
3.34933	3505
3.35000	3504
3.35067	3504
3.35133	3503
3.35200	3503
3.35267	3502
3.35333	3501
3.35400	3501
3.35467	3500
3.35533	3499
3.35600	3499
3.35667	3498
3.35733	3498
3.35800	3497
3.35867	3496
3.35933	3496
3.36000	3495
3.36067	3495
3.36133	3494
3.36200	3494
3.36267	3493
3.36333	3493
3.36400	3492
3.36467	3492
3.36533	3492
3.36600	3491
3.36667	3491
3.36733	3490
3.36800	3490
3.36867	3490
3.36933	3489
3.37000	3489
3.37067	3489
3.37133	3488
3.37200	3488
3.37267	3488
3.37333	3488
3.37400	3487
3.37467	3487
3.37533	3487
3.37600	3486
3.37667	3486
3.37733	3486
3.37800	3486
3.37867	3486
3.37933	3485
3.38000	3485
3.38067	3485
3.38133	3485
3.38200	3485
3.38267	3485
3.38333	3484
3.38400	3484
3.38467	3484
3.38533	3484
3.38600	3484
3.38667	3484
3.38733	3484
3.38800	3484
3.38867	3483
3.38933	3483
3.39000	3483
3.39067	3483
3.39133	3483
3.39200	3483
3.39267	3483
3.39333	3483
3.39400	3483
3.39467	3483
3.39533	3483
3.39600	3483
3.39667	3483
3.39733	3483
3.39800	3483
3.39867	3483
3.39933	3483
3.40000	3483
3.40067	3483
3.40133	3484
3.40200	3484
3.40267	3484
3.40333	3484
3.40400	3484
3.40467	3484
3.40533	3485
3.40600	3485
3.40667	3485
3.40733	3485
3.40800	3485
3.40867	3485
3.40933	3486
3.41000	3486
3.41067	3486
3.41133	3486
3.41200	3486
3.41267	3486
3.41333	3487
3.41400	3487
3.41467	3487
3.41533	3487
3.41600	3488
3.41667	3488
3.41733	3488
3.41800	3489
3.41867	3489
3.41933	3489
3.42000	3490
3.42067	3490
3.42133	3490
3.42200	3491
3.42267	3491
3.42333	3491
3.42400	3492
3.42467	3492
3.42533	3492
3.42600	3493
3.42667	3493
3.42733	3494
3.42800	3494
3.42867	3494
3.42933	3495
3.43000	3495
3.43067	3496
3.43133	3496
3.43200	3496
3.43267	3497
3.43333	3497
3.43400	3498
3.43467	3498
3.43533	3499
3.43600	3499
3.43667	3500
3.43733	3500
3.43800	3500
3.43867	3501
3.43933	3501
3.44000	3502
3.44067	3502
3.44133	3503
3.44200	3503
3.44267	3504
3.44333	3504
3.44400	3504
3.44467	3505
3.44533	3506
3.44600	3506
3.44667	3507
3.44733	3507
3.44800	3508
3.44867	3509
3.44933	3509
3.45000	3510
3.45067	3510
3.45133	3511
3.45200	3512
3.45267	3513
3.45333	3513
3.45400	3514
3.45467	3515
3.45533	3516
3.45600	3517
3.45667	3517
3.45733	3518
3.45800	3519
3.45867	3520
3.45933	3521
3.46000	3522
3.46067	3523
3.46133	3524
3.46200	3525
3.46267	3526
3.46333	3527
3.46400	3528
3.46467	3529
3.46533	3530
3.46600	3531
3.46667	3532
3.46733	3534
3.46800	3535
3.46867	3536
3.46933	3537
3.47000	3538
3.47067	3539
3.47133	3540
3.47200	3542
3.47267	3543
3.47333	3544
3.47400	3545
3.47467	3547
3.47533	3548
3.47600	3550
3.47667	3551
3.47733	3553
3.47800	3554
3.47867	3556
3.47933	3557
3.48000	3559
3.48067	3561
3.48133	3563
3.48200	3564
3.48267	3566
3.48333	3568
3.48400	3570
3.48467	3572
3.48533	3574
3.48600	3576
3.48667	3578
3.48733	3580
3.48800	3582
3.48867	3584
3.48933	3587
3.49000	3589
3.49067	3591
3.49133	3594
3.49200	3596
3.49267	3599
3.49333	3602
3.49400	3604
3.49467	3607
3.49533	3610
3.49600	3613
3.49667	3617
3.49733	3620
3.49800	3623
3.49867	3627
3.49933	3630
3.50000	3634
3.50067	3638
3.50133	3642
3.50200	3646
3.50267	3651
3.50333	3655
3.50400	3660
3.50467	3665
3.50533	3670
3.50600	3675
3.50667	3680
3.50733	3686
3.50800	3692
3.50867	3698
3.50933	3704
3.51000	3711
3.51067	3718
3.51133	3725
3.51200	3732
3.51267	3740
3.51333	3748
3.51400	3757
3.51467	3765
3.51533	3774
3.51600	3783
3.51667	3793
3.51733	3803
3.51800	3813
3.51867	3824
3.51933	3835
3.52000	3846
3.52067	3858
3.52133	3870
3.52200	3882
3.52267	3895
3.52333	3908
3.52400	3922
3.52467	3936
3.52533	3950
3.52600	3964
3.52667	3979
3.52733	3995
3.52800	4010
3.52867	4026
3.52933	4043
3.53000	4060
3.53067	4077
3.53133	4095
3.53200	4113
3.53267	4131
3.53333	4150
3.53400	4169
3.53467	4188
3.53533	4208
3.53600	4228
3.53667	4248
3.53733	4269
3.53800	4290
3.53867	4311
3.53933	4332
3.54000	4354
3.54067	4375
3.54133	4397
3.54200	4419
3.54267	4441
3.54333	4463
3.54400	4485
3.54467	4508
3.54533	4530
3.54600	4552
3.54667	4574
3.54733	4596
3.54800	4618
3.54867	4640
3.54933	4662
3.55000	4683
3.55067	4705
3.55133	4726
3.55200	4747
3.55267	4768
3.55333	4789
3.55400	4809
3.55467	4829
3.55533	4849
3.55600	4868
3.55667	4888
3.55733	4907
3.55800	4925
3.55867	4944
3.55933	4961
3.56000	4979
3.56067	4996
3.56133	5013
3.56200	5030
3.56267	5046
3.56333	5061
3.56400	5076
3.56467	5091
3.56533	5106
3.56600	5119
3.56667	5133
3.56733	5146
3.56800	5159
3.56867	5171
3.56933	5183
3.57000	5195
3.57067	5206
3.57133	5217
3.57200	5227
3.57267	5237
3.57333	5247
3.57400	5256
3.57467	5265
3.57533	5273
3.57600	5281
3.57667	5289
3.57733	5297
3.57800	5304
3.57867	5311
3.57933	5318
3.58000	5324
3.58067	5331
3.58133	5336
3.58200	5342
3.58267	5348
3.58333	5353
3.58400	5358
3.58467	5363
3.58533	5368
3.58600	5373
3.58667	5377
3.58733	5382
3.58800	5386
3.58867	5390
3.58933	5395
3.59000	5399
3.59067	5403
3.59133	5406
3.59200	5410
3.59267	5414
3.59333	5418
3.59400	5421
3.59467	5425
3.59533	5428
3.59600	5432
3.59667	5435
3.59733	5438
3.59800	5442
3.59867	5445
3.59933	5448
3.60000	5451
3.60067	5454
3.60133	5457
3.60200	5460
3.60267	5463
3.60333	5466
3.60400	5469
3.60467	5471
3.60533	5474
3.60600	5477
3.60667	5479
3.60733	5482
3.60800	5484
3.60867	5486
3.60933	5488
3.61000	5489
3.61067	5491
3.61133	5492
3.61200	5493
3.61267	5494
3.61333	5495
3.61400	5496
3.61467	5496
3.61533	5496
3.61600	5496
3.61667	5495
3.61733	5494
3.61800	5493
3.61867	5492
3.61933	5490
3.62000	5488
3.62067	5485
3.62133	5482
3.62200	5479
3.62267	5476
3.62333	5472
3.62400	5467
3.62467	5462
3.62533	5457
3.62600	5452
3.62667	5445
3.62733	5439
3.62800	5432
3.62867	5425
3.62933	5417
3.63000	5409
3.63067	5400
3.63133	5391
3.63200	5381
3.63267	5371
3.63333	5361
3.63400	5350
3.63467	5339
3.63533	5327
3.63600	5315
3.63667	5303
3.63733	5290
3.63800	5277
3.63867	5264
3.63933	5250
3.64000	5236
3.64067	5221
3.64133	5207
3.64200	5192
3.64267	5176
3.64333	5161
3.64400	5145
3.64467	5128
3.64533	5112
3.64600	5095
3.64667	5078
3.64733	5061
3.64800	5043
3.64867	5026
3.64933	5008
3.65000	4990
3.65067	4972
3.65133	4954
3.65200	4935
3.65267	4917
3.65333	4898
3.65400	4880
3.65467	4861
3.65533	4842
3.65600	4823
3.65667	4804
3.65733	4785
3.65800	4766
3.65867	4747
3.65933	4728
3.66000	4709
3.66067	4690
3.66133	4671
3.66200	4652
3.66267	4633
3.66333	4614
3.66400	4595
3.66467	4576
3.66533	4557
3.66600	4539
3.66667	4520
3.66733	4502
3.66800	4483
3.66867	4465
3.66933	4447
3.67000	4429
3.67067	4411
3.67133	4394
3.67200	4376
3.67267	4359
3.67333	4342
3.67400	4325
3.67467	4308
3.67533	4291
3.67600	4274
3.67667	4258
3.67733	4241
3.67800	4225
3.67867	4210
3.67933	4194
3.68000	4178
3.68067	4163
3.68133	4148
3.68200	4133
3.68267	4118
3.68333	4104
3.68400	4089
3.68467	4075
3.68533	4061
3.68600	4047
3.68667	4034
3.68733	4021
3.68800	4007
3.68867	3994
3.68933	3982
3.69000	3969
3.69067	3957
3.69133	3945
3.69200	3933
3.69267	3921
3.69333	3909
3.69400	3898
3.69467	3887
3.69533	3876
3.69600	3865
3.69667	3854
3.69733	3844
3.69800	3834
3.69867	3824
3.69933	3814
3.70000	3804
3.70067	3795
3.70133	3785
3.70200	3776
3.70267	3767
3.70333	3758
3.70400	3750
3.70467	3741
3.70533	3733
3.70600	3724
3.70667	3716
3.70733	3708
3.70800	3700
3.70867	3693
3.70933	3685
3.71000	3678
3.71067	3671
3.71133	3664
3.71200	3657
3.71267	3650
3.71333	3644
3.71400	3637
3.71467	3631
3.71533	3624
3.71600	3618
3.71667	3612
3.71733	3606
3.71800	3601
3.71867	3595
3.71933	3589
3.72000	3584
3.72067	3578
3.72133	3573
3.72200	3568
3.72267	3563
3.72333	3558
3.72400	3553
3.72467	3548
3.72533	3543
3.72600	3539
3.72667	3534
3.72733	3530
3.72800	3525
3.72867	3521
3.72933	3517
3.73000	3513
3.73067	3509
3.73133	3505
3.73200	3501
3.73267	3497
3.73333	3493
3.73400	3489
3.73467	3486
3.73533	3482
3.73600	3478
3.73667	3475
3.73733	3471
3.73800	3468
3.73867	3464
3.73933	3461
3.74000	3457
3.74067	3454
3.74133	3451
3.74200	3448
3.74267	3444
3.74333	3441
3.74400	3438
3.74467	3435
3.74533	3432
3.74600	3430
3.74667	3427
3.74733	3424
3.74800	3421
3.74867	3419
3.74933	3416
3.75000	3413
3.75067	3411
3.75133	3408
3.75200	3406
3.75267	3403
3.75333	3401
3.75400	3399
3.75467	3396
3.75533	3394
3.75600	3392
3.75667	3390
3.75733	3388
3.75800	3386
3.75867	3384
3.75933	3382
3.76000	3380
3.76067	3378
3.76133	3376
3.76200	3374
3.76267	3372
3.76333	3370
3.76400	3368
3.76467	3366
3.76533	3364
3.76600	3363
3.76667	3361
3.76733	3359
3.76800	3357
3.76867	3355
3.76933	3353
3.77000	3352
3.77067	3350
3.77133	3348
3.77200	3346
3.77267	3345
3.77333	3343
3.77400	3341
3.77467	3339
3.77533	3338
3.77600	3336
3.77667	3335
3.77733	3333
3.77800	3331
3.77867	3330
3.77933	3328
3.78000	3326
3.78067	3325
3.78133	3323
3.78200	3322
3.78267	3320
3.78333	3319
3.78400	3317
3.78467	3316
3.78533	3315
3.78600	3313
3.78667	3312
3.78733	3311
3.78800	3310
3.78867	3308
3.78933	3307
3.79000	3306
3.79067	3305
3.79133	3304
3.79200	3303
3.79267	3302
3.79333	3301
3.79400	3299
3.79467	3298
3.79533	3297
3.79600	3296
3.79667	3295
3.79733	3294
3.79800	3293
3.79867	3292
3.79933	3291
3.80000	3290
3.80067	3289
3.80133	3288
3.80200	3287
3.80267	3286
3.80333	3285
3.80400	3284
3.80467	3283
3.80533	3282
3.80600	3282
3.80667	3281
3.80733	3280
3.80800	3279
3.80867	3278
3.80933	3277
3.81000	3276
3.81067	3275
3.81133	3274
3.81200	3274
3.81267	3273
3.81333	3272
3.81400	3271
3.81467	3270
3.81533	3270
3.81600	3269
3.81667	3268
3.81733	3267
3.81800	3266
3.81867	3265
3.81933	3265
3.82000	3264
3.82067	3263
3.82133	3262
3.82200	3261
3.82267	3260
3.82333	3259
3.82400	3259
3.82467	3258
3.82533	3257
3.82600	3256
3.82667	3255
3.82733	3254
3.82800	3253
3.82867	3252
3.82933	3251
3.83000	3251
3.83067	3250
3.83133	3249
3.83200	3248
3.83267	3247
3.83333	3246
3.83400	3245
3.83467	3245
3.83533	3244
3.83600	3243
3.83667	3242
3.83733	3241
3.83800	3241
3.83867	3240
3.83933	3239
3.84000	3238
3.84067	3238
3.84133	3237
3.84200	3236
3.84267	3235
3.84333	3235
3.84400	3234
3.84467	3233
3.84533	3232
3.84600	3231
3.84667	3231
3.84733	3230
3.84800	3229
3.84867	3228
3.84933	3228
3.85000	3227
3.85067	3226
3.85133	3225
3.85200	3224
3.85267	3224
3.85333	3223
3.85400	3222
3.85467	3221
3.85533	3220
3.85600	3220
3.85667	3219
3.85733	3218
3.85800	3217
3.85867	3216
3.85933	3216
3.86000	3215
3.86067	3214
3.86133	3213
3.86200	3212
3.86267	3212
3.86333	3211
3.86400	3210
3.86467	3209
3.86533	3208
3.86600	3208
3.86667	3207
3.86733	3206
3.86800	3206
3.86867	3205
3.86933	3204
3.87000	3204
3.87067	3203
3.87133	3202
3.87200	3202
3.87267	3201
3.87333	3201
3.87400	3201
3.87467	3200
3.87533	3200
3.87600	3199
3.87667	3199
3.87733	3199
3.87800	3198
3.87867	3198
3.87933	3198
3.88000	3198
3.88067	3197
3.88133	3197
3.88200	3197
3.88267	3197
3.88333	3196
3.88400	3196
3.88467	3196
3.88533	3196
3.88600	3196
3.88667	3196
3.88733	3195
3.88800	3195
3.88867	3195
3.88933	3195
3.89000	3195
3.89067	3194
3.89133	3194
3.89200	3194
3.89267	3194
3.89333	3194
3.89400	3194
3.89467	3193
3.89533	3193
3.89600	3193
3.89667	3193
3.89733	3193
3.89800	3192
3.89867	3192
3.89933	3192
3.90000	3192
3.90067	3192
3.90133	3192
3.90200	3192
3.90267	3192
3.90333	3192
3.90400	3192
3.90467	3192
3.90533	3191
3.90600	3191
3.90667	3191
3.90733	3191
3.90800	3191
3.90867	3191
3.90933	3191
3.91000	3191
3.91067	3191
3.91133	3191
3.91200	3191
3.91267	3191
3.91333	3191
3.91400	3190
3.91467	3190
3.91533	3190
3.91600	3190
3.91667	3190
3.91733	3190
3.91800	3190
3.91867	3190
3.91933	3190
3.92000	3190
3.92067	3190
3.92133	3190
3.92200	3190
3.92267	3189
3.92333	3189
3.92400	3189
3.92467	3189
3.92533	3189
3.92600	3189
3.92667	3189
3.92733	3189
3.92800	3189
3.92867	3188
3.92933	3188
3.93000	3188
3.93067	3188
3.93133	3188
3.93200	3188
3.93267	3188
3.93333	3188
3.93400	3188
3.93467	3188
3.93533	3188
3.93600	3188
3.93667	3188
3.93733	3188
3.93800	3188
3.93867	3187
3.93933	3187
3.94000	3187
3.94067	3187
3.94133	3187
3.94200	3187
3.94267	3187
3.94333	3187
3.94400	3186
3.94467	3186
3.94533	3186
3.94600	3186
3.94667	3186
3.94733	3185
3.94800	3185
3.94867	3185
3.94933	3185
3.95000	3184
3.95067	3184
3.95133	3184
3.95200	3184
3.95267	3183
3.95333	3183
3.95400	3183
3.95467	3182
3.95533	3182
3.95600	3182
3.95667	3181
3.95733	3181
3.95800	3181
3.95867	3181
3.95933	3180
3.96000	3180
3.96067	3180
3.96133	3179
3.96200	3179
3.96267	3179
3.96333	3179
3.96400	3178
3.96467	3178
3.96533	3178
3.96600	3177
3.96667	3177
3.96733	3177
3.96800	3176
3.96867	3176
3.96933	3176
3.97000	3176
3.97067	3175
3.97133	3175
3.97200	3175
3.97267	3175
3.97333	3174
3.97400	3174
3.97467	3174
3.97533	3174
3.97600	3174
3.97667	3173
3.97733	3173
3.97800	3173
3.97867	3173
3.97933	3173
3.98000	3173
3.98067	3172
3.98133	3172
3.98200	3172
3.98267	3172
3.98333	3172
3.98400	3172
3.98467	3172
3.98533	3172
3.98600	3172
3.98667	3172
3.98733	3172
3.98800	3173
3.98867	3173
3.98933	3173
3.99000	3173
3.99067	3174
3.99133	3174
3.99200	3174
3.99267	3175
3.99333	3175
3.99400	3176
3.99467	3177
3.99533	3177
3.99600	3178
3.99667	3179
3.99733	3179
3.99800	3180
3.99867	3181
3.99933	3182
4.00000	3183
4.00067	3184
4.00133	3185
4.00200	3186
4.00267	3187
4.00333	3189
4.00400	3190
4.00467	3191
4.00533	3193
4.00600	3194
4.00667	3196
4.00733	3198
4.00800	3199
4.00867	3201
4.00933	3203
4.01000	3205
4.01067	3207
4.01133	3209
4.01200	3212
4.01267	3214
4.01333	3216
4.01400	3219
4.01467	3222
4.01533	3224
4.01600	3227
4.01667	3230
4.01733	3233
4.01800	3236
4.01867	3239
4.01933	3243
4.02000	3246
4.02067	3249
4.02133	3253
4.02200	3257
4.02267	3260
4.02333	3264
4.02400	3268
4.02467	3272
4.02533	3276
4.02600	3281
4.02667	3285
4.02733	3289
4.02800	3294
4.02867	3298
4.02933	3303
4.03000	3308
4.03067	3313
4.03133	3318
4.03200	3323
4.03267	3328
4.03333	3333
4.03400	3339
4.03467	3344
4.03533	3350
4.03600	3355
4.03667	3361
4.03733	3367
4.03800	3372
4.03867	3378
4.03933	3384
4.04000	3390
4.04067	3397
4.04133	3403
4.04200	3409
4.04267	3416
4.04333	3422
4.04400	3429
4.04467	3436
4.04533	3443
4.04600	3450
4.04667	3457
4.04733	3464
4.04800	3472
4.04867	3479
4.04933	3486
4.05000	3494
4.05067	3501
4.05133	3508
4.05200	3516
4.05267	3523
4.05333	3531
4.05400	3538
4.05467	3546
4.05533	3553
4.05600	3561
4.05667	3568
4.05733	3576
4.05800	3584
4.05867	3591
4.05933	3599
4.06000	3606
4.06067	3613
4.06133	3621
4.06200	3628
4.06267	3635
4.06333	3642
4.06400	3650
4.06467	3657
4.06533	3664
4.06600	3671
4.06667	3678
4.06733	3685
4.06800	3691
4.06867	3698
4.06933	3705
4.07000	3712
4.07067	3718
4.07133	3725
4.07200	3731
4.07267	3737
4.07333	3743
4.07400	3749
4.07467	3755
4.07533	3761
4.07600	3767
4.07667	3772
4.07733	3778
4.07800	3783
4.07867	3788
4.07933	3794
4.08000	3799
4.08067	3804
4.08133	3809
4.08200	3813
4.08267	3818
4.08333	3822
4.08400	3827
4.08467	3831
4.08533	3835
4.08600	3839
4.08667	3844
4.08733	3848
4.08800	3851
4.08867	3855
4.08933	3859
4.09000	3863
4.09067	3866
4.09133	3869
4.09200	3873
4.09267	3876
4.09333	3879
4.09400	3882
4.09467	3885
4.09533	3888
4.09600	3890
4.09667	3893
4.09733	3896
4.09800	3898
4.09867	3900
4.09933	3903
4.10000	3905
4.10067	3907
4.10133	3909
4.10200	3911
4.10267	3913
4.10333	3915
4.10400	3917
4.10467	3919
4.10533	3921
4.10600	3922
4.10667	3924
4.10733	3926
4.10800	3927
4.10867	3929
4.10933	3930
4.11000	3932
4.11067	3933
4.11133	3935
4.11200	3936
4.11267	3938
4.11333	3939
4.11400	3940
4.11467	3942
4.11533	3943
4.11600	3944
4.11667	3946
4.11733	3947
4.11800	3948
4.11867	3949
4.11933	3951
4.12000	3952
4.12067	3954
4.12133	3955
4.12200	3957
4.12267	3958
4.12333	3960
4.12400	3962
4.12467	3963
4.12533	3965
4.12600	3967
4.12667	3969
4.12733	3971
4.12800	3972
4.12867	3974
4.12933	3977
4.13000	3979
4.13067	3981
4.13133	3983
4.13200	3985
4.13267	3988
4.13333	3990
4.13400	3993
4.13467	3995
4.13533	3998
4.13600	4001
4.13667	4003
4.13733	4006
4.13800	4009
4.13867	4012
4.13933	4015
4.14000	4018
4.14067	4021
4.14133	4025
4.14200	4028
4.14267	4032
4.14333	4035
4.14400	4039
4.14467	4042
4.14533	4046
4.14600	4050
4.14667	4054
4.14733	4058
4.14800	4062
4.14867	4066
4.14933	4070
4.15000	4074
4.15067	4079
4.15133	4083
4.15200	4087
4.15267	4092
4.15333	4096
4.15400	4101
4.15467	4106
4.15533	4110
4.15600	4115
4.15667	4120
4.15733	4125
4.15800	4130
4.15867	4136
4.15933	4141
4.16000	4146
4.16067	4152
4.16133	4157
4.16200	4163
4.16267	4169
4.16333	4175
4.16400	4181
4.16467	4187
4.16533	4193
4.16600	4199
4.16667	4206
4.16733	4212
4.16800	4219
4.16867	4225
4.16933	4232
4.17000	4239
4.17067	4246
4.17133	4254
4.17200	4261
4.17267	4268
4.17333	4276
4.17400	4284
4.17467	4291
4.17533	4299
4.17600	4307
4.17667	4316
4.17733	4324
4.17800	4332
4.17867	4341
4.17933	4350
4.18000	4359
4.18067	4368
4.18133	4377
4.18200	4387
4.18267	4396
4.18333	4406
4.18400	4416
4.18467	4426
4.18533	4437
4.18600	4447
4.18667	4458
4.18733	4469
4.18800	4480
4.18867	4492
4.18933	4504
4.19000	4516
4.19067	4528
4.19133	4540
4.19200	4553
4.19267	4566
4.19333	4579
4.19400	4592
4.19467	4606
4.19533	4620
4.19600	4634
4.19667	4649
4.19733	4664
4.19800	4679
4.19867	4694
4.19933	4710
4.20000	4726
4.20067	4743
4.20133	4760
4.20200	4777
4.20267	4794
4.20333	4812
4.20400	4831
4.20467	4850
4.20533	4869
4.20600	4888
4.20667	4909
4.20733	4929
4.20800	4950
4.20867	4972
4.20933	4994
4.21000	5017
4.21067	5040
4.21133	5064
4.21200	5088
4.21267	5113
4.21333	5139
4.21400	5165
4.21467	5192
4.21533	5219
4.21600	5247
4.21667	5276
4.21733	5306
4.21800	5336
4.21867	5367
4.21933	5399
4.22000	5431
4.22067	5464
4.22133	5498
4.22200	5533
4.22267	5569
4.22333	5605
4.22400	5643
4.22467	5681
4.22533	5721
4.22600	5761
4.22667	5802
4.22733	5844
4.22800	5887
4.22867	5932
4.22933	5977
4.23000	6023
4.23067	6070
4.23133	6119
4.23200	6169
4.23267	6219
4.23333	6271
4.23400	6325
4.23467	6379
4.23533	6435
4.23600	6492
4.23667	6551
4.23733	6610
4.23800	6672
4.23867	6734
4.23933	6798
4.24000	6864
4.24067	6931
4.24133	7000
4.24200	7070
4.24267	7142
4.24333	7216
4.24400	7291
4.24467	7368
4.24533	7447
4.24600	7527
4.24667	7610
4.24733	7694
4.24800	7780
4.24867	7868
4.24933	7958
4.25000	8050
4.25067	8145
4.25133	8241
4.25200	8339
4.25267	8440
4.25333	8543
4.25400	8648
4.25467	8755
4.25533	8864
4.25600	8976
4.25667	9090
4.25733	9207
4.25800	9326
4.25867	9447
4.25933	9571
4.26000	9697
4.26067	9827
4.26133	9958
4.26200	10093
4.26267	10230
4.26333	10370
4.26400	10513
4.26467	10659
4.26533	10808
4.26600	10960
4.26667	11114
4.26733	11272
4.26800	11434
4.26867	11598
4.26933	11765
4.27000	11936
4.27067	12111
4.27133	12288
4.27200	12469
4.27267	12654
4.27333	12842
4.27400	13034
4.27467	13229
4.27533	13428
4.27600	13631
4.27667	13838
4.27733	14048
4.27800	14263
4.27867	14481
4.27933	14704
4.28000	14931
4.28067	15161
4.28133	15396
4.28200	15634
4.28267	15877
4.28333	16124
4.28400	16375
4.28467	16630
4.28533	16889
4.28600	17153
4.28667	17420
4.28733	17692
4.28800	17967
4.28867	18247
4.28933	18531
4.29000	18819
4.29067	19111
4.29133	19407
4.29200	19707
4.29267	20010
4.29333	20318
4.29400	20629
4.29467	20944
4.29533	21263
4.29600	21587
4.29667	21913
4.29733	22244
4.29800	22579
4.29867	22918
4.29933	23260
4.30000	23606
4.30067	23956
4.30133	24309
4.30200	24666
4.30267	25026
4.30333	25389
4.30400	25755
4.30467	26123
4.30533	26494
4.30600	26868
4.30667	27243
4.30733	27620
4.30800	27998
4.30867	28378
4.30933	28759
4.31000	29141
4.31067	29523
4.31133	29907
4.31200	30291
4.31267	30675
4.31333	31060
4.31400	31445
4.31467	31831
4.31533	32216
4.31600	32602
4.31667	32988
4.31733	33373
4.31800	33758
4.31867	34143
4.31933	34527
4.32000	34909
4.32067	35290
4.32133	35670
4.32200	36047
4.32267	36422
4.32333	36794
4.32400	37163
4.32467	37528
4.32533	37889
4.32600	38246
4.32667	38598
4.32733	38946
4.32800	39288
4.32867	39625
4.32933	39957
4.33000	40282
4.33067	40602
4.33133	40915
4.33200	41221
4.33267	41520
4.33333	41812
4.33400	42096
4.33467	42372
4.33533	42640
4.33600	42899
4.33667	43150
4.33733	43392
4.33800	43624
4.33867	43848
4.33933	44062
4.34000	44266
4.34067	44461
4.34133	44646
4.34200	44820
4.34267	44985
4.34333	45139
4.34400	45283
4.34467	45416
4.34533	45539
4.34600	45651
4.34667	45752
4.34733	45843
4.34800	45923
4.34867	45991
4.34933	46049
4.35000	46096
4.35067	46131
4.35133	46156
4.35200	46170
4.35267	46172
4.35333	46164
4.35400	46144
4.35467	46115
4.35533	46074
4.35600	46023
4.35667	45962
4.35733	45891
4.35800	45810
4.35867	45720
4.35933	45620
4.36000	45511
4.36067	45393
4.36133	45266
4.36200	45131
4.36267	44988
4.36333	44836
4.36400	44676
4.36467	44509
4.36533	44333
4.36600	44151
4.36667	43961
4.36733	43764
4.36800	43561
4.36867	43351
4.36933	43135
4.37000	42914
4.37067	42686
4.37133	42454
4.37200	42216
4.37267	41974
4.37333	41727
4.37400	41476
4.37467	41221
4.37533	40963
4.37600	40701
4.37667	40436
4.37733	40169
4.37800	39898
4.37867	39626
4.37933	39352
4.38000	39076
4.38067	38799
4.38133	38520
4.38200	38241
4.38267	37961
4.38333	37680
4.38400	37400
4.38467	37119
4.38533	36839
4.38600	36559
4.38667	36280
4.38733	36002
4.38800	35726
4.38867	35450
4.38933	35177
4.39000	34905
4.39067	34635
4.39133	34367
4.39200	34102
4.39267	33839
4.39333	33579
4.39400	33321
4.39467	33067
4.39533	32815
4.39600	32567
4.39667	32323
4.39733	32082
4.39800	31844
4.39867	31610
4.39933	31380
4.40000	31153
4.40067	30931
4.40133	30712
4.40200	30497
4.40267	30287
4.40333	30081
4.40400	29879
4.40467	29682
4.40533	29488
4.40600	29300
4.40667	29116
4.40733	28936
4.40800	28761
4.40867	28590
4.40933	28424
4.41000	28262
4.41067	28104
4.41133	27951
4.41200	27802
4.41267	27658
4.41333	27518
4.41400	27382
4.41467	27251
4.41533	27123
4.41600	27000
4.41667	26881
4.41733	26766
4.41800	26654
4.41867	26547
4.41933	26443
4.42000	26343
4.42067	26247
4.42133	26154
4.42200	26064
4.42267	25978
4.42333	25894
4.42400	25814
4.42467	25736
4.42533	25662
4.42600	25590
4.42667	25520
4.42733	25453
4.42800	25389
4.42867	25327
4.42933	25267
4.43000	25210
4.43067	25154
4.43133	25100
4.43200	25049
4.43267	24999
4.43333	24951
4.43400	24904
4.43467	24859
4.43533	24815
4.43600	24773
4.43667	24731
4.43733	24691
4.43800	24651
4.43867	24612
4.43933	24573
4.44000	24535
4.44067	24497
4.44133	24460
4.44200	24423
4.44267	24386
4.44333	24349
4.44400	24312
4.44467	24274
4.44533	24237
4.44600	24199
4.44667	24161
4.44733	24122
4.44800	24082
4.44867	24042
4.44933	24001
4.45000	23960
4.45067	23917
4.45133	23874
4.45200	23829
4.45267	23784
4.45333	23737
4.45400	23689
4.45467	23640
4.45533	23589
4.45600	23537
4.45667	23484
4.45733	23429
4.45800	23372
4.45867	23315
4.45933	23256
4.46000	23195
4.46067	23134
4.46133	23070
4.46200	23005
4.46267	22939
4.46333	22871
4.46400	22802
4.46467	22731
4.46533	22659
4.46600	22585
4.46667	22509
4.46733	22432
4.46800	22353
4.46867	22273
4.46933	22191
4.47000	22108
4.47067	22024
4.47133	21938
4.47200	21850
4.47267	21761
4.47333	21671
4.47400	21579
4.47467	21486
4.47533	21392
4.47600	21297
4.47667	21200
4.47733	21102
4.47800	21003
4.47867	20902
4.47933	20800
4.48000	20698
4.48067	20594
4.48133	20489
4.48200	20383
4.48267	20276
4.48333	20168
4.48400	20059
4.48467	19949
4.48533	19839
4.48600	19727
4.48667	19616
4.48733	19503
4.48800	19390
4.48867	19277
4.48933	19163
4.49000	19049
4.49067	18934
4.49133	18820
4.49200	18704
4.49267	18589
4.49333	18474
4.49400	18358
4.49467	18243
4.49533	18127
4.49600	18011
4.49667	17895
4.49733	17780
4.49800	17665
4.49867	17549
4.49933	17435
4.50000	17320
4.50067	17206
4.50133	17092
4.50200	16979
4.50267	16866
4.50333	16754
4.50400	16642
4.50467	16532
4.50533	16421
4.50600	16312
4.50667	16204
4.50733	16096
4.50800	15990
4.50867	15884
4.50933	15780
4.51000	15676
4.51067	15574
4.51133	15473
4.51200	15373
4.51267	15275
4.51333	15178
4.51400	15082
4.51467	14988
4.51533	14895
4.51600	14804
4.51667	14714
4.51733	14626
4.51800	14539
4.51867	14454
4.51933	14371
4.52000	14289
4.52067	14210
4.52133	14132
4.52200	14056
4.52267	13982
4.52333	13909
4.52400	13839
4.52467	13771
4.52533	13705
4.52600	13641
4.52667	13580
4.52733	13520
4.52800	13463
4.52867	13408
4.52933	13355
4.53000	13305
4.53067	13257
4.53133	13211
4.53200	13168
4.53267	13127
4.53333	13088
4.53400	13052
4.53467	13019
4.53533	12988
4.53600	12960
4.53667	12935
4.53733	12912
4.53800	12891
4.53867	12873
4.53933	12858
4.54000	12846
4.54067	12836
4.54133	12829
4.54200	12824
4.54267	12822
4.54333	12823
4.54400	12826
4.54467	12832
4.54533	12841
4.54600	12853
4.54667	12867
4.54733	12885
4.54800	12905
4.54867	12927
4.54933	12953
4.55000	12981
4.55067	13012
4.55133	13045
4.55200	13081
4.55267	13120
4.55333	13161
4.55400	13205
4.55467	13251
4.55533	13300
4.55600	13351
4.55667	13404
4.55733	13460
4.55800	13518
4.55867	13578
4.55933	13641
4.56000	13706
4.56067	13773
4.56133	13842
4.56200	13913
4.56267	13986
4.56333	14062
4.56400	14139
4.56467	14218
4.56533	14299
4.56600	14382
4.56667	14467
4.56733	14553
4.56800	14641
4.56867	14730
4.56933	14821
4.57000	14914
4.57067	15007
4.57133	15102
4.57200	15198
4.57267	15295
4.57333	15394
4.57400	15493
4.57467	15594
4.57533	15695
4.57600	15797
4.57667	15900
4.57733	16004
4.57800	16109
4.57867	16214
4.57933	16320
4.58000	16427
4.58067	16534
4.58133	16642
4.58200	16749
4.58267	16857
4.58333	16966
4.58400	17074
4.58467	17182
4.58533	17290
4.58600	17398
4.58667	17506
4.58733	17613
4.58800	17719
4.58867	17825
4.58933	17929
4.59000	18033
4.59067	18136
4.59133	18238
4.59200	18339
4.59267	18439
4.59333	18537
4.59400	18634
4.59467	18729
4.59533	18823
4.59600	18916
4.59667	19007
4.59733	19096
4.59800	19184
4.59867	19269
4.59933	19354
4.60000	19436
4.60067	19516
4.60133	19594
4.60200	19670
4.60267	19745
4.60333	19817
4.60400	19887
4.60467	19954
4.60533	20020
4.60600	20083
4.60667	20144
4.60733	20203
4.60800	20260
4.60867	20314
4.60933	20366
4.61000	20416
4.61067	20464
4.61133	20510
4.61200	20553
4.61267	20594
4.61333	20632
4.61400	20668
4.61467	20702
4.61533	20734
4.61600	20764
4.61667	20791
4.61733	20816
4.61800	20839
4.61867	20859
4.61933	20878
4.62000	20894
4.62067	20908
4.62133	20919
4.62200	20929
4.62267	20936
4.62333	20942
4.62400	20945
4.62467	20947
4.62533	20946
4.62600	20943
4.62667	20939
4.62733	20933
4.62800	20924
4.62867	20914
4.62933	20902
4.63000	20888
4.63067	20872
4.63133	20855
4.63200	20836
4.63267	20814
4.63333	20791
4.63400	20767
4.63467	20740
4.63533	20712
4.63600	20682
4.63667	20650
4.63733	20617
4.63800	20583
4.63867	20547
4.63933	20509
4.64000	20470
4.64067	20430
4.64133	20389
4.64200	20346
4.64267	20302
4.64333	20257
4.64400	20210
4.64467	20163
4.64533	20115
4.64600	20066
4.64667	20015
4.64733	19964
4.64800	19913
4.64867	19860
4.64933	19807
4.65000	19753
4.65067	19699
4.65133	19644
4.65200	19588
4.65267	19532
4.65333	19476
4.65400	19419
4.65467	19361
4.65533	19303
4.65600	19245
4.65667	19186
4.65733	19127
4.65800	19068
4.65867	19008
4.65933	18948
4.66000	18888
4.66067	18828
4.66133	18768
4.66200	18707
4.66267	18646
4.66333	18585
4.66400	18524
4.66467	18463
4.66533	18402
4.66600	18341
4.66667	18280
4.66733	18219
4.66800	18158
4.66867	18097
4.66933	18036
4.67000	17975
4.67067	17915
4.67133	17855
4.67200	17795
4.67267	17735
4.67333	17675
4.67400	17616
4.67467	17557
4.67533	17498
4.67600	17440
4.67667	17381
4.67733	17323
4.67800	17266
4.67867	17208
4.67933	17151
4.68000	17094
4.68067	17037
4.68133	16981
4.68200	16924
4.68267	16868
4.68333	16813
4.68400	16758
4.68467	16703
4.68533	16648
4.68600	16593
4.68667	16539
4.68733	16486
4.68800	16432
4.68867	16379
4.68933	16326
4.69000	16274
4.69067	16222
4.69133	16170
4.69200	16119
4.69267	16067
4.69333	16017
4.69400	15966
4.69467	15916
4.69533	15866
4.69600	15817
4.69667	15768
4.69733	15720
4.69800	15671
4.69867	15624
4.69933	15576
4.70000	15530
4.70067	15483
4.70133	15437
4.70200	15392
4.70267	15347
4.70333	15303
4.70400	15259
4.70467	15215
4.70533	15172
4.70600	15130
4.70667	15088
4.70733	15046
4.70800	15005
4.70867	14964
4.70933	14923
4.71000	14883
4.71067	14844
4.71133	14805
4.71200	14766
4.71267	14728
4.71333	14690
4.71400	14653
4.71467	14616
4.71533	14579
4.71600	14543
4.71667	14507
4.71733	14471
4.71800	14436
4.71867	14401
4.71933	14367
4.72000	14333
4.72067	14299
4.72133	14266
4.72200	14232
4.72267	14199
4.72333	14167
4.72400	14134
4.72467	14102
4.72533	14070
4.72600	14039
4.72667	14008
4.72733	13977
4.72800	13946
4.72867	13915
4.72933	13885
4.73000	13855
4.73067	13826
4.73133	13797
4.73200	13768
4.73267	13739
4.73333	13711
4.73400	13683
4.73467	13655
4.73533	13627
4.73600	13600
4.73667	13573
4.73733	13546
4.73800	13520
4.73867	13494
4.73933	13468
4.74000	13443
4.74067	13417
4.74133	13392
4.74200	13367
4.74267	13342
4.74333	13318
4.74400	13294
4.74467	13270
4.74533	13246
4.74600	13222
4.74667	13199
4.74733	13176
4.74800	13154
4.74867	13131
4.74933	13109
4.75000	13087
4.75067	13065
4.75133	13044
4.75200	13023
4.75267	13002
4.75333	12981
4.75400	12961
4.75467	12940
4.75533	12920
4.75600	12900
4.75667	12880
4.75733	12861
4.75800	12841
4.75867	12822
4.75933	12803
4.76000	12784
4.76067	12765
4.76133	12746
4.76200	12727
4.76267	12709
4.76333	12690
4.76400	12672
4.76467	12653
4.76533	12635
4.76600	12617
4.76667	12599
4.76733	12581
4.76800	12563
4.76867	12545
4.76933	12527
4.77000	12509
4.77067	12492
4.77133	12474
4.77200	12456
4.77267	12438
4.77333	12421
4.77400	12403
4.77467	12386
4.77533	12368
4.77600	12351
4.77667	12334
4.77733	12317
4.77800	12300
4.77867	12283
4.77933	12267
4.78000	12250
4.78067	12234
4.78133	12217
4.78200	12201
4.78267	12185
4.78333	12169
4.78400	12153
4.78467	12137
4.78533	12121
4.78600	12106
4.78667	12090
4.78733	12075
4.78800	12060
4.78867	12045
4.78933	12030
4.79000	12015
4.79067	12000
4.79133	11985
4.79200	11971
4.79267	11957
4.79333	11943
4.79400	11928
4.79467	11915
4.79533	11901
4.79600	11887
4.79667	11873
4.79733	11860
4.79800	11847
4.79867	11833
4.79933	11820
4.80000	11807
4.80067	11795
4.80133	11782
4.80200	11769
4.80267	11756
4.80333	11744
4.80400	11731
4.80467	11719
4.80533	11707
4.80600	11694
4.80667	11682
4.80733	11669
4.80800	11657
4.80867	11645
4.80933	11632
4.81000	11620
4.81067	11608
4.81133	11595
4.81200	11583
4.81267	11571
4.81333	11558
4.81400	11546
4.81467	11534
4.81533	11521
4.81600	11509
4.81667	11497
4.81733	11484
4.81800	11472
4.81867	11460
4.81933	11447
4.82000	11435
4.82067	11423
4.82133	11411
4.82200	11399
4.82267	11387
4.82333	11375
4.82400	11364
4.82467	11352
4.82533	11341
4.82600	11329
4.82667	11318
4.82733	11306
4.82800	11295
4.82867	11284
4.82933	11273
4.83000	11261
4.83067	11250
4.83133	11239
4.83200	11228
4.83267	11217
4.83333	11206
4.83400	11195
4.83467	11184
4.83533	11173
4.83600	11162
4.83667	11152
4.83733	11141
4.83800	11130
4.83867	11120
4.83933	11109
4.84000	11099
4.84067	11088
4.84133	11078
4.84200	11068
4.84267	11057
4.84333	11047
4.84400	11037
4.84467	11027
4.84533	11017
4.84600	11006
4.84667	10997
4.84733	10987
4.84800	10977
4.84867	10967
4.84933	10957
4.85000	10948
4.85067	10938
4.85133	10928
4.85200	10919
4.85267	10909
4.85333	10900
4.85400	10891
4.85467	10881
4.85533	10872
4.85600	10863
4.85667	10853
4.85733	10844
4.85800	10835
4.85867	10826
4.85933	10817
4.86000	10808
4.86067	10799
4.86133	10790
4.86200	10780
4.86267	10771
4.86333	10762
4.86400	10754
4.86467	10745
4.86533	10736
4.86600	10727
4.86667	10718
4.86733	10709
4.86800	10701
4.86867	10692
4.86933	10683
4.87000	10675
4.87067	10666
4.87133	10657
4.87200	10649
4.87267	10640
4.87333	10632
4.87400	10624
4.87467	10615
4.87533	10607
4.87600	10598
4.87667	10590
4.87733	10582
4.87800	10573
4.87867	10565
4.87933	10557
4.88000	10549
4.88067	10541
4.88133	10532
4.88200	10524
4.88267	10516
4.88333	10508
4.88400	10500
4.88467	10492
4.88533	10484
4.88600	10476
4.88667	10468
4.88733	10459
4.88800	10451
4.88867	10443
4.88933	10435
4.89000	10427
4.89067	10418
4.89133	10410
4.89200	10401
4.89267	10393
4.89333	10385
4.89400	10376
4.89467	10368
4.89533	10359
4.89600	10351
4.89667	10342
4.89733	10333
4.89800	10325
4.89867	10316
4.89933	10307
4.90000	10299
4.90067	10290
4.90133	10281
4.90200	10272
4.90267	10263
4.90333	10255
4.90400	10246
4.90467	10237
4.90533	10228
4.90600	10220
4.90667	10211
4.90733	10203
4.90800	10194
4.90867	10186
4.90933	10177
4.91000	10169
4.91067	10161
4.91133	10152
4.91200	10144
4.91267	10136
4.91333	10128
4.91400	10120
4.91467	10112
4.91533	10103
4.91600	10095
4.91667	10087
4.91733	10080
4.91800	10072
4.91867	10064
4.91933	10056
4.92000	10048
4.92067	10040
4.92133	10032
4.92200	10024
4.92267	10016
4.92333	10008
4.92400	10000
4.92467	9992
4.92533	9984
4.92600	9976
4.92667	9968
4.92733	9960
4.92800	9952
4.92867	9945
4.92933	9937
4.93000	9929
4.93067	9922
4.93133	9914
4.93200	9907
4.93267	9899
4.93333	9892
4.93400	9885
4.93467	9877
4.93533	9870
4.93600	9862
4.93667	9855
4.93733	9848
4.93800	9840
4.93867	9833
4.93933	9826
4.94000	9819
4.94067	9812
4.94133	9805
4.94200	9798
4.94267	9791
4.94333	9784
4.94400	9777
4.94467	9770
4.94533	9763
4.94600	9756
4.94667	9750
4.94733	9743
4.94800	9736
4.94867	9730
4.94933	9723
4.95000	9716
4.95067	9710
4.95133	9703
4.95200	9696
4.95267	9690
4.95333	9683
4.95400	9676
4.95467	9670
4.95533	9663
4.95600	9657
4.95667	9650
4.95733	9643
4.95800	9637
4.95867	9630
4.95933	9624
4.96000	9617
4.96067	9611
4.96133	9604
4.96200	9598
4.96267	9591
4.96333	9585
4.96400	9578
4.96467	9571
4.96533	9565
4.96600	9558
4.96667	9552
4.96733	9545
4.96800	9538
4.96867	9532
4.96933	9525
4.97000	9519
4.97067	9512
4.97133	9506
4.97200	9499
4.97267	9493
4.97333	9486
4.97400	9480
4.97467	9473
4.97533	9467
4.97600	9460
4.97667	9454
4.97733	9447
4.97800	9441
4.97867	9434
4.97933	9428
4.98000	9421
4.98067	9415
4.98133	9408
4.98200	9401
4.98267	9395
4.98333	9388
4.98400	9382
4.98467	9375
4.98533	9369
4.98600	9362
4.98667	9356
4.98733	9349
4.98800	9343
4.98867	9336
4.98933	9330
4.99000	9323
4.99067	9317
4.99133	9310
4.99200	9304
4.99267	9297
4.99333	9291
4.99400	9285
4.99467	9278
4.99533	9272
4.99600	9266
4.99667	9259
4.99733	9253
4.99800	9247
4.99867	9241
4.99933	9234
5.00000	9228
5.00067	9222
5.00133	9216
5.00200	9209
5.00267	9203
5.00333	9197
5.00400	9191
5.00467	9185
5.00533	9179
5.00600	9173
5.00667	9167
5.00733	9161
5.00800	9155
5.00867	9150
5.00933	9144
5.01000	9138
5.01067	9133
5.01133	9127
5.01200	9122
5.01267	9116
5.01333	9111
5.01400	9105
5.01467	9100
5.01533	9094
5.01600	9089
5.01667	9083
5.01733	9077
5.01800	9072
5.01867	9066
5.01933	9060
5.02000	9054
5.02067	9049
5.02133	9043
5.02200	9037
5.02267	9032
5.02333	9026
5.02400	9020
5.02467	9014
5.02533	9009
5.02600	9003
5.02667	8997
5.02733	8992
5.02800	8986
5.02867	8981
5.02933	8975
5.03000	8970
5.03067	8964
5.03133	8959
5.03200	8953
5.03267	8948
5.03333	8943
5.03400	8937
5.03467	8932
5.03533	8927
5.03600	8922
5.03667	8916
5.03733	8911
5.03800	8906
5.03867	8901
5.03933	8896
5.04000	8891
5.04067	8886
5.04133	8881
5.04200	8876
5.04267	8871
5.04333	8866
5.04400	8861
5.04467	8857
5.04533	8852
5.04600	8847
5.04667	8842
5.04733	8838
5.04800	8833
5.04867	8828
5.04933	8823
5.05000	8819
5.05067	8814
5.05133	8809
5.05200	8805
5.05267	8800
5.05333	8795
5.05400	8791
5.05467	8786
5.05533	8781
5.05600	8777
5.05667	8772
5.05733	8768
5.05800	8763
5.05867	8758
5.05933	8754
5.06000	8749
5.06067	8745
5.06133	8740
5.06200	8736
5.06267	8731
5.06333	8726
5.06400	8722
5.06467	8717
5.06533	8713
5.06600	8708
5.06667	8703
5.06733	8699
5.06800	8694
5.06867	8689
5.06933	8685
5.07000	8680
5.07067	8675
5.07133	8671
5.07200	8666
5.07267	8661
5.07333	8657
5.07400	8652
5.07467	8647
5.07533	8642
5.07600	8637
5.07667	8633
5.07733	8628
5.07800	8623
5.07867	8618
5.07933	8614
5.08000	8609
5.08067	8605
5.08133	8600
5.08200	8595
5.08267	8591
5.08333	8586
5.08400	8582
5.08467	8577
5.08533	8573
5.08600	8568
5.08667	8564
5.08733	8559
5.08800	8554
5.08867	8550
5.08933	8545
5.09000	8541
5.09067	8536
5.09133	8532
5.09200	8527
5.09267	8523
5.09333	8518
5.09400	8514
5.09467	8509
5.09533	8505
5.09600	8501
5.09667	8496
5.09733	8492
5.09800	8487
5.09867	8483
5.09933	8479
5.10000	8474
5.10067	8470
5.10133	8466
5.10200	8461
5.10267	8457
5.10333	8453
5.10400	8449
5.10467	8445
5.10533	8440
5.10600	8436
5.10667	8432
5.10733	8428
5.10800	8424
5.10867	8420
5.10933	8416
5.11000	8412
5.11067	8408
5.11133	8404
5.11200	8400
5.11267	8396
5.11333	8392
5.11400	8388
5.11467	8384
5.11533	8380
5.11600	8376
5.11667	8372
5.11733	8367
5.11800	8363
5.11867	8359
5.11933	8355
5.12000	8351
5.12067	8347
5.12133	8343
5.12200	8339
5.12267	8335
5.12333	8331
5.12400	8327
5.12467	8324
5.12533	8320
5.12600	8316
5.12667	8312
5.12733	8308
5.12800	8305
5.12867	8301
5.12933	8297
5.13000	8294
5.13067	8290
5.13133	8287
5.13200	8283
5.13267	8280
5.13333	8277
5.13400	8273
5.13467	8270
5.13533	8267
5.13600	8264
5.13667	8260
5.13733	8257
5.13800	8254
5.13867	8251
5.13933	8248
5.14000	8245
5.14067	8242
5.14133	8239
5.14200	8236
5.14267	8233
5.14333	8230
5.14400	8227
5.14467	8224
5.14533	8221
5.14600	8218
5.14667	8215
5.14733	8212
5.14800	8209
5.14867	8207
5.14933	8204
5.15000	8201
5.15067	8198
5.15133	8196
5.15200	8193
5.15267	8191
5.15333	8188
5.15400	8185
5.15467	8183
5.15533	8180
5.15600	8178
5.15667	8175
5.15733	8173
5.15800	8171
5.15867	8168
5.15933	8166
5.16000	8164
5.16067	8162
5.16133	8160
5.16200	8158
5.16267	8156
5.16333	8154
5.16400	8152
5.16467	8150
5.16533	8148
5.16600	8146
5.16667	8145
5.16733	8143
5.16800	8141
5.16867	8140
5.16933	8138
5.17000	8137
5.17067	8135
5.17133	8134
5.17200	8133
5.17267	8131
5.17333	8130
5.17400	8129
5.17467	8128
5.17533	8127
5.17600	8126
5.17667	8125
5.17733	8124
5.17800	8124
5.17867	8123
5.17933	8122
5.18000	8122
5.18067	8121
5.18133	8121
5.18200	8120
5.18267	8120
5.18333	8119
5.18400	8119
5.18467	8118
5.18533	8118
5.18600	8118
5.18667	8118
5.18733	8117
5.18800	8117
5.18867	8117
5.18933	8117
5.19000	8116
5.19067	8116
5.19133	8116
5.19200	8116
5.19267	8116
5.19333	8116
5.19400	8116
5.19467	8115
5.19533	8115
5.19600	8115
5.19667	8115
5.19733	8114
5.19800	8114
5.19867	8114
5.19933	8114
5.20000	8113
5.20067	8113
5.20133	8113
5.20200	8112
5.20267	8112
5.20333	8111
5.20400	8111
5.20467	8111
5.20533	8110
5.20600	8110
5.20667	8109
5.20733	8109
5.20800	8108
5.20867	8108
5.20933	8108
5.21000	8107
5.21067	8107
5.21133	8106
5.21200	8106
5.21267	8105
5.21333	8104
5.21400	8104
5.21467	8103
5.21533	8102
5.21600	8101
5.21667	8100
5.21733	8099
5.21800	8098
5.21867	8097
5.21933	8096
5.22000	8095
5.22067	8094
5.22133	8093
5.22200	8091
5.22267	8090
5.22333	8088
5.22400	8087
5.22467	8085
5.22533	8083
5.22600	8082
5.22667	8080
5.22733	8078
5.22800	8076
5.22867	8074
5.22933	8072
5.23000	8070
5.23067	8068
5.23133	8066
5.23200	8064
5.23267	8061
5.23333	8059
5.23400	8057
5.23467	8054
5.23533	8051
5.23600	8049
5.23667	8046
5.23733	8043
5.23800	8040
5.23867	8037
5.23933	8034
5.24000	8031
5.24067	8028
5.24133	8024
5.24200	8021
5.24267	8017
5.24333	8014
5.24400	8010
5.24467	8006
5.24533	8003
5.24600	7999
5.24667	7995
5.24733	7991
5.24800	7987
5.24867	7982
5.24933	7978
5.25000	7974
5.25067	7970
5.25133	7965
5.25200	7961
5.25267	7957
5.25333	7952
5.25400	7948
5.25467	7943
5.25533	7939
5.25600	7934
5.25667	7929
5.25733	7925
5.25800	7920
5.25867	7915
5.25933	7910
5.26000	7905
5.26067	7900
5.26133	7896
5.26200	7891
5.26267	7886
5.26333	7881
5.26400	7876
5.26467	7871
5.26533	7866
5.26600	7861
5.26667	7856
5.26733	7851
5.26800	7846
5.26867	7841
5.26933	7836
5.27000	7832
5.27067	7827
5.27133	7822
5.27200	7817
5.27267	7812
5.27333	7807
5.27400	7802
5.27467	7797
5.27533	7792
5.27600	7787
5.27667	7782
5.27733	7777
5.27800	7772
5.27867	7767
5.27933	7762
5.28000	7757
5.28067	7751
5.28133	7746
5.28200	7741
5.28267	7736
5.28333	7731
5.28400	7726
5.28467	7721
5.28533	7716
5.28600	7711
5.28667	7706
5.28733	7701
5.28800	7695
5.28867	7690
5.28933	7685
5.29000	7680
5.29067	7675
5.29133	7670
5.29200	7665
5.29267	7661
5.29333	7656
5.29400	7651
5.29467	7646
5.29533	7641
5.29600	7636
5.29667	7630
5.29733	7625
5.29800	7620
5.29867	7615
5.29933	7610
5.30000	7605
5.30067	7600
5.30133	7595
5.30200	7590
5.30267	7585
5.30333	7580
5.30400	7575
5.30467	7570
5.30533	7565
5.30600	7560
5.30667	7555
5.30733	7550
5.30800	7545
5.30867	7539
5.30933	7534
5.31000	7529
5.31067	7524
5.31133	7519
5.31200	7514
5.31267	7509
5.31333	7504
5.31400	7499
5.31467	7494
5.31533	7489
5.31600	7484
5.31667	7479
5.31733	7474
5.31800	7469
5.31867	7464
5.31933	7459
5.32000	7454
5.32067	7449
5.32133	7444
5.32200	7439
5.32267	7435
5.32333	7430
5.32400	7425
5.32467	7420
5.32533	7415
5.32600	7411
5.32667	7406
5.32733	7401
5.32800	7397
5.32867	7392
5.32933	7387
5.33000	7383
5.33067	7378
5.33133	7374
5.33200	7369
5.33267	7365
5.33333	7360
5.33400	7356
5.33467	7351
5.33533	7347
5.33600	7342
5.33667	7338
5.33733	7333
5.33800	7329
5.33867	7325
5.33933	7320
5.34000	7316
5.34067	7312
5.34133	7308
5.34200	7303
5.34267	7299
5.34333	7295
5.34400	7290
5.34467	7286
5.34533	7282
5.34600	7278
5.34667	7274
5.34733	7269
5.34800	7265
5.34867	7261
5.34933	7257
5.35000	7253
5.35067	7249
5.35133	7245
5.35200	7241
5.35267	7237
5.35333	7233
5.35400	7229
5.35467	7225
5.35533	7221
5.35600	7217
5.35667	7213
5.35733	7209
5.35800	7205
5.35867	7201
5.35933	7197
5.36000	7193
5.36067	7190
5.36133	7186
5.36200	7182
5.36267	7178
5.36333	7174
5.36400	7170
5.36467	7166
5.36533	7163
5.36600	7159
5.36667	7155
5.36733	7151
5.36800	7147
5.36867	7144
5.36933	7140
5.37000	7136
5.37067	7132
5.37133	7128
5.37200	7124
5.37267	7120
5.37333	7117
5.37400	7113
5.37467	7109
5.37533	7105
5.37600	7101
5.37667	7098
5.37733	7094
5.37800	7091
5.37867	7087
5.37933	7083
5.38000	7080
5.38067	7076
5.38133	7073
5.38200	7070
5.38267	7066
5.38333	7063
5.38400	7060
5.38467	7056
5.38533	7053
5.38600	7050
5.38667	7047
5.38733	7044
5.38800	7040
5.38867	7037
5.38933	7034
5.39000	7031
5.39067	7028
5.39133	7024
5.39200	7021
5.39267	7018
5.39333	7014
5.39400	7011
5.39467	7008
5.39533	7004
5.39600	7001
5.39667	6998
5.39733	6994
5.39800	6991
5.39867	6987
5.39933	6984
5.40000	6981
5.40067	6977
5.40133	6974
5.40200	6970
5.40267	6967
5.40333	6963
5.40400	6960
5.40467	6957
5.40533	6953
5.40600	6950
5.40667	6947
5.40733	6943
5.40800	6940
5.40867	6937
5.40933	6933
5.41000	6930
5.41067	6927
5.41133	6923
5.41200	6920
5.41267	6917
5.41333	6913
5.41400	6910
5.41467	6906
5.41533	6903
5.41600	6900
5.41667	6896
5.41733	6893
5.41800	6890
5.41867	6886
5.41933	6883
5.42000	6879
5.42067	6876
5.42133	6873
5.42200	6869
5.42267	6866
5.42333	6862
5.42400	6859
5.42467	6855
5.42533	6852
5.42600	6848
5.42667	6844
5.42733	6841
5.42800	6837
5.42867	6834
5.42933	6831
5.43000	6827
5.43067	6824
5.43133	6820
5.43200	6817
5.43267	6814
5.43333	6810
5.43400	6807
5.43467	6804
5.43533	6801
5.43600	6797
5.43667	6794
5.43733	6791
5.43800	6788
5.43867	6785
5.43933	6781
5.44000	6778
5.44067	6775
5.44133	6772
5.44200	6768
5.44267	6765
5.44333	6762
5.44400	6759
5.44467	6756
5.44533	6752
5.44600	6749
5.44667	6746
5.44733	6743
5.44800	6739
5.44867	6736
5.44933	6733
5.45000	6730
5.45067	6726
5.45133	6723
5.45200	6720
5.45267	6717
5.45333	6714
5.45400	6711
5.45467	6708
5.45533	6705
5.45600	6701
5.45667	6698
5.45733	6695
5.45800	6692
5.45867	6689
5.45933	6686
5.46000	6683
5.46067	6681
5.46133	6678
5.46200	6675
5.46267	6672
5.46333	6669
5.46400	6666
5.46467	6663
5.46533	6660
5.46600	6657
5.46667	6654
5.46733	6651
5.46800	6648
5.46867	6645
5.46933	6642
5.47000	6639
5.47067	6636
5.47133	6633
5.47200	6630
5.47267	6627
5.47333	6624
5.47400	6621
5.47467	6618
5.47533	6615
5.47600	6612
5.47667	6609
5.47733	6606
5.47800	6603
5.47867	6600
5.47933	6597
5.48000	6594
5.48067	6591
5.48133	6588
5.48200	6585
5.48267	6582
5.48333	6579
5.48400	6576
5.48467	6573
5.48533	6570
5.48600	6567
5.48667	6564
5.48733	6561
5.48800	6558
5.48867	6555
5.48933	6552
5.49000	6549
5.49067	6546
5.49133	6543
5.49200	6540
5.49267	6537
5.49333	6534
5.49400	6531
5.49467	6528
5.49533	6525
5.49600	6522
5.49667	6519
5.49733	6517
5.49800	6514
5.49867	6511
5.49933	6508
5.50000	6505
5.50067	6502
5.50133	6499
5.50200	6496
5.50267	6493
5.50333	6490
5.50400	6487
5.50467	6484
5.50533	6481
5.50600	6478
5.50667	6475
5.50733	6472
5.50800	6469
5.50867	6466
5.50933	6464
5.51000	6461
5.51067	6458
5.51133	6455
5.51200	6453
5.51267	6450
5.51333	6447
5.51400	6444
5.51467	6442
5.51533	6439
5.51600	6436
5.51667	6434
5.51733	6431
5.51800	6429
5.51867	6426
5.51933	6423
5.52000	6421
5.52067	6418
5.52133	6416
5.52200	6413
5.52267	6410
5.52333	6408
5.52400	6405
5.52467	6403
5.52533	6400
5.52600	6398
5.52667	6396
5.52733	6393
5.52800	6391
5.52867	6388
5.52933	6386
5.53000	6383
5.53067	6381
5.53133	6378
5.53200	6376
5.53267	6374
5.53333	6371
5.53400	6369
5.53467	6366
5.53533	6364
5.53600	6361
5.53667	6359
5.53733	6356
5.53800	6354
5.53867	6351
5.53933	6349
5.54000	6347
5.54067	6344
5.54133	6342
5.54200	6340
5.54267	6338
5.54333	6335
5.54400	6333
5.54467	6331
5.54533	6329
5.54600	6327
5.54667	6325
5.54733	6323
5.54800	6320
5.54867	6318
5.54933	6316
5.55000	6314
5.55067	6312
5.55133	6310
5.55200	6307
5.55267	6305
5.55333	6303
5.55400	6301
5.55467	6298
5.55533	6296
5.55600	6294
5.55667	6292
5.55733	6289
5.55800	6287
5.55867	6285
5.55933	6282
5.56000	6280
5.56067	6278
5.56133	6275
5.56200	6273
5.56267	6271
5.56333	6268
5.56400	6266
5.56467	6264
5.56533	6261
5.56600	6259
5.56667	6256
5.56733	6254
5.56800	6251
5.56867	6249
5.56933	6247
5.57000	6244
5.57067	6242
5.57133	6239
5.57200	6237
5.57267	6234
5.57333	6232
5.57400	6230
5.57467	6227
5.57533	6225
5.57600	6222
5.57667	6220
5.57733	6217
5.57800	6215
5.57867	6212
5.57933	6210
5.58000	6207
5.58067	6205
5.58133	6202
5.58200	6200
5.58267	6197
5.58333	6195
5.58400	6192
5.58467	6190
5.58533	6188
5.58600	6185
5.58667	6183
5.58733	6181
5.58800	6179
5.58867	6177
5.58933	6175
5.59000	6173
5.59067	6171
5.59133	6169
5.59200	6167
5.59267	6165
5.59333	6163
5.59400	6161
5.59467	6159
5.59533	6157
5.59600	6155
5.59667	6154
5.59733	6152
5.59800	6150
5.59867	6148
5.59933	6146
5.60000	6144
5.60067	6142
5.60133	6140
5.60200	6139
5.60267	6137
5.60333	6135
5.60400	6133
5.60467	6131
5.60533	6130
5.60600	6128
5.60667	6126
5.60733	6124
5.60800	6123
5.60867	6121
5.60933	6119
5.61000	6118
5.61067	6116
5.61133	6114
5.61200	6113
5.61267	6111
5.61333	6109
5.61400	6108
5.61467	6106
5.61533	6104
5.61600	6102
5.61667	6101
5.61733	6099
5.61800	6097
5.61867	6095
5.61933	6094
5.62000	6092
5.62067	6090
5.62133	6088
5.62200	6087
5.62267	6085
5.62333	6083
5.62400	6081
5.62467	6079
5.62533	6077
5.62600	6075
5.62667	6073
5.62733	6071
5.62800	6069
5.62867	6067
5.62933	6065
5.63000	6063
5.63067	6061
5.63133	6059
5.63200	6057
5.63267	6055
5.63333	6052
5.63400	6050
5.63467	6048
5.63533	6046
5.63600	6044
5.63667	6042
5.63733	6040
5.63800	6038
5.63867	6035
5.63933	6033
5.64000	6031
5.64067	6029
5.64133	6027
5.64200	6025
5.64267	6023
5.64333	6021
5.64400	6018
5.64467	6016
5.64533	6014
5.64600	6012
5.64667	6010
5.64733	6008
5.64800	6005
5.64867	6003
5.64933	6001
5.65000	5999
5.65067	5997
5.65133	5995
5.65200	5993
5.65267	5991
5.65333	5989
5.65400	5987
5.65467	5985
5.65533	5983
5.65600	5981
5.65667	5979
5.65733	5977
5.65800	5975
5.65867	5974
5.65933	5972
5.66000	5970
5.66067	5968
5.66133	5966
5.66200	5964
5.66267	5963
5.66333	5961
5.66400	5959
5.66467	5957
5.66533	5955
5.66600	5954
5.66667	5952
5.66733	5950
5.66800	5948
5.66867	5946
5.66933	5944
5.67000	5943
5.67067	5941
5.67133	5939
5.67200	5937
5.67267	5935
5.67333	5933
5.67400	5931
5.67467	5929
5.67533	5927
5.67600	5926
5.67667	5924
5.67733	5922
5.67800	5920
5.67867	5918
5.67933	5917
5.68000	5915
5.68067	5913
5.68133	5911
5.68200	5909
5.68267	5908
5.68333	5906
5.68400	5904
5.68467	5903
5.68533	5901
5.68600	5899
5.68667	5898
5.68733	5896
5.68800	5894
5.68867	5893
5.68933	5891
5.69000	5890
5.69067	5888
5.69133	5886
5.69200	5885
5.69267	5883
5.69333	5882
5.69400	5880
5.69467	5879
5.69533	5877
5.69600	5876
5.69667	5874
5.69733	5873
5.69800	5871
5.69867	5870
5.69933	5868
5.70000	5867
5.70067	5865
5.70133	5864
5.70200	5862
5.70267	5861
5.70333	5860
5.70400	5858
5.70467	5857
5.70533	5855
5.70600	5854
5.70667	5853
5.70733	5852
5.70800	5850
5.70867	5849
5.70933	5848
5.71000	5846
5.71067	5845
5.71133	5844
5.71200	5843
5.71267	5842
5.71333	5841
5.71400	5840
5.71467	5839
5.71533	5838
5.71600	5837
5.71667	5836
5.71733	5835
5.71800	5834
5.71867	5833
5.71933	5832
5.72000	5831
5.72067	5830
5.72133	5829
5.72200	5828
5.72267	5827
5.72333	5826
5.72400	5825
5.72467	5824
5.72533	5823
5.72600	5822
5.72667	5821
5.72733	5820
5.72800	5819
5.72867	5818
5.72933	5817
5.73000	5816
5.73067	5815
5.73133	5814
5.73200	5813
5.73267	5812
5.73333	5811
5.73400	5810
5.73467	5809
5.73533	5808
5.73600	5807
5.73667	5805
5.73733	5804
5.73800	5803
5.73867	5802
5.73933	5801
5.74000	5800
5.74067	5799
5.74133	5797
5.74200	5796
5.74267	5795
5.74333	5794
5.74400	5793
5.74467	5792
5.74533	5791
5.74600	5789
5.74667	5788
5.74733	5787
5.74800	5786
5.74867	5785
5.74933	5784
5.75000	5783
5.75067	5782
5.75133	5781
5.75200	5780
5.75267	5779
5.75333	5778
5.75400	5777
5.75467	5776
5.75533	5775
5.75600	5774
5.75667	5773
5.75733	5772
5.75800	5771
5.75867	5770
5.75933	5769
5.76000	5768
5.76067	5767
5.76133	5766
5.76200	5765
5.76267	5765
5.76333	5764
5.76400	5763
5.76467	5762
5.76533	5761
5.76600	5761
5.76667	5760
5.76733	5759
5.76800	5759
5.76867	5758
5.76933	5758
5.77000	5757
5.77067	5757
5.77133	5757
5.77200	5756
5.77267	5756
5.77333	5756
5.77400	5756
5.77467	5756
5.77533	5756
5.77600	5756
5.77667	5756
5.77733	5756
5.77800	5756
5.77867	5757
5.77933	5757
5.78000	5757
5.78067	5758
5.78133	5758
5.78200	5758
5.78267	5759
5.78333	5759
5.78400	5759
5.78467	5760
5.78533	5760
5.78600	5760
5.78667	5761
5.78733	5761
5.78800	5761
5.78867	5762
5.78933	5762
5.79000	5763
5.79067	5763
5.79133	5763
5.79200	5764
5.79267	5764
5.79333	5765
5.79400	5765
5.79467	5765
5.79533	5766
5.79600	5766
5.79667	5767
5.79733	5767
5.79800	5768
5.79867	5768
5.79933	5769
5.80000	5769
5.80067	5770
5.80133	5771
5.80200	5771
5.80267	5772
5.80333	5772
5.80400	5772
5.80467	5773
5.80533	5773
5.80600	5774
5.80667	5774
5.80733	5775
5.80800	5775
5.80867	5775
5.80933	5776
5.81000	5776
5.81067	5776
5.81133	5776
5.81200	5776
5.81267	5777
5.81333	5777
5.81400	5777
5.81467	5777
5.81533	5777
5.81600	5777
5.81667	5778
5.81733	5778
5.81800	5778
5.81867	5778
5.81933	5778
5.82000	5779
5.82067	5779
5.82133	5779
5.82200	5779
5.82267	5779
5.82333	5779
5.82400	5780
5.82467	5780
5.82533	5780
5.82600	5780
5.82667	5780
5.82733	5780
5.82800	5780
5.82867	5780
5.82933	5779
5.83000	5779
5.83067	5779
5.83133	5779
5.83200	5779
5.83267	5779
5.83333	5778
5.83400	5778
5.83467	5778
5.83533	5777
5.83600	5777
5.83667	5777
5.83733	5776
5.83800	5776
5.83867	5776
5.83933	5775
5.84000	5775
5.84067	5775
5.84133	5774
5.84200	5774
5.84267	5773
5.84333	5773
5.84400	5773
5.84467	5772
5.84533	5772
5.84600	5772
5.84667	5772
5.84733	5771
5.84800	5771
5.84867	5771
5.84933	5771
5.85000	5770
5.85067	5770
5.85133	5770
5.85200	5770
5.85267	5769
5.85333	5769
5.85400	5769
5.85467	5768
5.85533	5768
5.85600	5768
5.85667	5767
5.85733	5767
5.85800	5767
5.85867	5766
5.85933	5766
5.86000	5765
5.86067	5765
5.86133	5764
5.86200	5763
5.86267	5763
5.86333	5762
5.86400	5761
5.86467	5761
5.86533	5760
5.86600	5759
5.86667	5758
5.86733	5757
5.86800	5756
5.86867	5755
5.86933	5754
5.87000	5753
5.87067	5752
5.87133	5751
5.87200	5749
5.87267	5748
5.87333	5747
5.87400	5746
5.87467	5744
5.87533	5743
5.87600	5742
5.87667	5740
5.87733	5739
5.87800	5738
5.87867	5736
5.87933	5735
5.88000	5733
5.88067	5732
5.88133	5730
5.88200	5729
5.88267	5727
5.88333	5726
5.88400	5725
5.88467	5723
5.88533	5721
5.88600	5720
5.88667	5718
5.88733	5717
5.88800	5715
5.88867	5713
5.88933	5712
5.89000	5710
5.89067	5708
5.89133	5706
5.89200	5705
5.89267	5703
5.89333	5701
5.89400	5699
5.89467	5697
5.89533	5696
5.89600	5694
5.89667	5692
5.89733	5690
5.89800	5688
5.89867	5687
5.89933	5685
5.90000	5683
5.90067	5681
5.90133	5680
5.90200	5678
5.90267	5676
5.90333	5674
5.90400	5673
5.90467	5671
5.90533	5669
5.90600	5667
5.90667	5666
5.90733	5664
5.90800	5663
5.90867	5661
5.90933	5659
5.91000	5658
5.91067	5656
5.91133	5655
5.91200	5654
5.91267	5652
5.91333	5651
5.91400	5649
5.91467	5648
5.91533	5646
5.91600	5645
5.91667	5643
5.91733	5642
5.91800	5641
5.91867	5639
5.91933	5638
5.92000	5637
5.92067	5635
5.92133	5634
5.92200	5633
5.92267	5631
5.92333	5630
5.92400	5629
5.92467	5628
5.92533	5626
5.92600	5625
5.92667	5624
5.92733	5623
5.92800	5621
5.92867	5620
5.92933	5619
5.93000	5618
5.93067	5616
5.93133	5615
5.93200	5614
5.93267	5613
5.93333	5611
5.93400	5610
5.93467	5609
5.93533	5608
5.93600	5606
5.93667	5605
5.93733	5603
5.93800	5602
5.93867	5601
5.93933	5600
5.94000	5598
5.94067	5597
5.94133	5596
5.94200	5595
5.94267	5593
5.94333	5592
5.94400	5591
5.94467	5590
5.94533	5588
5.94600	5587
5.94667	5586
5.94733	5585
5.94800	5584
5.94867	5582
5.94933	5581
5.95000	5580
5.95067	5579
5.95133	5578
5.95200	5576
5.95267	5575
5.95333	5574
5.95400	5573
5.95467	5572
5.95533	5570
5.95600	5569
5.95667	5568
5.95733	5567
5.95800	5566
5.95867	5565
5.95933	5564
5.96000	5563
5.96067	5562
5.96133	5561
5.96200	5560
5.96267	5559
5.96333	5558
5.96400	5557
5.96467	5556
5.96533	5556
5.96600	5555
5.96667	5554
5.96733	5553
5.96800	5552
5.96867	5551
5.96933	5551
5.97000	5550
5.97067	5549
5.97133	5548
5.97200	5547
5.97267	5546
5.97333	5546
5.97400	5545
5.97467	5544
5.97533	5543
5.97600	5542
5.97667	5542
5.97733	5541
5.97800	5540
5.97867	5539
5.97933	5538
5.98000	5537
5.98067	5536
5.98133	5536
5.98200	5535
5.98267	5534
5.98333	5533
5.98400	5532
5.98467	5531
5.98533	5530
5.98600	5529
5.98667	5528
5.98733	5527
5.98800	5526
5.98867	5525
5.98933	5524
5.99000	5523
5.99067	5522
5.99133	5521
5.99200	5520
5.99267	5519
5.99333	5518
5.99400	5517
5.99467	5516
5.99533	5515
5.99600	5514
5.99667	5513
5.99733	5512
5.99800	5512
5.99867	5511
5.99933	5510
6.00000	5509
6.00067	5508
6.00133	5507
6.00200	5507
6.00267	5506
6.00333	5505
6.00400	5504
6.00467	5503
6.00533	5502
6.00600	5501
6.00667	5500
6.00733	5500
6.00800	5499
6.00867	5498
6.00933	5497
6.01000	5496
6.01067	5495
6.01133	5494
6.01200	5493
6.01267	5493
6.01333	5492
6.01400	5491
6.01467	5490
6.01533	5490
6.01600	5489
6.01667	5488
6.01733	5488
6.01800	5487
6.01867	5486
6.01933	5486
6.02000	5485
6.02067	5484
6.02133	5484
6.02200	5483
6.02267	5482
6.02333	5482
6.02400	5481
6.02467	5480
6.02533	5480
6.02600	5479
6.02667	5478
6.02733	5478
6.02800	5477
6.02867	5477
6.02933	5476
6.03000	5475
6.03067	5475
6.03133	5474
6.03200	5474
6.03267	5473
6.03333	5473
6.03400	5473
6.03467	5472
6.03533	5472
6.03600	5472
6.03667	5471
6.03733	5471
6.03800	5470
6.03867	5470
6.03933	5470
6.04000	5469
6.04067	5469
6.04133	5468
6.04200	5467
6.04267	5467
6.04333	5466
6.04400	5466
6.04467	5465
6.04533	5465
6.04600	5464
6.04667	5463
6.04733	5463
6.04800	5462
6.04867	5461
6.04933	5461
6.05000	5460
6.05067	5459
6.05133	5458
6.05200	5458
6.05267	5457
6.05333	5456
6.05400	5455
6.05467	5454
6.05533	5453
6.05600	5453
6.05667	5452
6.05733	5451
6.05800	5450
6.05867	5449
6.05933	5448
6.06000	5447
6.06067	5447
6.06133	5446
6.06200	5445
6.06267	5444
6.06333	5443
6.06400	5442
6.06467	5442
6.06533	5441
6.06600	5440
6.06667	5439
6.06733	5438
6.06800	5438
6.06867	5437
6.06933	5436
6.07000	5435
6.07067	5434
6.07133	5433
6.07200	5432
6.07267	5431
6.07333	5431
6.07400	5430
6.07467	5429
6.07533	5428
6.07600	5427
6.07667	5426
6.07733	5425
6.07800	5424
6.07867	5424
6.07933	5423
6.08000	5422
6.08067	5421
6.08133	5420
6.08200	5419
6.08267	5419
6.08333	5418
6.08400	5417
6.08467	5416
6.08533	5416
6.08600	5415
6.08667	5415
6.08733	5414
6.08800	5413
6.08867	5413
6.08933	5412
6.09000	5412
6.09067	5411
6.09133	5411
6.09200	5410
6.09267	5409
6.09333	5409
6.09400	5408
6.09467	5408
6.09533	5407
6.09600	5407
6.09667	5406
6.09733	5406
6.09800	5405
6.09867	5405
6.09933	5404
6.10000	5404
6.10067	5403
6.10133	5403
6.10200	5402
6.10267	5401
6.10333	5401
6.10400	5400
6.10467	5399
6.10533	5399
6.10600	5398
6.10667	5398
6.10733	5397
6.10800	5397
6.10867	5396
6.10933	5395
6.11000	5395
6.11067	5395
6.11133	5394
6.11200	5394
6.11267	5393
6.11333	5393
6.11400	5392
6.11467	5392
6.11533	5391
6.11600	5391
6.11667	5391
6.11733	5390
6.11800	5390
6.11867	5389
6.11933	5389
6.12000	5388
6.12067	5388
6.12133	5387
6.12200	5387
6.12267	5386
6.12333	5386
6.12400	5385
6.12467	5385
6.12533	5384
6.12600	5384
6.12667	5383
6.12733	5383
6.12800	5382
6.12867	5381
6.12933	5381
6.13000	5380
6.13067	5380
6.13133	5379
6.13200	5379
6.13267	5378
6.13333	5377
6.13400	5377
6.13467	5376
6.13533	5375
6.13600	5375
6.13667	5374
6.13733	5373
6.13800	5372
6.13867	5372
6.13933	5371
6.14000	5370
6.14067	5370
6.14133	5369
6.14200	5368
6.14267	5367
6.14333	5367
6.14400	5366
6.14467	5365
6.14533	5364
6.14600	5364
6.14667	5363
6.14733	5362
6.14800	5361
6.14867	5361
6.14933	5360
6.15000	5359
6.15067	5358
6.15133	5358
6.15200	5357
6.15267	5356
6.15333	5355
6.15400	5354
6.15467	5353
6.15533	5352
6.15600	5352
6.15667	5351
6.15733	5350
6.15800	5349
6.15867	5349
6.15933	5348
6.16000	5347
6.16067	5346
6.16133	5346
6.16200	5345
6.16267	5345
6.16333	5344
6.16400	5344
6.16467	5343
6.16533	5343
6.16600	5342
6.16667	5342
6.16733	5342
6.16800	5341
6.16867	5341
6.16933	5340
6.17000	5340
6.17067	5339
6.17133	5339
6.17200	5338
6.17267	5338
6.17333	5337
6.17400	5337
6.17467	5336
6.17533	5336
6.17600	5336
6.17667	5335
6.17733	5335
6.17800	5334
6.17867	5334
6.17933	5333
6.18000	5333
6.18067	5333
6.18133	5332
6.18200	5332
6.18267	5331
6.18333	5331
6.18400	5330
6.18467	5330
6.18533	5329
6.18600	5329
6.18667	5328
6.18733	5328
6.18800	5327
6.18867	5327
6.18933	5326
6.19000	5326
6.19067	5326
6.19133	5325
6.19200	5325
6.19267	5325
6.19333	5324
6.19400	5324
6.19467	5324
6.19533	5323
6.19600	5323
6.19667	5323
6.19733	5322
6.19800	5322
6.19867	5322
6.19933	5322
6.20000	5321
6.20067	5321
6.20133	5321
6.20200	5320
6.20267	5320
6.20333	5320
6.20400	5319
6.20467	5319
6.20533	5319
6.20600	5319
6.20667	5318
6.20733	5318
6.20800	5318
6.20867	5317
6.20933	5317
6.21000	5317
6.21067	5316
6.21133	5316
6.21200	5316
6.21267	5315
6.21333	5315
6.21400	5315
6.21467	5315
6.21533	5314
6.21600	5314
6.21667	5314
6.21733	5314
6.21800	5314
6.21867	5314
6.21933	5314
6.22000	5314
6.22067	5314
6.22133	5314
6.22200	5314
6.22267	5314
6.22333	5314
6.22400	5314
6.22467	5314
6.22533	5314
6.22600	5314
6.22667	5314
6.22733	5314
6.22800	5314
6.22867	5315
6.22933	5315
6.23000	5315
6.23067	5315
6.23133	5315
6.23200	5315
6.23267	5316
6.23333	5316
6.23400	5316
6.23467	5316
6.23533	5316
6.23600	5317
6.23667	5317
6.23733	5317
6.23800	5317
6.23867	5317
6.23933	5317
6.24000	5317
6.24067	5318
6.24133	5318
6.24200	5318
6.24267	5318
6.24333	5318
6.24400	5318
6.24467	5318
6.24533	5318
6.24600	5318
6.24667	5318
6.24733	5318
6.24800	5318
6.24867	5318
6.24933	5318
6.25000	5318
6.25067	5318
6.25133	5318
6.25200	5318
6.25267	5318
6.25333	5318
6.25400	5318
6.25467	5318
6.25533	5319
6.25600	5319
6.25667	5319
6.25733	5319
6.25800	5319
6.25867	5319
6.25933	5319
6.26000	5319
6.26067	5319
6.26133	5319
6.26200	5319
6.26267	5319
6.26333	5319
6.26400	5319
6.26467	5320
6.26533	5320
6.26600	5320
6.26667	5320
6.26733	5320
6.26800	5320
6.26867	5320
6.26933	5320
6.27000	5321
6.27067	5321
6.27133	5321
6.27200	5322
6.27267	5322
6.27333	5322
6.27400	5322
6.27467	5323
6.27533	5323
6.27600	5323
6.27667	5324
6.27733	5324
6.27800	5324
6.27867	5324
6.27933	5325
6.28000	5325
6.28067	5325
6.28133	5326
6.28200	5326
6.28267	5326
6.28333	5327
6.28400	5327
6.28467	5328
6.28533	5328
6.28600	5328
6.28667	5329
6.28733	5329
6.28800	5329
6.28867	5330
6.28933	5330
6.29000	5330
6.29067	5330
6.29133	5331
6.29200	5331
6.29267	5331
6.29333	5331
6.29400	5331
6.29467	5331
6.29533	5332
6.29600	5332
6.29667	5332
6.29733	5332
6.29800	5332
6.29867	5332
6.29933	5332
6.30000	5332
6.30067	5332
6.30133	5331
6.30200	5331
6.30267	5331
6.30333	5331
6.30400	5331
6.30467	5331
6.30533	5331
6.30600	5331
6.30667	5331
6.30733	5330
6.30800	5330
6.30867	5330
6.30933	5330
6.31000	5330
6.31067	5330
6.31133	5330
6.31200	5329
6.31267	5329
6.31333	5329
6.31400	5329
6.31467	5329
6.31533	5329
6.31600	5328
6.31667	5328
6.31733	5328
6.31800	5328
6.31867	5328
6.31933	5327
6.32000	5327
6.32067	5327
6.32133	5327
6.32200	5327
6.32267	5326
6.32333	5326
6.32400	5326
6.32467	5325
6.32533	5325
6.32600	5325
6.32667	5324
6.32733	5324
6.32800	5324
6.32867	5323
6.32933	5323
6.33000	5323
6.33067	5322
6.33133	5322
6.33200	5322
6.33267	5322
6.33333	5321
6.33400	5321
6.33467	5321
6.33533	5320
6.33600	5320
6.33667	5320
6.33733	5320
6.33800	5319
6.33867	5319
6.33933	5319
6.34000	5318
6.34067	5318
6.34133	5318
6.34200	5317
6.34267	5317
6.34333	5317
6.34400	5316
6.34467	5316
6.34533	5316
6.34600	5316
6.34667	5315
6.34733	5315
6.34800	5314
6.34867	5314
6.34933	5314
6.35000	5313
6.35067	5313
6.35133	5312
6.35200	5312
6.35267	5311
6.35333	5311
6.35400	5310
6.35467	5310
6.35533	5309
6.35600	5309
6.35667	5308
6.35733	5308
6.35800	5307
6.35867	5306
6.35933	5306
6.36000	5305
6.36067	5305
6.36133	5304
6.36200	5304
6.36267	5303
6.36333	5302
6.36400	5302
6.36467	5301
6.36533	5300
6.36600	5300
6.36667	5299
6.36733	5298
6.36800	5297
6.36867	5297
6.36933	5296
6.37000	5295
6.37067	5294
6.37133	5294
6.37200	5293
6.37267	5292
6.37333	5291
6.37400	5291
6.37467	5290
6.37533	5289
6.37600	5288
6.37667	5288
6.37733	5287
6.37800	5286
6.37867	5286
6.37933	5285
6.38000	5284
6.38067	5284
6.38133	5283
6.38200	5282
6.38267	5282
6.38333	5281
6.38400	5280
6.38467	5280
6.38533	5279
6.38600	5279
6.38667	5278
6.38733	5278
6.38800	5277
6.38867	5277
6.38933	5276
6.39000	5276
6.39067	5275
6.39133	5275
6.39200	5274
6.39267	5274
6.39333	5273
6.39400	5273
6.39467	5273
6.39533	5272
6.39600	5272
6.39667	5271
6.39733	5271
6.39800	5270
6.39867	5270
6.39933	5270

