[Header]
Application Name	LabSolutions
Version	5.73
Data File Name	C:\LabSolutions\Data\Project1\stephen\2016-01-06\60.gcd
Output Date	1/11/2016
Output Time	1:19:51 PM

[Configuration]
Instrument Name	WEISSTA-PC-Instrument1
Instrument #	1
Line #	1
# of Detectors	1
Detector ID	DET#2
Detector Name	DFID1
# of Channels	1

[Chromatogram (Ch1)]
Interval(msec)	40
# of Points	9600
Start Time(min)	0.000
End Time(min)	6.400
R.Time (min)	Intensity
0.00033	30
0.00100	30
0.00167	30
0.00233	30
0.00300	30
0.00367	30
0.00433	30
0.00500	30
0.00567	30
0.00633	30
0.00700	30
0.00767	30
0.00833	29
0.00900	28
0.00967	27
0.01033	25
0.01100	23
0.01167	20
0.01233	17
0.01300	13
0.01367	9
0.01433	4
0.01500	-2
0.01567	-8
0.01633	-15
0.01700	-22
0.01767	-29
0.01833	-37
0.01900	-45
0.01967	-53
0.02033	-61
0.02100	-70
0.02167	-78
0.02233	-86
0.02300	-94
0.02367	-102
0.02433	-109
0.02500	-117
0.02567	-124
0.02633	-131
0.02700	-137
0.02767	-144
0.02833	-150
0.02900	-155
0.02967	-160
0.03033	-165
0.03100	-170
0.03167	-174
0.03233	-178
0.03300	-181
0.03367	-185
0.03433	-188
0.03500	-190
0.03567	-193
0.03633	-195
0.03700	-196
0.03767	-198
0.03833	-199
0.03900	-200
0.03967	-201
0.04033	-202
0.04100	-202
0.04167	-202
0.04233	-202
0.04300	-202
0.04367	-202
0.04433	-202
0.04500	-201
0.04567	-200
0.04633	-200
0.04700	-199
0.04767	-198
0.04833	-197
0.04900	-196
0.04967	-195
0.05033	-194
0.05100	-192
0.05167	-191
0.05233	-190
0.05300	-188
0.05367	-187
0.05433	-186
0.05500	-184
0.05567	-183
0.05633	-181
0.05700	-179
0.05767	-178
0.05833	-176
0.05900	-175
0.05967	-173
0.06033	-171
0.06100	-170
0.06167	-168
0.06233	-167
0.06300	-165
0.06367	-163
0.06433	-162
0.06500	-160
0.06567	-159
0.06633	-157
0.06700	-156
0.06767	-154
0.06833	-153
0.06900	-151
0.06967	-150
0.07033	-149
0.07100	-147
0.07167	-146
0.07233	-145
0.07300	-143
0.07367	-142
0.07433	-141
0.07500	-140
0.07567	-138
0.07633	-137
0.07700	-136
0.07767	-135
0.07833	-134
0.07900	-133
0.07967	-132
0.08033	-131
0.08100	-130
0.08167	-129
0.08233	-128
0.08300	-128
0.08367	-127
0.08433	-126
0.08500	-125
0.08567	-124
0.08633	-124
0.08700	-123
0.08767	-122
0.08833	-121
0.08900	-121
0.08967	-120
0.09033	-119
0.09100	-118
0.09167	-116
0.09233	-114
0.09300	-111
0.09367	-107
0.09433	-101
0.09500	-94
0.09567	-84
0.09633	-72
0.09700	-57
0.09767	-42
0.09833	-24
0.09900	-3
0.09967	20
0.10033	44
0.10100	70
0.10167	98
0.10233	131
0.10300	170
0.10367	211
0.10433	252
0.10500	294
0.10567	339
0.10633	385
0.10700	439
0.10767	497
0.10833	564
0.10900	652
0.10967	747
0.11033	840
0.11100	933
0.11167	1026
0.11233	1122
0.11300	1217
0.11367	1308
0.11433	1400
0.11500	1492
0.11567	1582
0.11633	1674
0.11700	1770
0.11767	1878
0.11833	1991
0.11900	2111
0.11967	2246
0.12033	2397
0.12100	2558
0.12167	2725
0.12233	2883
0.12300	3043
0.12367	3219
0.12433	3391
0.12500	3551
0.12567	3707
0.12633	3857
0.12700	3994
0.12767	4119
0.12833	4233
0.12900	4360
0.12967	4505
0.13033	4637
0.13100	4760
0.13167	4879
0.13233	4996
0.13300	5105
0.13367	5202
0.13433	5294
0.13500	5394
0.13567	5500
0.13633	5623
0.13700	5844
0.13767	6406
0.13833	7958
0.13900	11970
0.13967	21420
0.14033	41933
0.14100	82677
0.14167	157983
0.14233	287181
0.14300	494112
0.14367	803846
0.14433	1241478
0.14500	1829514
0.14567	2588975
0.14633	3537559
0.14700	4689537
0.14767	6055275
0.14833	7642292
0.14900	9456094
0.14967	11496558
0.15033	13743539
0.15100	16170649
0.15167	18802513
0.15233	21687590
0.15300	24847092
0.15367	28275896
0.15433	31953813
0.15500	35853492
0.15567	39944705
0.15633	44197673
0.15700	48583140
0.15767	53073262
0.15833	57640864
0.15900	62260756
0.15967	66909493
0.16033	71565611
0.16100	76208707
0.16167	80820091
0.16233	85382955
0.16300	89882251
0.16367	94304465
0.16433	98637753
0.16500	102872052
0.16567	106998525
0.16633	111009215
0.16700	114896832
0.16767	118655320
0.16833	122279368
0.16900	125764723
0.16967	129107824
0.17033	132305966
0.17100	135356940
0.17167	138259526
0.17233	141013337
0.17300	143619596
0.17367	146079950
0.17433	148395605
0.17500	150566544
0.17567	152592685
0.17633	154474151
0.17700	156211727
0.17767	157806738
0.17833	159260976
0.17900	160576564
0.17967	161755778
0.18033	162801070
0.18100	163714931
0.18167	164499847
0.18233	165158416
0.18300	165693434
0.18367	166107543
0.18433	166403578
0.18500	166584312
0.18567	166652796
0.18633	166612044
0.18700	166465300
0.18767	166215694
0.18833	165866403
0.18900	165420480
0.18967	164881069
0.19033	164251279
0.19100	163534390
0.19167	162733741
0.19233	161852834
0.19300	160895150
0.19367	159864096
0.19433	158762993
0.19500	157595110
0.19567	156363754
0.19633	155072273
0.19700	153724127
0.19767	152322881
0.19833	150872484
0.19900	149377416
0.19967	147842112
0.20033	146270037
0.20100	144663598
0.20167	143024415
0.20233	141353935
0.20300	139653579
0.20367	137924989
0.20433	136169949
0.20500	134390507
0.20567	132588862
0.20633	130767352
0.20700	128928327
0.20767	127074127
0.20833	125207014
0.20900	123329167
0.20967	121442687
0.21033	119549609
0.21100	117651908
0.21167	115751472
0.21233	113850113
0.21300	111949545
0.21367	110051427
0.21433	108157326
0.21500	106268745
0.21567	104387095
0.21633	102513727
0.21700	100649911
0.21767	98796853
0.21833	96955685
0.21900	95127483
0.21967	93313252
0.22033	91513961
0.22100	89730483
0.22167	87963631
0.22233	86214156
0.22300	84482771
0.22367	82770126
0.22433	81076824
0.22500	79403412
0.22567	77750388
0.22633	76118199
0.22700	74507248
0.22767	72917902
0.22833	71350481
0.22900	69805274
0.22967	68282530
0.23033	66782473
0.23100	65305288
0.23167	63851129
0.23233	62420119
0.23300	61012358
0.23367	59627907
0.23433	58266810
0.23500	56929079
0.23567	55614704
0.23633	54323646
0.23700	53055848
0.23767	51811228
0.23833	50589686
0.23900	49391107
0.23967	48215359
0.24033	47062294
0.24100	45931746
0.24167	44823535
0.24233	43737465
0.24300	42673329
0.24367	41630906
0.24433	40609965
0.24500	39610268
0.24567	38631570
0.24633	37673615
0.24700	36736142
0.24767	35818880
0.24833	34921554
0.24900	34043885
0.24967	33185592
0.25033	32346389
0.25100	31525985
0.25167	30724092
0.25233	29940416
0.25300	29174664
0.25367	28426544
0.25433	27695760
0.25500	26982017
0.25567	26285023
0.25633	25604480
0.25700	24940094
0.25767	24291570
0.25833	23658625
0.25900	23041004
0.25967	22438506
0.26033	21850984
0.26100	21278303
0.26167	20720297
0.26233	20176734
0.26300	19647312
0.26367	19131673
0.26433	18629428
0.26500	18140178
0.26567	17663532
0.26633	17199121
0.26700	16746595
0.26767	16305628
0.26833	15875913
0.26900	15457163
0.26967	15049103
0.27033	14651473
0.27100	14264021
0.27167	13886505
0.27233	13518688
0.27300	13160344
0.27367	12811250
0.27433	12471188
0.27500	12139946
0.27567	11817315
0.27633	11503092
0.27700	11197080
0.27767	10899084
0.27833	10608911
0.27900	10326375
0.27967	10051291
0.28033	9783478
0.28100	9522762
0.28167	9268970
0.28233	9021933
0.28300	8781486
0.28367	8547466
0.28433	8319716
0.28500	8098079
0.28567	7882405
0.28633	7672546
0.28700	7468356
0.28767	7269693
0.28833	7076420
0.28900	6888401
0.28967	6705504
0.29033	6527599
0.29100	6354560
0.29167	6186262
0.29233	6022586
0.29300	5863415
0.29367	5708634
0.29433	5558131
0.29500	5411796
0.29567	5269521
0.29633	5131202
0.29700	4996737
0.29767	4866026
0.29833	4738973
0.29900	4615482
0.29967	4495462
0.30033	4378821
0.30100	4265473
0.30167	4155331
0.30233	4048309
0.30300	3944325
0.30367	3843301
0.30433	3745156
0.30500	3649816
0.30567	3557207
0.30633	3467254
0.30700	3379889
0.30767	3295040
0.30833	3212641
0.30900	3132624
0.30967	3054926
0.31033	2979482
0.31100	2906232
0.31167	2835115
0.31233	2766073
0.31300	2699048
0.31367	2633984
0.31433	2570827
0.31500	2509524
0.31567	2450021
0.31633	2392269
0.31700	2336219
0.31767	2281822
0.31833	2229032
0.31900	2177802
0.31967	2128090
0.32033	2079852
0.32100	2033046
0.32167	1987634
0.32233	1943575
0.32300	1900834
0.32367	1859375
0.32433	1819164
0.32500	1780170
0.32567	1742365
0.32633	1705721
0.32700	1670213
0.32767	1635818
0.32833	1602516
0.32900	1570285
0.32967	1539107
0.33033	1508965
0.33100	1479841
0.33167	1451720
0.33233	1424586
0.33300	1398423
0.33367	1373218
0.33433	1348959
0.33500	1325634
0.33567	1303233
0.33633	1281745
0.33700	1261163
0.33767	1241480
0.33833	1222691
0.33900	1204789
0.33967	1187770
0.34033	1171628
0.34100	1156359
0.34167	1141953
0.34233	1128404
0.34300	1115699
0.34367	1103826
0.34433	1092771
0.34500	1082518
0.34567	1073052
0.34633	1064356
0.34700	1056414
0.34767	1049208
0.34833	1042721
0.34900	1036934
0.34967	1031826
0.35033	1027378
0.35100	1023568
0.35167	1020370
0.35233	1017760
0.35300	1015710
0.35367	1014189
0.35433	1013167
0.35500	1012612
0.35567	1012495
0.35633	1012784
0.35700	1013447
0.35767	1014454
0.35833	1015776
0.35900	1017383
0.35967	1019247
0.36033	1021343
0.36100	1023643
0.36167	1026124
0.36233	1028764
0.36300	1031541
0.36367	1034436
0.36433	1037431
0.36500	1040512
0.36567	1043666
0.36633	1046881
0.36700	1050146
0.36767	1053455
0.36833	1056798
0.36900	1060171
0.36967	1063566
0.37033	1066977
0.37100	1070397
0.37167	1073822
0.37233	1077244
0.37300	1080658
0.37367	1084059
0.37433	1087445
0.37500	1090815
0.37567	1094168
0.37633	1097507
0.37700	1100832
0.37767	1104147
0.37833	1107456
0.37900	1110761
0.37967	1114067
0.38033	1117374
0.38100	1120686
0.38167	1124003
0.38233	1127324
0.38300	1130649
0.38367	1133975
0.38433	1137302
0.38500	1140629
0.38567	1143953
0.38633	1147275
0.38700	1150594
0.38767	1153912
0.38833	1157231
0.38900	1160557
0.38967	1163897
0.39033	1167260
0.39100	1170656
0.39167	1174096
0.39233	1177588
0.39300	1181142
0.39367	1184759
0.39433	1188440
0.39500	1192183
0.39567	1195981
0.39633	1199826
0.39700	1203707
0.39767	1207613
0.39833	1211532
0.39900	1215452
0.39967	1219363
0.40033	1223256
0.40100	1227125
0.40167	1230968
0.40233	1234779
0.40300	1238554
0.40367	1242291
0.40433	1245986
0.40500	1249636
0.40567	1253235
0.40633	1256780
0.40700	1260262
0.40767	1263675
0.40833	1267006
0.40900	1270241
0.40967	1273359
0.41033	1276336
0.41100	1279147
0.41167	1281763
0.41233	1284154
0.41300	1286292
0.41367	1288147
0.41433	1289695
0.41500	1290910
0.41567	1291766
0.41633	1292233
0.41700	1292280
0.41767	1291873
0.41833	1290978
0.41900	1289558
0.41967	1287578
0.42033	1285001
0.42100	1281796
0.42167	1277932
0.42233	1273379
0.42300	1268111
0.42367	1262105
0.42433	1255347
0.42500	1247828
0.42567	1239552
0.42633	1230531
0.42700	1220786
0.42767	1210346
0.42833	1199247
0.42900	1187527
0.42967	1175230
0.43033	1162399
0.43100	1149080
0.43167	1135316
0.43233	1121149
0.43300	1106623
0.43367	1091777
0.43433	1076650
0.43500	1061280
0.43567	1045703
0.43633	1029950
0.43700	1014056
0.43767	998050
0.43833	981961
0.43900	965817
0.43967	949642
0.44033	933461
0.44100	917294
0.44167	901163
0.44233	885086
0.44300	869080
0.44367	853161
0.44433	837342
0.44500	821638
0.44567	806058
0.44633	790616
0.44700	775320
0.44767	760182
0.44833	745209
0.44900	730412
0.44967	715797
0.45033	701372
0.45100	687142
0.45167	673115
0.45233	659295
0.45300	645685
0.45367	632290
0.45433	619112
0.45500	606155
0.45567	593419
0.45633	580908
0.45700	568622
0.45767	556561
0.45833	544727
0.45900	533119
0.45967	521737
0.46033	510582
0.46100	499653
0.46167	488950
0.46233	478471
0.46300	468217
0.46367	458186
0.46433	448378
0.46500	438792
0.46567	429428
0.46633	420283
0.46700	411358
0.46767	402651
0.46833	394160
0.46900	385882
0.46967	377813
0.47033	369950
0.47100	362289
0.47167	354823
0.47233	347551
0.47300	340468
0.47367	333570
0.47433	326853
0.47500	320313
0.47567	313945
0.47633	307745
0.47700	301710
0.47767	295835
0.47833	290116
0.47900	284550
0.47967	279132
0.48033	273859
0.48100	268726
0.48167	263731
0.48233	258869
0.48300	254137
0.48367	249531
0.48433	245049
0.48500	240687
0.48567	236442
0.48633	232310
0.48700	228289
0.48767	224375
0.48833	220566
0.48900	216859
0.48967	213250
0.49033	209737
0.49100	206316
0.49167	202987
0.49233	199744
0.49300	196587
0.49367	193512
0.49433	190517
0.49500	187600
0.49567	184759
0.49633	181990
0.49700	179293
0.49767	176664
0.49833	174102
0.49900	171604
0.49967	169170
0.50033	166797
0.50100	164483
0.50167	162227
0.50233	160026
0.50300	157880
0.50367	155786
0.50433	153742
0.50500	151749
0.50567	149803
0.50633	147903
0.50700	146049
0.50767	144238
0.50833	142469
0.50900	140741
0.50967	139052
0.51033	137403
0.51100	135790
0.51167	134214
0.51233	132673
0.51300	131165
0.51367	129691
0.51433	128249
0.51500	126837
0.51567	125456
0.51633	124104
0.51700	122781
0.51767	121485
0.51833	120216
0.51900	118973
0.51967	117755
0.52033	116562
0.52100	115392
0.52167	114245
0.52233	113121
0.52300	112018
0.52367	110937
0.52433	109876
0.52500	108835
0.52567	107813
0.52633	106810
0.52700	105826
0.52767	104859
0.52833	103910
0.52900	102977
0.52967	102061
0.53033	101161
0.53100	100276
0.53167	99407
0.53233	98552
0.53300	97711
0.53367	96885
0.53433	96072
0.53500	95272
0.53567	94485
0.53633	93711
0.53700	92950
0.53767	92200
0.53833	91462
0.53900	90736
0.53967	90020
0.54033	89316
0.54100	88622
0.54167	87939
0.54233	87267
0.54300	86604
0.54367	85952
0.54433	85309
0.54500	84676
0.54567	84053
0.54633	83440
0.54700	82836
0.54767	82241
0.54833	81656
0.54900	81081
0.54967	80515
0.55033	79959
0.55100	79412
0.55167	78876
0.55233	78349
0.55300	77831
0.55367	77324
0.55433	76826
0.55500	76338
0.55567	75859
0.55633	75389
0.55700	74928
0.55767	74476
0.55833	74033
0.55900	73597
0.55967	73169
0.56033	72748
0.56100	72334
0.56167	71927
0.56233	71525
0.56300	71130
0.56367	70739
0.56433	70354
0.56500	69973
0.56567	69596
0.56633	69223
0.56700	68854
0.56767	68488
0.56833	68124
0.56900	67764
0.56967	67406
0.57033	67051
0.57100	66697
0.57167	66347
0.57233	65998
0.57300	65651
0.57367	65306
0.57433	64963
0.57500	64621
0.57567	64282
0.57633	63944
0.57700	63607
0.57767	63273
0.57833	62940
0.57900	62608
0.57967	62278
0.58033	61949
0.58100	61622
0.58167	61296
0.58233	60972
0.58300	60649
0.58367	60328
0.58433	60008
0.58500	59690
0.58567	59373
0.58633	59058
0.58700	58744
0.58767	58432
0.58833	58122
0.58900	57813
0.58967	57506
0.59033	57201
0.59100	56897
0.59167	56596
0.59233	56296
0.59300	55998
0.59367	55701
0.59433	55407
0.59500	55115
0.59567	54825
0.59633	54536
0.59700	54250
0.59767	53966
0.59833	53683
0.59900	53403
0.59967	53125
0.60033	52849
0.60100	52575
0.60167	52303
0.60233	52033
0.60300	51766
0.60367	51500
0.60433	51237
0.60500	50975
0.60567	50716
0.60633	50459
0.60700	50204
0.60767	49952
0.60833	49701
0.60900	49453
0.60967	49207
0.61033	48964
0.61100	48722
0.61167	48483
0.61233	48246
0.61300	48011
0.61367	47779
0.61433	47548
0.61500	47320
0.61567	47095
0.61633	46871
0.61700	46650
0.61767	46431
0.61833	46214
0.61900	45999
0.61967	45786
0.62033	45576
0.62100	45367
0.62167	45161
0.62233	44956
0.62300	44754
0.62367	44553
0.62433	44355
0.62500	44158
0.62567	43963
0.62633	43770
0.62700	43578
0.62767	43389
0.62833	43201
0.62900	43014
0.62967	42830
0.63033	42647
0.63100	42465
0.63167	42285
0.63233	42107
0.63300	41930
0.63367	41755
0.63433	41581
0.63500	41409
0.63567	41238
0.63633	41069
0.63700	40902
0.63767	40736
0.63833	40572
0.63900	40409
0.63967	40248
0.64033	40089
0.64100	39931
0.64167	39775
0.64233	39621
0.64300	39468
0.64367	39317
0.64433	39167
0.64500	39019
0.64567	38872
0.64633	38727
0.64700	38583
0.64767	38441
0.64833	38300
0.64900	38160
0.64967	38022
0.65033	37885
0.65100	37748
0.65167	37613
0.65233	37479
0.65300	37346
0.65367	37214
0.65433	37083
0.65500	36952
0.65567	36822
0.65633	36693
0.65700	36565
0.65767	36437
0.65833	36310
0.65900	36184
0.65967	36058
0.66033	35933
0.66100	35808
0.66167	35684
0.66233	35560
0.66300	35437
0.66367	35315
0.66433	35192
0.66500	35071
0.66567	34950
0.66633	34830
0.66700	34710
0.66767	34590
0.66833	34471
0.66900	34353
0.66967	34235
0.67033	34118
0.67100	34001
0.67167	33885
0.67233	33769
0.67300	33654
0.67367	33540
0.67433	33426
0.67500	33313
0.67567	33201
0.67633	33089
0.67700	32978
0.67767	32868
0.67833	32760
0.67900	32652
0.67967	32545
0.68033	32440
0.68100	32337
0.68167	32235
0.68233	32134
0.68300	32036
0.68367	31939
0.68433	31845
0.68500	31754
0.68567	31665
0.68633	31580
0.68700	31497
0.68767	31418
0.68833	31342
0.68900	31271
0.68967	31203
0.69033	31140
0.69100	31082
0.69167	31028
0.69233	30980
0.69300	30936
0.69367	30898
0.69433	30865
0.69500	30837
0.69567	30815
0.69633	30797
0.69700	30784
0.69767	30776
0.69833	30773
0.69900	30773
0.69967	30777
0.70033	30784
0.70100	30794
0.70167	30807
0.70233	30822
0.70300	30838
0.70367	30855
0.70433	30873
0.70500	30891
0.70567	30908
0.70633	30924
0.70700	30938
0.70767	30951
0.70833	30961
0.70900	30968
0.70967	30972
0.71033	30972
0.71100	30969
0.71167	30962
0.71233	30951
0.71300	30936
0.71367	30917
0.71433	30893
0.71500	30865
0.71567	30833
0.71633	30797
0.71700	30756
0.71767	30712
0.71833	30663
0.71900	30611
0.71967	30555
0.72033	30495
0.72100	30433
0.72167	30366
0.72233	30297
0.72300	30225
0.72367	30150
0.72433	30072
0.72500	29993
0.72567	29911
0.72633	29826
0.72700	29740
0.72767	29653
0.72833	29563
0.72900	29472
0.72967	29380
0.73033	29286
0.73100	29191
0.73167	29095
0.73233	28999
0.73300	28901
0.73367	28803
0.73433	28704
0.73500	28605
0.73567	28505
0.73633	28405
0.73700	28305
0.73767	28204
0.73833	28103
0.73900	28003
0.73967	27902
0.74033	27801
0.74100	27700
0.74167	27600
0.74233	27500
0.74300	27399
0.74367	27300
0.74433	27200
0.74500	27101
0.74567	27002
0.74633	26904
0.74700	26806
0.74767	26708
0.74833	26611
0.74900	26515
0.74967	26419
0.75033	26324
0.75100	26229
0.75167	26136
0.75233	26042
0.75300	25950
0.75367	25858
0.75433	25767
0.75500	25676
0.75567	25586
0.75633	25497
0.75700	25409
0.75767	25321
0.75833	25234
0.75900	25148
0.75967	25063
0.76033	24978
0.76100	24895
0.76167	24812
0.76233	24729
0.76300	24648
0.76367	24567
0.76433	24487
0.76500	24408
0.76567	24329
0.76633	24251
0.76700	24174
0.76767	24098
0.76833	24023
0.76900	23948
0.76967	23874
0.77033	23801
0.77100	23729
0.77167	23657
0.77233	23586
0.77300	23515
0.77367	23445
0.77433	23376
0.77500	23308
0.77567	23240
0.77633	23174
0.77700	23107
0.77767	23042
0.77833	22977
0.77900	22913
0.77967	22849
0.78033	22786
0.78100	22724
0.78167	22662
0.78233	22601
0.78300	22541
0.78367	22481
0.78433	22421
0.78500	22363
0.78567	22305
0.78633	22247
0.78700	22190
0.78767	22134
0.78833	22078
0.78900	22023
0.78967	21968
0.79033	21914
0.79100	21860
0.79167	21807
0.79233	21754
0.79300	21702
0.79367	21651
0.79433	21600
0.79500	21549
0.79567	21499
0.79633	21449
0.79700	21400
0.79767	21351
0.79833	21303
0.79900	21255
0.79967	21208
0.80033	21161
0.80100	21114
0.80167	21068
0.80233	21022
0.80300	20977
0.80367	20932
0.80433	20888
0.80500	20844
0.80567	20800
0.80633	20757
0.80700	20715
0.80767	20672
0.80833	20631
0.80900	20589
0.80967	20548
0.81033	20507
0.81100	20467
0.81167	20427
0.81233	20388
0.81300	20349
0.81367	20310
0.81433	20272
0.81500	20235
0.81567	20198
0.81633	20161
0.81700	20125
0.81767	20089
0.81833	20054
0.81900	20019
0.81967	19984
0.82033	19950
0.82100	19916
0.82167	19883
0.82233	19850
0.82300	19817
0.82367	19785
0.82433	19753
0.82500	19721
0.82567	19690
0.82633	19659
0.82700	19628
0.82767	19597
0.82833	19566
0.82900	19536
0.82967	19505
0.83033	19475
0.83100	19446
0.83167	19416
0.83233	19386
0.83300	19357
0.83367	19328
0.83433	19298
0.83500	19269
0.83567	19240
0.83633	19211
0.83700	19183
0.83767	19154
0.83833	19125
0.83900	19097
0.83967	19069
0.84033	19041
0.84100	19012
0.84167	18984
0.84233	18957
0.84300	18929
0.84367	18901
0.84433	18873
0.84500	18845
0.84567	18818
0.84633	18790
0.84700	18762
0.84767	18735
0.84833	18707
0.84900	18680
0.84967	18652
0.85033	18624
0.85100	18597
0.85167	18569
0.85233	18542
0.85300	18514
0.85367	18486
0.85433	18458
0.85500	18431
0.85567	18403
0.85633	18375
0.85700	18347
0.85767	18319
0.85833	18291
0.85900	18263
0.85967	18236
0.86033	18208
0.86100	18180
0.86167	18152
0.86233	18124
0.86300	18097
0.86367	18069
0.86433	18041
0.86500	18014
0.86567	17986
0.86633	17959
0.86700	17931
0.86767	17904
0.86833	17877
0.86900	17850
0.86967	17823
0.87033	17796
0.87100	17769
0.87167	17742
0.87233	17715
0.87300	17688
0.87367	17661
0.87433	17635
0.87500	17608
0.87567	17582
0.87633	17556
0.87700	17530
0.87767	17504
0.87833	17478
0.87900	17453
0.87967	17427
0.88033	17402
0.88100	17376
0.88167	17351
0.88233	17326
0.88300	17301
0.88367	17276
0.88433	17252
0.88500	17227
0.88567	17203
0.88633	17179
0.88700	17155
0.88767	17131
0.88833	17107
0.88900	17083
0.88967	17060
0.89033	17037
0.89100	17014
0.89167	16991
0.89233	16968
0.89300	16945
0.89367	16922
0.89433	16900
0.89500	16877
0.89567	16855
0.89633	16833
0.89700	16811
0.89767	16789
0.89833	16768
0.89900	16746
0.89967	16725
0.90033	16703
0.90100	16682
0.90167	16661
0.90233	16640
0.90300	16619
0.90367	16598
0.90433	16577
0.90500	16556
0.90567	16536
0.90633	16515
0.90700	16495
0.90767	16474
0.90833	16454
0.90900	16434
0.90967	16414
0.91033	16394
0.91100	16374
0.91167	16354
0.91233	16334
0.91300	16315
0.91367	16295
0.91433	16276
0.91500	16257
0.91567	16237
0.91633	16218
0.91700	16199
0.91767	16181
0.91833	16162
0.91900	16143
0.91967	16124
0.92033	16106
0.92100	16087
0.92167	16069
0.92233	16051
0.92300	16032
0.92367	16014
0.92433	15996
0.92500	15978
0.92567	15960
0.92633	15943
0.92700	15925
0.92767	15907
0.92833	15890
0.92900	15873
0.92967	15855
0.93033	15838
0.93100	15821
0.93167	15804
0.93233	15787
0.93300	15770
0.93367	15753
0.93433	15737
0.93500	15720
0.93567	15703
0.93633	15687
0.93700	15670
0.93767	15654
0.93833	15638
0.93900	15621
0.93967	15605
0.94033	15589
0.94100	15573
0.94167	15556
0.94233	15540
0.94300	15524
0.94367	15508
0.94433	15492
0.94500	15476
0.94567	15460
0.94633	15445
0.94700	15429
0.94767	15413
0.94833	15397
0.94900	15381
0.94967	15365
0.95033	15350
0.95100	15334
0.95167	15319
0.95233	15303
0.95300	15288
0.95367	15273
0.95433	15258
0.95500	15242
0.95567	15227
0.95633	15212
0.95700	15197
0.95767	15183
0.95833	15168
0.95900	15153
0.95967	15139
0.96033	15125
0.96100	15110
0.96167	15096
0.96233	15082
0.96300	15068
0.96367	15055
0.96433	15041
0.96500	15027
0.96567	15014
0.96633	15000
0.96700	14987
0.96767	14974
0.96833	14961
0.96900	14947
0.96967	14934
0.97033	14921
0.97100	14908
0.97167	14895
0.97233	14881
0.97300	14868
0.97367	14855
0.97433	14842
0.97500	14829
0.97567	14815
0.97633	14802
0.97700	14789
0.97767	14775
0.97833	14762
0.97900	14749
0.97967	14735
0.98033	14722
0.98100	14708
0.98167	14695
0.98233	14681
0.98300	14668
0.98367	14654
0.98433	14640
0.98500	14627
0.98567	14613
0.98633	14599
0.98700	14586
0.98767	14572
0.98833	14558
0.98900	14545
0.98967	14531
0.99033	14517
0.99100	14503
0.99167	14489
0.99233	14475
0.99300	14462
0.99367	14448
0.99433	14434
0.99500	14420
0.99567	14406
0.99633	14392
0.99700	14378
0.99767	14364
0.99833	14350
0.99900	14336
0.99967	14322
1.00033	14308
1.00100	14294
1.00167	14280
1.00233	14267
1.00300	14253
1.00367	14239
1.00433	14226
1.00500	14212
1.00567	14199
1.00633	14185
1.00700	14172
1.00767	14159
1.00833	14146
1.00900	14133
1.00967	14120
1.01033	14107
1.01100	14095
1.01167	14082
1.01233	14070
1.01300	14058
1.01367	14046
1.01433	14035
1.01500	14024
1.01567	14013
1.01633	14002
1.01700	13991
1.01767	13981
1.01833	13971
1.01900	13961
1.01967	13952
1.02033	13943
1.02100	13934
1.02167	13925
1.02233	13917
1.02300	13909
1.02367	13901
1.02433	13893
1.02500	13885
1.02567	13878
1.02633	13871
1.02700	13864
1.02767	13857
1.02833	13850
1.02900	13843
1.02967	13836
1.03033	13829
1.03100	13823
1.03167	13816
1.03233	13809
1.03300	13802
1.03367	13795
1.03433	13787
1.03500	13780
1.03567	13773
1.03633	13765
1.03700	13757
1.03767	13749
1.03833	13741
1.03900	13732
1.03967	13724
1.04033	13715
1.04100	13706
1.04167	13696
1.04233	13687
1.04300	13677
1.04367	13668
1.04433	13658
1.04500	13647
1.04567	13637
1.04633	13626
1.04700	13616
1.04767	13605
1.04833	13594
1.04900	13583
1.04967	13571
1.05033	13560
1.05100	13548
1.05167	13536
1.05233	13524
1.05300	13512
1.05367	13500
1.05433	13488
1.05500	13476
1.05567	13464
1.05633	13451
1.05700	13439
1.05767	13427
1.05833	13414
1.05900	13402
1.05967	13389
1.06033	13377
1.06100	13364
1.06167	13352
1.06233	13339
1.06300	13326
1.06367	13314
1.06433	13301
1.06500	13288
1.06567	13276
1.06633	13263
1.06700	13251
1.06767	13238
1.06833	13225
1.06900	13213
1.06967	13200
1.07033	13188
1.07100	13175
1.07167	13163
1.07233	13150
1.07300	13138
1.07367	13126
1.07433	13113
1.07500	13101
1.07567	13088
1.07633	13076
1.07700	13064
1.07767	13052
1.07833	13040
1.07900	13028
1.07967	13016
1.08033	13004
1.08100	12992
1.08167	12980
1.08233	12968
1.08300	12956
1.08367	12945
1.08433	12933
1.08500	12921
1.08567	12909
1.08633	12898
1.08700	12886
1.08767	12875
1.08833	12863
1.08900	12852
1.08967	12840
1.09033	12829
1.09100	12817
1.09167	12806
1.09233	12795
1.09300	12783
1.09367	12772
1.09433	12761
1.09500	12750
1.09567	12739
1.09633	12728
1.09700	12717
1.09767	12706
1.09833	12695
1.09900	12685
1.09967	12674
1.10033	12663
1.10100	12653
1.10167	12642
1.10233	12632
1.10300	12621
1.10367	12611
1.10433	12601
1.10500	12591
1.10567	12580
1.10633	12570
1.10700	12560
1.10767	12550
1.10833	12540
1.10900	12531
1.10967	12521
1.11033	12511
1.11100	12502
1.11167	12492
1.11233	12482
1.11300	12473
1.11367	12464
1.11433	12454
1.11500	12445
1.11567	12436
1.11633	12427
1.11700	12418
1.11767	12409
1.11833	12400
1.11900	12391
1.11967	12383
1.12033	12374
1.12100	12366
1.12167	12358
1.12233	12350
1.12300	12342
1.12367	12334
1.12433	12327
1.12500	12320
1.12567	12313
1.12633	12306
1.12700	12300
1.12767	12294
1.12833	12288
1.12900	12282
1.12967	12277
1.13033	12272
1.13100	12267
1.13167	12263
1.13233	12260
1.13300	12256
1.13367	12253
1.13433	12251
1.13500	12248
1.13567	12247
1.13633	12245
1.13700	12244
1.13767	12243
1.13833	12242
1.13900	12242
1.13967	12242
1.14033	12242
1.14100	12242
1.14167	12242
1.14233	12242
1.14300	12242
1.14367	12243
1.14433	12243
1.14500	12243
1.14567	12243
1.14633	12242
1.14700	12242
1.14767	12241
1.14833	12241
1.14900	12240
1.14967	12238
1.15033	12237
1.15100	12235
1.15167	12233
1.15233	12230
1.15300	12227
1.15367	12224
1.15433	12221
1.15500	12217
1.15567	12213
1.15633	12209
1.15700	12204
1.15767	12199
1.15833	12194
1.15900	12188
1.15967	12182
1.16033	12176
1.16100	12170
1.16167	12163
1.16233	12156
1.16300	12149
1.16367	12142
1.16433	12134
1.16500	12127
1.16567	12119
1.16633	12111
1.16700	12102
1.16767	12094
1.16833	12085
1.16900	12077
1.16967	12068
1.17033	12059
1.17100	12050
1.17167	12041
1.17233	12032
1.17300	12023
1.17367	12013
1.17433	12004
1.17500	11994
1.17567	11985
1.17633	11975
1.17700	11966
1.17767	11956
1.17833	11947
1.17900	11937
1.17967	11928
1.18033	11918
1.18100	11908
1.18167	11899
1.18233	11889
1.18300	11880
1.18367	11870
1.18433	11860
1.18500	11851
1.18567	11841
1.18633	11832
1.18700	11822
1.18767	11813
1.18833	11804
1.18900	11794
1.18967	11785
1.19033	11776
1.19100	11767
1.19167	11758
1.19233	11749
1.19300	11740
1.19367	11731
1.19433	11723
1.19500	11714
1.19567	11706
1.19633	11697
1.19700	11689
1.19767	11681
1.19833	11673
1.19900	11665
1.19967	11657
1.20033	11649
1.20100	11641
1.20167	11634
1.20233	11626
1.20300	11619
1.20367	11612
1.20433	11605
1.20500	11598
1.20567	11591
1.20633	11584
1.20700	11577
1.20767	11571
1.20833	11564
1.20900	11558
1.20967	11552
1.21033	11546
1.21100	11540
1.21167	11534
1.21233	11528
1.21300	11522
1.21367	11516
1.21433	11510
1.21500	11505
1.21567	11499
1.21633	11494
1.21700	11488
1.21767	11483
1.21833	11477
1.21900	11472
1.21967	11467
1.22033	11462
1.22100	11456
1.22167	11451
1.22233	11446
1.22300	11441
1.22367	11436
1.22433	11431
1.22500	11426
1.22567	11421
1.22633	11416
1.22700	11411
1.22767	11406
1.22833	11402
1.22900	11397
1.22967	11392
1.23033	11387
1.23100	11382
1.23167	11377
1.23233	11373
1.23300	11368
1.23367	11363
1.23433	11358
1.23500	11354
1.23567	11349
1.23633	11345
1.23700	11340
1.23767	11336
1.23833	11331
1.23900	11327
1.23967	11322
1.24033	11318
1.24100	11314
1.24167	11310
1.24233	11305
1.24300	11301
1.24367	11297
1.24433	11293
1.24500	11289
1.24567	11285
1.24633	11281
1.24700	11277
1.24767	11272
1.24833	11269
1.24900	11265
1.24967	11261
1.25033	11257
1.25100	11253
1.25167	11249
1.25233	11245
1.25300	11242
1.25367	11238
1.25433	11234
1.25500	11231
1.25567	11228
1.25633	11224
1.25700	11221
1.25767	11218
1.25833	11215
1.25900	11211
1.25967	11208
1.26033	11206
1.26100	11203
1.26167	11200
1.26233	11197
1.26300	11195
1.26367	11192
1.26433	11190
1.26500	11188
1.26567	11185
1.26633	11183
1.26700	11181
1.26767	11179
1.26833	11177
1.26900	11175
1.26967	11174
1.27033	11172
1.27100	11171
1.27167	11170
1.27233	11169
1.27300	11168
1.27367	11167
1.27433	11167
1.27500	11166
1.27567	11166
1.27633	11165
1.27700	11165
1.27767	11165
1.27833	11165
1.27900	11165
1.27967	11166
1.28033	11166
1.28100	11167
1.28167	11167
1.28233	11168
1.28300	11169
1.28367	11170
1.28433	11171
1.28500	11172
1.28567	11173
1.28633	11174
1.28700	11175
1.28767	11176
1.28833	11177
1.28900	11178
1.28967	11179
1.29033	11180
1.29100	11181
1.29167	11181
1.29233	11182
1.29300	11182
1.29367	11182
1.29433	11182
1.29500	11182
1.29567	11182
1.29633	11182
1.29700	11181
1.29767	11180
1.29833	11179
1.29900	11178
1.29967	11176
1.30033	11174
1.30100	11172
1.30167	11170
1.30233	11168
1.30300	11166
1.30367	11163
1.30433	11160
1.30500	11157
1.30567	11154
1.30633	11151
1.30700	11148
1.30767	11144
1.30833	11140
1.30900	11136
1.30967	11132
1.31033	11128
1.31100	11124
1.31167	11119
1.31233	11114
1.31300	11110
1.31367	11105
1.31433	11100
1.31500	11095
1.31567	11089
1.31633	11084
1.31700	11079
1.31767	11073
1.31833	11067
1.31900	11061
1.31967	11055
1.32033	11049
1.32100	11043
1.32167	11037
1.32233	11030
1.32300	11024
1.32367	11017
1.32433	11010
1.32500	11003
1.32567	10996
1.32633	10989
1.32700	10982
1.32767	10975
1.32833	10967
1.32900	10960
1.32967	10952
1.33033	10945
1.33100	10937
1.33167	10930
1.33233	10922
1.33300	10914
1.33367	10907
1.33433	10899
1.33500	10891
1.33567	10883
1.33633	10875
1.33700	10867
1.33767	10859
1.33833	10851
1.33900	10843
1.33967	10835
1.34033	10827
1.34100	10819
1.34167	10811
1.34233	10803
1.34300	10795
1.34367	10787
1.34433	10779
1.34500	10771
1.34567	10763
1.34633	10754
1.34700	10746
1.34767	10738
1.34833	10730
1.34900	10722
1.34967	10714
1.35033	10706
1.35100	10698
1.35167	10690
1.35233	10682
1.35300	10674
1.35367	10666
1.35433	10658
1.35500	10650
1.35567	10642
1.35633	10635
1.35700	10627
1.35767	10619
1.35833	10612
1.35900	10604
1.35967	10597
1.36033	10590
1.36100	10582
1.36167	10575
1.36233	10568
1.36300	10561
1.36367	10554
1.36433	10547
1.36500	10540
1.36567	10533
1.36633	10527
1.36700	10520
1.36767	10513
1.36833	10507
1.36900	10500
1.36967	10493
1.37033	10487
1.37100	10481
1.37167	10474
1.37233	10468
1.37300	10462
1.37367	10456
1.37433	10450
1.37500	10444
1.37567	10438
1.37633	10432
1.37700	10426
1.37767	10420
1.37833	10414
1.37900	10409
1.37967	10403
1.38033	10397
1.38100	10392
1.38167	10386
1.38233	10380
1.38300	10375
1.38367	10369
1.38433	10364
1.38500	10359
1.38567	10353
1.38633	10348
1.38700	10342
1.38767	10337
1.38833	10332
1.38900	10326
1.38967	10321
1.39033	10316
1.39100	10310
1.39167	10305
1.39233	10300
1.39300	10294
1.39367	10289
1.39433	10283
1.39500	10278
1.39567	10272
1.39633	10267
1.39700	10261
1.39767	10256
1.39833	10250
1.39900	10245
1.39967	10240
1.40033	10234
1.40100	10229
1.40167	10223
1.40233	10218
1.40300	10213
1.40367	10207
1.40433	10202
1.40500	10197
1.40567	10191
1.40633	10186
1.40700	10181
1.40767	10176
1.40833	10170
1.40900	10165
1.40967	10160
1.41033	10155
1.41100	10150
1.41167	10145
1.41233	10140
1.41300	10135
1.41367	10130
1.41433	10125
1.41500	10120
1.41567	10115
1.41633	10110
1.41700	10105
1.41767	10100
1.41833	10095
1.41900	10090
1.41967	10086
1.42033	10081
1.42100	10076
1.42167	10071
1.42233	10067
1.42300	10062
1.42367	10057
1.42433	10053
1.42500	10049
1.42567	10044
1.42633	10040
1.42700	10036
1.42767	10032
1.42833	10027
1.42900	10023
1.42967	10019
1.43033	10015
1.43100	10011
1.43167	10007
1.43233	10004
1.43300	10000
1.43367	9996
1.43433	9992
1.43500	9988
1.43567	9985
1.43633	9981
1.43700	9977
1.43767	9974
1.43833	9970
1.43900	9967
1.43967	9963
1.44033	9959
1.44100	9956
1.44167	9952
1.44233	9949
1.44300	9945
1.44367	9942
1.44433	9939
1.44500	9935
1.44567	9932
1.44633	9928
1.44700	9925
1.44767	9921
1.44833	9918
1.44900	9915
1.44967	9911
1.45033	9908
1.45100	9905
1.45167	9902
1.45233	9898
1.45300	9895
1.45367	9892
1.45433	9888
1.45500	9885
1.45567	9882
1.45633	9878
1.45700	9875
1.45767	9871
1.45833	9868
1.45900	9864
1.45967	9861
1.46033	9857
1.46100	9853
1.46167	9850
1.46233	9846
1.46300	9843
1.46367	9839
1.46433	9835
1.46500	9832
1.46567	9828
1.46633	9824
1.46700	9820
1.46767	9817
1.46833	9813
1.46900	9809
1.46967	9806
1.47033	9802
1.47100	9799
1.47167	9795
1.47233	9792
1.47300	9788
1.47367	9785
1.47433	9781
1.47500	9778
1.47567	9775
1.47633	9771
1.47700	9768
1.47767	9764
1.47833	9761
1.47900	9757
1.47967	9753
1.48033	9750
1.48100	9746
1.48167	9742
1.48233	9739
1.48300	9735
1.48367	9731
1.48433	9727
1.48500	9722
1.48567	9718
1.48633	9714
1.48700	9710
1.48767	9706
1.48833	9701
1.48900	9697
1.48967	9693
1.49033	9688
1.49100	9684
1.49167	9680
1.49233	9675
1.49300	9671
1.49367	9667
1.49433	9662
1.49500	9658
1.49567	9653
1.49633	9649
1.49700	9645
1.49767	9640
1.49833	9636
1.49900	9631
1.49967	9627
1.50033	9622
1.50100	9618
1.50167	9613
1.50233	9609
1.50300	9604
1.50367	9600
1.50433	9595
1.50500	9591
1.50567	9587
1.50633	9582
1.50700	9578
1.50767	9573
1.50833	9569
1.50900	9564
1.50967	9560
1.51033	9556
1.51100	9551
1.51167	9547
1.51233	9543
1.51300	9538
1.51367	9534
1.51433	9530
1.51500	9526
1.51567	9522
1.51633	9517
1.51700	9513
1.51767	9509
1.51833	9505
1.51900	9501
1.51967	9497
1.52033	9493
1.52100	9490
1.52167	9486
1.52233	9482
1.52300	9478
1.52367	9475
1.52433	9471
1.52500	9467
1.52567	9464
1.52633	9460
1.52700	9457
1.52767	9453
1.52833	9450
1.52900	9446
1.52967	9443
1.53033	9439
1.53100	9436
1.53167	9433
1.53233	9429
1.53300	9426
1.53367	9423
1.53433	9419
1.53500	9416
1.53567	9413
1.53633	9409
1.53700	9406
1.53767	9403
1.53833	9399
1.53900	9396
1.53967	9393
1.54033	9389
1.54100	9386
1.54167	9382
1.54233	9379
1.54300	9376
1.54367	9372
1.54433	9369
1.54500	9365
1.54567	9362
1.54633	9359
1.54700	9356
1.54767	9352
1.54833	9349
1.54900	9346
1.54967	9342
1.55033	9339
1.55100	9336
1.55167	9333
1.55233	9329
1.55300	9326
1.55367	9323
1.55433	9320
1.55500	9316
1.55567	9313
1.55633	9310
1.55700	9307
1.55767	9304
1.55833	9301
1.55900	9297
1.55967	9294
1.56033	9291
1.56100	9288
1.56167	9285
1.56233	9281
1.56300	9278
1.56367	9275
1.56433	9272
1.56500	9269
1.56567	9265
1.56633	9262
1.56700	9259
1.56767	9256
1.56833	9252
1.56900	9249
1.56967	9246
1.57033	9243
1.57100	9239
1.57167	9236
1.57233	9233
1.57300	9229
1.57367	9226
1.57433	9223
1.57500	9220
1.57567	9216
1.57633	9213
1.57700	9210
1.57767	9206
1.57833	9203
1.57900	9199
1.57967	9196
1.58033	9192
1.58100	9189
1.58167	9186
1.58233	9182
1.58300	9179
1.58367	9176
1.58433	9172
1.58500	9169
1.58567	9166
1.58633	9162
1.58700	9159
1.58767	9156
1.58833	9153
1.58900	9149
1.58967	9146
1.59033	9143
1.59100	9140
1.59167	9136
1.59233	9133
1.59300	9130
1.59367	9127
1.59433	9124
1.59500	9121
1.59567	9119
1.59633	9116
1.59700	9113
1.59767	9110
1.59833	9107
1.59900	9105
1.59967	9102
1.60033	9099
1.60100	9097
1.60167	9094
1.60233	9091
1.60300	9089
1.60367	9086
1.60433	9084
1.60500	9081
1.60567	9079
1.60633	9076
1.60700	9074
1.60767	9071
1.60833	9068
1.60900	9066
1.60967	9063
1.61033	9060
1.61100	9057
1.61167	9054
1.61233	9051
1.61300	9048
1.61367	9045
1.61433	9042
1.61500	9039
1.61567	9036
1.61633	9033
1.61700	9030
1.61767	9026
1.61833	9023
1.61900	9020
1.61967	9017
1.62033	9014
1.62100	9011
1.62167	9008
1.62233	9005
1.62300	9002
1.62367	8999
1.62433	8996
1.62500	8994
1.62567	8991
1.62633	8988
1.62700	8985
1.62767	8982
1.62833	8979
1.62900	8977
1.62967	8974
1.63033	8971
1.63100	8969
1.63167	8966
1.63233	8964
1.63300	8961
1.63367	8959
1.63433	8956
1.63500	8954
1.63567	8952
1.63633	8949
1.63700	8947
1.63767	8945
1.63833	8943
1.63900	8941
1.63967	8939
1.64033	8937
1.64100	8935
1.64167	8933
1.64233	8931
1.64300	8930
1.64367	8928
1.64433	8926
1.64500	8925
1.64567	8923
1.64633	8921
1.64700	8920
1.64767	8918
1.64833	8916
1.64900	8915
1.64967	8913
1.65033	8911
1.65100	8910
1.65167	8908
1.65233	8906
1.65300	8905
1.65367	8903
1.65433	8901
1.65500	8899
1.65567	8898
1.65633	8896
1.65700	8894
1.65767	8892
1.65833	8890
1.65900	8888
1.65967	8886
1.66033	8884
1.66100	8882
1.66167	8880
1.66233	8878
1.66300	8876
1.66367	8874
1.66433	8872
1.66500	8870
1.66567	8868
1.66633	8865
1.66700	8863
1.66767	8861
1.66833	8858
1.66900	8856
1.66967	8854
1.67033	8851
1.67100	8849
1.67167	8846
1.67233	8844
1.67300	8841
1.67367	8839
1.67433	8836
1.67500	8834
1.67567	8831
1.67633	8829
1.67700	8826
1.67767	8824
1.67833	8821
1.67900	8819
1.67967	8816
1.68033	8813
1.68100	8811
1.68167	8808
1.68233	8806
1.68300	8803
1.68367	8800
1.68433	8797
1.68500	8795
1.68567	8792
1.68633	8789
1.68700	8786
1.68767	8783
1.68833	8780
1.68900	8777
1.68967	8774
1.69033	8771
1.69100	8768
1.69167	8765
1.69233	8762
1.69300	8759
1.69367	8756
1.69433	8753
1.69500	8750
1.69567	8747
1.69633	8744
1.69700	8741
1.69767	8737
1.69833	8734
1.69900	8731
1.69967	8728
1.70033	8724
1.70100	8721
1.70167	8718
1.70233	8715
1.70300	8712
1.70367	8708
1.70433	8705
1.70500	8702
1.70567	8699
1.70633	8696
1.70700	8693
1.70767	8690
1.70833	8687
1.70900	8684
1.70967	8681
1.71033	8677
1.71100	8674
1.71167	8672
1.71233	8669
1.71300	8666
1.71367	8664
1.71433	8661
1.71500	8659
1.71567	8657
1.71633	8656
1.71700	8655
1.71767	8654
1.71833	8655
1.71900	8656
1.71967	8658
1.72033	8661
1.72100	8666
1.72167	8673
1.72233	8682
1.72300	8693
1.72367	8708
1.72433	8727
1.72500	8750
1.72567	8778
1.72633	8813
1.72700	8856
1.72767	8907
1.72833	8968
1.72900	9042
1.72967	9130
1.73033	9234
1.73100	9356
1.73167	9500
1.73233	9669
1.73300	9865
1.73367	10093
1.73433	10357
1.73500	10661
1.73567	11011
1.73633	11411
1.73700	11868
1.73767	12387
1.73833	12977
1.73900	13642
1.73967	14392
1.74033	15233
1.74100	16173
1.74167	17220
1.74233	18380
1.74300	19661
1.74367	21070
1.74433	22616
1.74500	24305
1.74567	26145
1.74633	28142
1.74700	30300
1.74767	32625
1.74833	35123
1.74900	37796
1.74967	40650
1.75033	43687
1.75100	46908
1.75167	50314
1.75233	53905
1.75300	57677
1.75367	61627
1.75433	65751
1.75500	70044
1.75567	74498
1.75633	79103
1.75700	83849
1.75767	88722
1.75833	93706
1.75900	98788
1.75967	103950
1.76033	109176
1.76100	114445
1.76167	119739
1.76233	125038
1.76300	130322
1.76367	135569
1.76433	140760
1.76500	145874
1.76567	150890
1.76633	155790
1.76700	160554
1.76767	165161
1.76833	169594
1.76900	173835
1.76967	177868
1.77033	181678
1.77100	185255
1.77167	188586
1.77233	191666
1.77300	194487
1.77367	197045
1.77433	199340
1.77500	201369
1.77567	203134
1.77633	204638
1.77700	205882
1.77767	206873
1.77833	207616
1.77900	208119
1.77967	208387
1.78033	208431
1.78100	208259
1.78167	207881
1.78233	207305
1.78300	206543
1.78367	205602
1.78433	204495
1.78500	203230
1.78567	201817
1.78633	200267
1.78700	198588
1.78767	196791
1.78833	194884
1.78900	192877
1.78967	190778
1.79033	188594
1.79100	186335
1.79167	184008
1.79233	181620
1.79300	179179
1.79367	176689
1.79433	174159
1.79500	171594
1.79567	169000
1.79633	166381
1.79700	163743
1.79767	161091
1.79833	158428
1.79900	155760
1.79967	153089
1.80033	150419
1.80100	147754
1.80167	145097
1.80233	142450
1.80300	139816
1.80367	137199
1.80433	134598
1.80500	132018
1.80567	129460
1.80633	126926
1.80700	124416
1.80767	121934
1.80833	119479
1.80900	117053
1.80967	114658
1.81033	112294
1.81100	109962
1.81167	107663
1.81233	105398
1.81300	103166
1.81367	100969
1.81433	98807
1.81500	96680
1.81567	94589
1.81633	92534
1.81700	90514
1.81767	88531
1.81833	86583
1.81900	84672
1.81967	82797
1.82033	80957
1.82100	79153
1.82167	77385
1.82233	75652
1.82300	73954
1.82367	72291
1.82433	70663
1.82500	69068
1.82567	67508
1.82633	65981
1.82700	64487
1.82767	63026
1.82833	61598
1.82900	60201
1.82967	58836
1.83033	57502
1.83100	56198
1.83167	54925
1.83233	53681
1.83300	52467
1.83367	51281
1.83433	50124
1.83500	48994
1.83567	47892
1.83633	46816
1.83700	45767
1.83767	44744
1.83833	43746
1.83900	42773
1.83967	41824
1.84033	40899
1.84100	39998
1.84167	39119
1.84233	38263
1.84300	37429
1.84367	36617
1.84433	35825
1.84500	35054
1.84567	34303
1.84633	33572
1.84700	32861
1.84767	32168
1.84833	31493
1.84900	30837
1.84967	30198
1.85033	29576
1.85100	28971
1.85167	28382
1.85233	27809
1.85300	27252
1.85367	26709
1.85433	26182
1.85500	25669
1.85567	25170
1.85633	24685
1.85700	24213
1.85767	23754
1.85833	23308
1.85900	22874
1.85967	22452
1.86033	22042
1.86100	21644
1.86167	21256
1.86233	20880
1.86300	20514
1.86367	20158
1.86433	19812
1.86500	19475
1.86567	19149
1.86633	18831
1.86700	18522
1.86767	18222
1.86833	17930
1.86900	17647
1.86967	17371
1.87033	17103
1.87100	16843
1.87167	16590
1.87233	16344
1.87300	16106
1.87367	15873
1.87433	15648
1.87500	15429
1.87567	15216
1.87633	15009
1.87700	14808
1.87767	14613
1.87833	14423
1.87900	14239
1.87967	14060
1.88033	13886
1.88100	13717
1.88167	13553
1.88233	13393
1.88300	13238
1.88367	13088
1.88433	12941
1.88500	12799
1.88567	12661
1.88633	12527
1.88700	12397
1.88767	12270
1.88833	12147
1.88900	12028
1.88967	11912
1.89033	11799
1.89100	11689
1.89167	11582
1.89233	11479
1.89300	11378
1.89367	11280
1.89433	11185
1.89500	11093
1.89567	11003
1.89633	10916
1.89700	10831
1.89767	10748
1.89833	10668
1.89900	10591
1.89967	10515
1.90033	10442
1.90100	10370
1.90167	10301
1.90233	10233
1.90300	10168
1.90367	10104
1.90433	10042
1.90500	9982
1.90567	9923
1.90633	9866
1.90700	9811
1.90767	9757
1.90833	9705
1.90900	9654
1.90967	9604
1.91033	9556
1.91100	9509
1.91167	9463
1.91233	9418
1.91300	9374
1.91367	9331
1.91433	9290
1.91500	9249
1.91567	9210
1.91633	9171
1.91700	9133
1.91767	9096
1.91833	9060
1.91900	9025
1.91967	8990
1.92033	8956
1.92100	8923
1.92167	8891
1.92233	8859
1.92300	8828
1.92367	8797
1.92433	8767
1.92500	8738
1.92567	8710
1.92633	8682
1.92700	8654
1.92767	8627
1.92833	8601
1.92900	8575
1.92967	8550
1.93033	8526
1.93100	8502
1.93167	8478
1.93233	8455
1.93300	8433
1.93367	8411
1.93433	8389
1.93500	8368
1.93567	8347
1.93633	8327
1.93700	8308
1.93767	8288
1.93833	8270
1.93900	8251
1.93967	8233
1.94033	8215
1.94100	8198
1.94167	8181
1.94233	8165
1.94300	8149
1.94367	8133
1.94433	8117
1.94500	8102
1.94567	8087
1.94633	8073
1.94700	8059
1.94767	8045
1.94833	8031
1.94900	8018
1.94967	8005
1.95033	7992
1.95100	7980
1.95167	7968
1.95233	7956
1.95300	7944
1.95367	7932
1.95433	7921
1.95500	7910
1.95567	7899
1.95633	7888
1.95700	7878
1.95767	7868
1.95833	7858
1.95900	7848
1.95967	7838
1.96033	7829
1.96100	7820
1.96167	7811
1.96233	7802
1.96300	7793
1.96367	7784
1.96433	7776
1.96500	7767
1.96567	7759
1.96633	7751
1.96700	7743
1.96767	7735
1.96833	7727
1.96900	7720
1.96967	7712
1.97033	7705
1.97100	7698
1.97167	7691
1.97233	7684
1.97300	7677
1.97367	7670
1.97433	7663
1.97500	7656
1.97567	7649
1.97633	7643
1.97700	7636
1.97767	7629
1.97833	7623
1.97900	7616
1.97967	7610
1.98033	7604
1.98100	7597
1.98167	7591
1.98233	7585
1.98300	7579
1.98367	7573
1.98433	7567
1.98500	7561
1.98567	7555
1.98633	7549
1.98700	7544
1.98767	7538
1.98833	7533
1.98900	7527
1.98967	7522
1.99033	7517
1.99100	7511
1.99167	7506
1.99233	7501
1.99300	7496
1.99367	7491
1.99433	7486
1.99500	7481
1.99567	7477
1.99633	7472
1.99700	7467
1.99767	7462
1.99833	7457
1.99900	7453
1.99967	7448
2.00033	7443
2.00100	7439
2.00167	7434
2.00233	7429
2.00300	7424
2.00367	7420
2.00433	7415
2.00500	7410
2.00567	7405
2.00633	7400
2.00700	7396
2.00767	7391
2.00833	7386
2.00900	7381
2.00967	7377
2.01033	7372
2.01100	7367
2.01167	7362
2.01233	7357
2.01300	7353
2.01367	7348
2.01433	7343
2.01500	7338
2.01567	7334
2.01633	7329
2.01700	7324
2.01767	7319
2.01833	7314
2.01900	7310
2.01967	7305
2.02033	7300
2.02100	7295
2.02167	7291
2.02233	7286
2.02300	7282
2.02367	7277
2.02433	7273
2.02500	7268
2.02567	7264
2.02633	7259
2.02700	7255
2.02767	7251
2.02833	7246
2.02900	7242
2.02967	7238
2.03033	7234
2.03100	7229
2.03167	7225
2.03233	7221
2.03300	7217
2.03367	7213
2.03433	7209
2.03500	7205
2.03567	7201
2.03633	7197
2.03700	7193
2.03767	7190
2.03833	7186
2.03900	7182
2.03967	7178
2.04033	7175
2.04100	7171
2.04167	7168
2.04233	7164
2.04300	7161
2.04367	7157
2.04433	7154
2.04500	7150
2.04567	7147
2.04633	7143
2.04700	7140
2.04767	7136
2.04833	7133
2.04900	7129
2.04967	7126
2.05033	7122
2.05100	7119
2.05167	7116
2.05233	7112
2.05300	7109
2.05367	7106
2.05433	7102
2.05500	7099
2.05567	7096
2.05633	7093
2.05700	7089
2.05767	7086
2.05833	7083
2.05900	7079
2.05967	7076
2.06033	7073
2.06100	7069
2.06167	7066
2.06233	7063
2.06300	7060
2.06367	7056
2.06433	7053
2.06500	7050
2.06567	7046
2.06633	7043
2.06700	7040
2.06767	7037
2.06833	7033
2.06900	7030
2.06967	7027
2.07033	7024
2.07100	7020
2.07167	7017
2.07233	7014
2.07300	7010
2.07367	7007
2.07433	7004
2.07500	7000
2.07567	6997
2.07633	6993
2.07700	6990
2.07767	6987
2.07833	6983
2.07900	6980
2.07967	6976
2.08033	6973
2.08100	6969
2.08167	6966
2.08233	6963
2.08300	6959
2.08367	6956
2.08433	6953
2.08500	6949
2.08567	6946
2.08633	6943
2.08700	6940
2.08767	6937
2.08833	6933
2.08900	6930
2.08967	6927
2.09033	6924
2.09100	6921
2.09167	6918
2.09233	6915
2.09300	6911
2.09367	6908
2.09433	6905
2.09500	6902
2.09567	6899
2.09633	6896
2.09700	6892
2.09767	6889
2.09833	6886
2.09900	6883
2.09967	6880
2.10033	6877
2.10100	6874
2.10167	6871
2.10233	6867
2.10300	6864
2.10367	6861
2.10433	6858
2.10500	6855
2.10567	6852
2.10633	6849
2.10700	6846
2.10767	6843
2.10833	6840
2.10900	6836
2.10967	6833
2.11033	6830
2.11100	6827
2.11167	6824
2.11233	6821
2.11300	6818
2.11367	6815
2.11433	6812
2.11500	6809
2.11567	6806
2.11633	6803
2.11700	6800
2.11767	6797
2.11833	6794
2.11900	6791
2.11967	6788
2.12033	6785
2.12100	6782
2.12167	6779
2.12233	6776
2.12300	6773
2.12367	6770
2.12433	6767
2.12500	6764
2.12567	6761
2.12633	6758
2.12700	6755
2.12767	6753
2.12833	6750
2.12900	6747
2.12967	6744
2.13033	6741
2.13100	6738
2.13167	6735
2.13233	6732
2.13300	6729
2.13367	6726
2.13433	6723
2.13500	6720
2.13567	6717
2.13633	6714
2.13700	6711
2.13767	6708
2.13833	6705
2.13900	6702
2.13967	6699
2.14033	6697
2.14100	6694
2.14167	6691
2.14233	6688
2.14300	6685
2.14367	6682
2.14433	6679
2.14500	6676
2.14567	6673
2.14633	6670
2.14700	6667
2.14767	6664
2.14833	6662
2.14900	6659
2.14967	6656
2.15033	6653
2.15100	6650
2.15167	6647
2.15233	6645
2.15300	6642
2.15367	6639
2.15433	6636
2.15500	6633
2.15567	6631
2.15633	6628
2.15700	6625
2.15767	6622
2.15833	6620
2.15900	6617
2.15967	6614
2.16033	6611
2.16100	6609
2.16167	6606
2.16233	6603
2.16300	6601
2.16367	6598
2.16433	6595
2.16500	6593
2.16567	6590
2.16633	6588
2.16700	6585
2.16767	6582
2.16833	6580
2.16900	6577
2.16967	6575
2.17033	6572
2.17100	6569
2.17167	6567
2.17233	6564
2.17300	6561
2.17367	6559
2.17433	6556
2.17500	6554
2.17567	6551
2.17633	6549
2.17700	6546
2.17767	6543
2.17833	6541
2.17900	6538
2.17967	6536
2.18033	6534
2.18100	6531
2.18167	6529
2.18233	6526
2.18300	6524
2.18367	6521
2.18433	6519
2.18500	6516
2.18567	6514
2.18633	6511
2.18700	6509
2.18767	6506
2.18833	6504
2.18900	6502
2.18967	6499
2.19033	6497
2.19100	6494
2.19167	6492
2.19233	6490
2.19300	6487
2.19367	6485
2.19433	6483
2.19500	6480
2.19567	6478
2.19633	6476
2.19700	6474
2.19767	6471
2.19833	6469
2.19900	6467
2.19967	6465
2.20033	6463
2.20100	6461
2.20167	6459
2.20233	6457
2.20300	6455
2.20367	6453
2.20433	6451
2.20500	6450
2.20567	6448
2.20633	6446
2.20700	6445
2.20767	6443
2.20833	6442
2.20900	6440
2.20967	6439
2.21033	6438
2.21100	6436
2.21167	6435
2.21233	6434
2.21300	6433
2.21367	6432
2.21433	6431
2.21500	6430
2.21567	6429
2.21633	6429
2.21700	6428
2.21767	6427
2.21833	6427
2.21900	6426
2.21967	6426
2.22033	6425
2.22100	6425
2.22167	6424
2.22233	6423
2.22300	6423
2.22367	6422
2.22433	6422
2.22500	6421
2.22567	6420
2.22633	6419
2.22700	6419
2.22767	6418
2.22833	6417
2.22900	6416
2.22967	6415
2.23033	6415
2.23100	6414
2.23167	6413
2.23233	6412
2.23300	6410
2.23367	6409
2.23433	6408
2.23500	6407
2.23567	6406
2.23633	6404
2.23700	6403
2.23767	6401
2.23833	6400
2.23900	6399
2.23967	6397
2.24033	6396
2.24100	6394
2.24167	6393
2.24233	6391
2.24300	6390
2.24367	6388
2.24433	6387
2.24500	6385
2.24567	6384
2.24633	6382
2.24700	6381
2.24767	6379
2.24833	6378
2.24900	6377
2.24967	6375
2.25033	6374
2.25100	6372
2.25167	6371
2.25233	6369
2.25300	6368
2.25367	6366
2.25433	6365
2.25500	6363
2.25567	6362
2.25633	6360
2.25700	6358
2.25767	6357
2.25833	6355
2.25900	6353
2.25967	6352
2.26033	6350
2.26100	6348
2.26167	6346
2.26233	6345
2.26300	6343
2.26367	6341
2.26433	6339
2.26500	6337
2.26567	6335
2.26633	6333
2.26700	6331
2.26767	6329
2.26833	6327
2.26900	6325
2.26967	6323
2.27033	6321
2.27100	6318
2.27167	6316
2.27233	6314
2.27300	6312
2.27367	6310
2.27433	6308
2.27500	6305
2.27567	6303
2.27633	6301
2.27700	6299
2.27767	6296
2.27833	6294
2.27900	6292
2.27967	6290
2.28033	6287
2.28100	6285
2.28167	6283
2.28233	6280
2.28300	6278
2.28367	6276
2.28433	6273
2.28500	6271
2.28567	6269
2.28633	6266
2.28700	6264
2.28767	6262
2.28833	6260
2.28900	6257
2.28967	6255
2.29033	6253
2.29100	6251
2.29167	6248
2.29233	6246
2.29300	6244
2.29367	6242
2.29433	6239
2.29500	6237
2.29567	6235
2.29633	6233
2.29700	6231
2.29767	6229
2.29833	6227
2.29900	6225
2.29967	6223
2.30033	6222
2.30100	6220
2.30167	6218
2.30233	6216
2.30300	6215
2.30367	6213
2.30433	6211
2.30500	6210
2.30567	6208
2.30633	6206
2.30700	6205
2.30767	6203
2.30833	6201
2.30900	6200
2.30967	6198
2.31033	6197
2.31100	6195
2.31167	6194
2.31233	6193
2.31300	6191
2.31367	6190
2.31433	6189
2.31500	6187
2.31567	6186
2.31633	6185
2.31700	6183
2.31767	6182
2.31833	6181
2.31900	6180
2.31967	6179
2.32033	6178
2.32100	6176
2.32167	6175
2.32233	6174
2.32300	6173
2.32367	6172
2.32433	6171
2.32500	6170
2.32567	6169
2.32633	6168
2.32700	6168
2.32767	6167
2.32833	6166
2.32900	6165
2.32967	6164
2.33033	6164
2.33100	6163
2.33167	6162
2.33233	6162
2.33300	6161
2.33367	6160
2.33433	6160
2.33500	6159
2.33567	6159
2.33633	6158
2.33700	6157
2.33767	6157
2.33833	6156
2.33900	6156
2.33967	6155
2.34033	6155
2.34100	6154
2.34167	6154
2.34233	6153
2.34300	6152
2.34367	6152
2.34433	6151
2.34500	6151
2.34567	6150
2.34633	6150
2.34700	6149
2.34767	6149
2.34833	6148
2.34900	6148
2.34967	6147
2.35033	6147
2.35100	6146
2.35167	6146
2.35233	6145
2.35300	6145
2.35367	6144
2.35433	6144
2.35500	6143
2.35567	6143
2.35633	6142
2.35700	6142
2.35767	6141
2.35833	6141
2.35900	6140
2.35967	6140
2.36033	6139
2.36100	6139
2.36167	6138
2.36233	6138
2.36300	6137
2.36367	6137
2.36433	6136
2.36500	6135
2.36567	6135
2.36633	6134
2.36700	6133
2.36767	6133
2.36833	6132
2.36900	6131
2.36967	6130
2.37033	6129
2.37100	6129
2.37167	6128
2.37233	6127
2.37300	6126
2.37367	6125
2.37433	6124
2.37500	6124
2.37567	6123
2.37633	6122
2.37700	6121
2.37767	6120
2.37833	6119
2.37900	6118
2.37967	6116
2.38033	6115
2.38100	6114
2.38167	6113
2.38233	6112
2.38300	6111
2.38367	6110
2.38433	6109
2.38500	6107
2.38567	6106
2.38633	6105
2.38700	6104
2.38767	6103
2.38833	6102
2.38900	6100
2.38967	6099
2.39033	6098
2.39100	6097
2.39167	6096
2.39233	6094
2.39300	6093
2.39367	6092
2.39433	6090
2.39500	6089
2.39567	6088
2.39633	6086
2.39700	6085
2.39767	6083
2.39833	6082
2.39900	6081
2.39967	6079
2.40033	6078
2.40100	6076
2.40167	6075
2.40233	6073
2.40300	6072
2.40367	6070
2.40433	6069
2.40500	6068
2.40567	6066
2.40633	6065
2.40700	6063
2.40767	6062
2.40833	6061
2.40900	6059
2.40967	6058
2.41033	6056
2.41100	6055
2.41167	6054
2.41233	6052
2.41300	6051
2.41367	6049
2.41433	6048
2.41500	6047
2.41567	6045
2.41633	6044
2.41700	6043
2.41767	6041
2.41833	6040
2.41900	6039
2.41967	6037
2.42033	6036
2.42100	6035
2.42167	6033
2.42233	6032
2.42300	6031
2.42367	6029
2.42433	6028
2.42500	6026
2.42567	6025
2.42633	6023
2.42700	6022
2.42767	6020
2.42833	6019
2.42900	6017
2.42967	6016
2.43033	6014
2.43100	6012
2.43167	6011
2.43233	6009
2.43300	6007
2.43367	6006
2.43433	6004
2.43500	6002
2.43567	6000
2.43633	5998
2.43700	5996
2.43767	5994
2.43833	5992
2.43900	5990
2.43967	5987
2.44033	5985
2.44100	5983
2.44167	5981
2.44233	5979
2.44300	5976
2.44367	5974
2.44433	5972
2.44500	5969
2.44567	5967
2.44633	5964
2.44700	5962
2.44767	5960
2.44833	5957
2.44900	5955
2.44967	5952
2.45033	5950
2.45100	5947
2.45167	5944
2.45233	5942
2.45300	5939
2.45367	5937
2.45433	5934
2.45500	5931
2.45567	5929
2.45633	5926
2.45700	5924
2.45767	5921
2.45833	5919
2.45900	5916
2.45967	5913
2.46033	5911
2.46100	5908
2.46167	5905
2.46233	5903
2.46300	5900
2.46367	5898
2.46433	5895
2.46500	5892
2.46567	5890
2.46633	5887
2.46700	5884
2.46767	5882
2.46833	5879
2.46900	5876
2.46967	5874
2.47033	5871
2.47100	5868
2.47167	5866
2.47233	5863
2.47300	5860
2.47367	5858
2.47433	5855
2.47500	5853
2.47567	5850
2.47633	5848
2.47700	5845
2.47767	5842
2.47833	5840
2.47900	5837
2.47967	5835
2.48033	5832
2.48100	5830
2.48167	5827
2.48233	5825
2.48300	5822
2.48367	5820
2.48433	5817
2.48500	5814
2.48567	5812
2.48633	5809
2.48700	5807
2.48767	5804
2.48833	5802
2.48900	5799
2.48967	5797
2.49033	5794
2.49100	5792
2.49167	5789
2.49233	5787
2.49300	5785
2.49367	5782
2.49433	5780
2.49500	5778
2.49567	5775
2.49633	5773
2.49700	5771
2.49767	5768
2.49833	5766
2.49900	5764
2.49967	5762
2.50033	5759
2.50100	5757
2.50167	5755
2.50233	5752
2.50300	5750
2.50367	5747
2.50433	5745
2.50500	5743
2.50567	5740
2.50633	5738
2.50700	5736
2.50767	5733
2.50833	5731
2.50900	5729
2.50967	5726
2.51033	5724
2.51100	5722
2.51167	5720
2.51233	5717
2.51300	5715
2.51367	5713
2.51433	5711
2.51500	5709
2.51567	5706
2.51633	5704
2.51700	5702
2.51767	5700
2.51833	5698
2.51900	5696
2.51967	5694
2.52033	5691
2.52100	5689
2.52167	5687
2.52233	5685
2.52300	5683
2.52367	5681
2.52433	5679
2.52500	5677
2.52567	5675
2.52633	5673
2.52700	5671
2.52767	5669
2.52833	5667
2.52900	5665
2.52967	5663
2.53033	5661
2.53100	5659
2.53167	5657
2.53233	5655
2.53300	5653
2.53367	5651
2.53433	5649
2.53500	5648
2.53567	5646
2.53633	5644
2.53700	5642
2.53767	5640
2.53833	5638
2.53900	5636
2.53967	5634
2.54033	5633
2.54100	5631
2.54167	5629
2.54233	5627
2.54300	5625
2.54367	5623
2.54433	5622
2.54500	5620
2.54567	5618
2.54633	5616
2.54700	5614
2.54767	5613
2.54833	5611
2.54900	5609
2.54967	5607
2.55033	5606
2.55100	5604
2.55167	5602
2.55233	5600
2.55300	5599
2.55367	5597
2.55433	5595
2.55500	5594
2.55567	5592
2.55633	5590
2.55700	5589
2.55767	5587
2.55833	5585
2.55900	5584
2.55967	5582
2.56033	5580
2.56100	5579
2.56167	5577
2.56233	5575
2.56300	5574
2.56367	5572
2.56433	5570
2.56500	5569
2.56567	5567
2.56633	5565
2.56700	5564
2.56767	5562
2.56833	5560
2.56900	5559
2.56967	5557
2.57033	5556
2.57100	5554
2.57167	5552
2.57233	5551
2.57300	5549
2.57367	5548
2.57433	5546
2.57500	5544
2.57567	5543
2.57633	5541
2.57700	5540
2.57767	5538
2.57833	5536
2.57900	5535
2.57967	5533
2.58033	5532
2.58100	5530
2.58167	5528
2.58233	5527
2.58300	5525
2.58367	5524
2.58433	5522
2.58500	5520
2.58567	5519
2.58633	5517
2.58700	5515
2.58767	5514
2.58833	5512
2.58900	5510
2.58967	5509
2.59033	5507
2.59100	5505
2.59167	5504
2.59233	5502
2.59300	5501
2.59367	5499
2.59433	5498
2.59500	5496
2.59567	5495
2.59633	5493
2.59700	5492
2.59767	5490
2.59833	5489
2.59900	5487
2.59967	5486
2.60033	5484
2.60100	5483
2.60167	5481
2.60233	5480
2.60300	5479
2.60367	5477
2.60433	5476
2.60500	5474
2.60567	5473
2.60633	5471
2.60700	5470
2.60767	5469
2.60833	5467
2.60900	5466
2.60967	5464
2.61033	5463
2.61100	5461
2.61167	5460
2.61233	5459
2.61300	5457
2.61367	5456
2.61433	5454
2.61500	5453
2.61567	5452
2.61633	5450
2.61700	5449
2.61767	5447
2.61833	5446
2.61900	5444
2.61967	5443
2.62033	5441
2.62100	5440
2.62167	5438
2.62233	5437
2.62300	5435
2.62367	5434
2.62433	5432
2.62500	5431
2.62567	5429
2.62633	5428
2.62700	5426
2.62767	5425
2.62833	5423
2.62900	5421
2.62967	5420
2.63033	5418
2.63100	5416
2.63167	5415
2.63233	5413
2.63300	5411
2.63367	5410
2.63433	5408
2.63500	5406
2.63567	5404
2.63633	5403
2.63700	5401
2.63767	5399
2.63833	5397
2.63900	5396
2.63967	5394
2.64033	5392
2.64100	5390
2.64167	5389
2.64233	5387
2.64300	5385
2.64367	5383
2.64433	5381
2.64500	5380
2.64567	5378
2.64633	5376
2.64700	5374
2.64767	5373
2.64833	5371
2.64900	5369
2.64967	5367
2.65033	5366
2.65100	5364
2.65167	5362
2.65233	5360
2.65300	5358
2.65367	5356
2.65433	5355
2.65500	5353
2.65567	5351
2.65633	5349
2.65700	5347
2.65767	5345
2.65833	5343
2.65900	5341
2.65967	5339
2.66033	5337
2.66100	5335
2.66167	5334
2.66233	5332
2.66300	5330
2.66367	5328
2.66433	5326
2.66500	5324
2.66567	5322
2.66633	5320
2.66700	5318
2.66767	5316
2.66833	5314
2.66900	5312
2.66967	5310
2.67033	5308
2.67100	5306
2.67167	5304
2.67233	5302
2.67300	5300
2.67367	5299
2.67433	5297
2.67500	5295
2.67567	5293
2.67633	5291
2.67700	5289
2.67767	5287
2.67833	5285
2.67900	5284
2.67967	5282
2.68033	5280
2.68100	5278
2.68167	5277
2.68233	5275
2.68300	5273
2.68367	5271
2.68433	5270
2.68500	5268
2.68567	5266
2.68633	5265
2.68700	5263
2.68767	5262
2.68833	5260
2.68900	5259
2.68967	5257
2.69033	5255
2.69100	5254
2.69167	5252
2.69233	5251
2.69300	5249
2.69367	5248
2.69433	5247
2.69500	5245
2.69567	5244
2.69633	5242
2.69700	5241
2.69767	5239
2.69833	5238
2.69900	5236
2.69967	5235
2.70033	5233
2.70100	5232
2.70167	5231
2.70233	5229
2.70300	5228
2.70367	5226
2.70433	5225
2.70500	5224
2.70567	5222
2.70633	5221
2.70700	5219
2.70767	5218
2.70833	5216
2.70900	5215
2.70967	5214
2.71033	5212
2.71100	5211
2.71167	5209
2.71233	5208
2.71300	5206
2.71367	5205
2.71433	5204
2.71500	5202
2.71567	5201
2.71633	5199
2.71700	5198
2.71767	5197
2.71833	5195
2.71900	5194
2.71967	5193
2.72033	5192
2.72100	5190
2.72167	5189
2.72233	5188
2.72300	5187
2.72367	5186
2.72433	5184
2.72500	5183
2.72567	5182
2.72633	5181
2.72700	5180
2.72767	5179
2.72833	5178
2.72900	5177
2.72967	5176
2.73033	5175
2.73100	5174
2.73167	5173
2.73233	5172
2.73300	5171
2.73367	5170
2.73433	5169
2.73500	5168
2.73567	5168
2.73633	5167
2.73700	5166
2.73767	5165
2.73833	5165
2.73900	5164
2.73967	5163
2.74033	5162
2.74100	5162
2.74167	5161
2.74233	5160
2.74300	5159
2.74367	5159
2.74433	5158
2.74500	5157
2.74567	5156
2.74633	5156
2.74700	5155
2.74767	5154
2.74833	5154
2.74900	5153
2.74967	5152
2.75033	5152
2.75100	5151
2.75167	5151
2.75233	5150
2.75300	5150
2.75367	5149
2.75433	5149
2.75500	5149
2.75567	5148
2.75633	5148
2.75700	5148
2.75767	5148
2.75833	5147
2.75900	5147
2.75967	5147
2.76033	5147
2.76100	5146
2.76167	5146
2.76233	5146
2.76300	5146
2.76367	5146
2.76433	5146
2.76500	5145
2.76567	5145
2.76633	5145
2.76700	5145
2.76767	5145
2.76833	5145
2.76900	5145
2.76967	5145
2.77033	5145
2.77100	5145
2.77167	5145
2.77233	5146
2.77300	5146
2.77367	5146
2.77433	5146
2.77500	5147
2.77567	5147
2.77633	5147
2.77700	5148
2.77767	5148
2.77833	5149
2.77900	5150
2.77967	5150
2.78033	5151
2.78100	5152
2.78167	5153
2.78233	5154
2.78300	5155
2.78367	5156
2.78433	5157
2.78500	5158
2.78567	5159
2.78633	5161
2.78700	5162
2.78767	5164
2.78833	5165
2.78900	5167
2.78967	5168
2.79033	5170
2.79100	5172
2.79167	5174
2.79233	5176
2.79300	5178
2.79367	5181
2.79433	5183
2.79500	5185
2.79567	5188
2.79633	5190
2.79700	5193
2.79767	5196
2.79833	5198
2.79900	5201
2.79967	5204
2.80033	5207
2.80100	5210
2.80167	5213
2.80233	5216
2.80300	5219
2.80367	5222
2.80433	5226
2.80500	5229
2.80567	5232
2.80633	5236
2.80700	5239
2.80767	5242
2.80833	5246
2.80900	5249
2.80967	5253
2.81033	5256
2.81100	5260
2.81167	5263
2.81233	5267
2.81300	5270
2.81367	5273
2.81433	5277
2.81500	5280
2.81567	5283
2.81633	5286
2.81700	5289
2.81767	5292
2.81833	5295
2.81900	5298
2.81967	5301
2.82033	5303
2.82100	5306
2.82167	5308
2.82233	5310
2.82300	5312
2.82367	5314
2.82433	5316
2.82500	5318
2.82567	5320
2.82633	5321
2.82700	5323
2.82767	5324
2.82833	5325
2.82900	5326
2.82967	5327
2.83033	5328
2.83100	5328
2.83167	5329
2.83233	5329
2.83300	5329
2.83367	5329
2.83433	5329
2.83500	5329
2.83567	5328
2.83633	5328
2.83700	5327
2.83767	5327
2.83833	5326
2.83900	5325
2.83967	5324
2.84033	5323
2.84100	5321
2.84167	5320
2.84233	5319
2.84300	5317
2.84367	5315
2.84433	5314
2.84500	5312
2.84567	5310
2.84633	5308
2.84700	5306
2.84767	5304
2.84833	5301
2.84900	5299
2.84967	5297
2.85033	5295
2.85100	5292
2.85167	5290
2.85233	5287
2.85300	5285
2.85367	5283
2.85433	5280
2.85500	5278
2.85567	5275
2.85633	5273
2.85700	5270
2.85767	5268
2.85833	5266
2.85900	5263
2.85967	5261
2.86033	5258
2.86100	5256
2.86167	5254
2.86233	5251
2.86300	5249
2.86367	5247
2.86433	5245
2.86500	5243
2.86567	5240
2.86633	5238
2.86700	5236
2.86767	5234
2.86833	5233
2.86900	5231
2.86967	5229
2.87033	5227
2.87100	5225
2.87167	5224
2.87233	5222
2.87300	5221
2.87367	5219
2.87433	5218
2.87500	5217
2.87567	5216
2.87633	5214
2.87700	5213
2.87767	5213
2.87833	5212
2.87900	5211
2.87967	5210
2.88033	5210
2.88100	5209
2.88167	5209
2.88233	5208
2.88300	5208
2.88367	5208
2.88433	5208
2.88500	5208
2.88567	5208
2.88633	5208
2.88700	5208
2.88767	5208
2.88833	5208
2.88900	5209
2.88967	5209
2.89033	5209
2.89100	5210
2.89167	5210
2.89233	5211
2.89300	5211
2.89367	5211
2.89433	5212
2.89500	5212
2.89567	5213
2.89633	5213
2.89700	5214
2.89767	5214
2.89833	5215
2.89900	5215
2.89967	5216
2.90033	5216
2.90100	5216
2.90167	5217
2.90233	5217
2.90300	5217
2.90367	5217
2.90433	5217
2.90500	5217
2.90567	5217
2.90633	5216
2.90700	5216
2.90767	5215
2.90833	5214
2.90900	5214
2.90967	5213
2.91033	5212
2.91100	5210
2.91167	5209
2.91233	5207
2.91300	5206
2.91367	5204
2.91433	5202
2.91500	5199
2.91567	5197
2.91633	5195
2.91700	5192
2.91767	5189
2.91833	5186
2.91900	5184
2.91967	5180
2.92033	5177
2.92100	5174
2.92167	5170
2.92233	5167
2.92300	5163
2.92367	5159
2.92433	5155
2.92500	5151
2.92567	5147
2.92633	5143
2.92700	5138
2.92767	5134
2.92833	5129
2.92900	5124
2.92967	5120
2.93033	5115
2.93100	5110
2.93167	5105
2.93233	5099
2.93300	5094
2.93367	5089
2.93433	5084
2.93500	5078
2.93567	5073
2.93633	5067
2.93700	5062
2.93767	5056
2.93833	5051
2.93900	5045
2.93967	5040
2.94033	5034
2.94100	5028
2.94167	5023
2.94233	5017
2.94300	5012
2.94367	5006
2.94433	5000
2.94500	4995
2.94567	4989
2.94633	4984
2.94700	4978
2.94767	4973
2.94833	4968
2.94900	4962
2.94967	4957
2.95033	4952
2.95100	4947
2.95167	4942
2.95233	4937
2.95300	4932
2.95367	4927
2.95433	4922
2.95500	4917
2.95567	4913
2.95633	4908
2.95700	4903
2.95767	4899
2.95833	4894
2.95900	4890
2.95967	4886
2.96033	4881
2.96100	4877
2.96167	4873
2.96233	4869
2.96300	4865
2.96367	4861
2.96433	4857
2.96500	4853
2.96567	4849
2.96633	4846
2.96700	4842
2.96767	4838
2.96833	4835
2.96900	4831
2.96967	4828
2.97033	4825
2.97100	4821
2.97167	4818
2.97233	4814
2.97300	4811
2.97367	4808
2.97433	4804
2.97500	4801
2.97567	4798
2.97633	4795
2.97700	4792
2.97767	4789
2.97833	4785
2.97900	4782
2.97967	4779
2.98033	4776
2.98100	4773
2.98167	4770
2.98233	4768
2.98300	4765
2.98367	4762
2.98433	4759
2.98500	4756
2.98567	4754
2.98633	4751
2.98700	4748
2.98767	4746
2.98833	4743
2.98900	4740
2.98967	4738
2.99033	4735
2.99100	4733
2.99167	4730
2.99233	4728
2.99300	4725
2.99367	4723
2.99433	4720
2.99500	4718
2.99567	4716
2.99633	4713
2.99700	4711
2.99767	4709
2.99833	4706
2.99900	4704
2.99967	4702
3.00033	4699
3.00100	4697
3.00167	4695
3.00233	4693
3.00300	4691
3.00367	4689
3.00433	4687
3.00500	4685
3.00567	4682
3.00633	4680
3.00700	4678
3.00767	4677
3.00833	4675
3.00900	4673
3.00967	4671
3.01033	4669
3.01100	4667
3.01167	4665
3.01233	4663
3.01300	4661
3.01367	4659
3.01433	4657
3.01500	4655
3.01567	4653
3.01633	4652
3.01700	4650
3.01767	4648
3.01833	4646
3.01900	4645
3.01967	4643
3.02033	4641
3.02100	4639
3.02167	4637
3.02233	4636
3.02300	4634
3.02367	4632
3.02433	4630
3.02500	4628
3.02567	4627
3.02633	4625
3.02700	4623
3.02767	4621
3.02833	4619
3.02900	4618
3.02967	4616
3.03033	4614
3.03100	4612
3.03167	4611
3.03233	4609
3.03300	4607
3.03367	4605
3.03433	4604
3.03500	4602
3.03567	4600
3.03633	4598
3.03700	4597
3.03767	4595
3.03833	4593
3.03900	4592
3.03967	4590
3.04033	4588
3.04100	4587
3.04167	4585
3.04233	4584
3.04300	4582
3.04367	4581
3.04433	4579
3.04500	4577
3.04567	4576
3.04633	4574
3.04700	4573
3.04767	4571
3.04833	4570
3.04900	4568
3.04967	4567
3.05033	4566
3.05100	4564
3.05167	4563
3.05233	4562
3.05300	4560
3.05367	4559
3.05433	4558
3.05500	4556
3.05567	4555
3.05633	4554
3.05700	4553
3.05767	4552
3.05833	4551
3.05900	4550
3.05967	4549
3.06033	4548
3.06100	4547
3.06167	4546
3.06233	4545
3.06300	4545
3.06367	4544
3.06433	4543
3.06500	4543
3.06567	4542
3.06633	4541
3.06700	4541
3.06767	4540
3.06833	4540
3.06900	4539
3.06967	4539
3.07033	4538
3.07100	4538
3.07167	4537
3.07233	4537
3.07300	4536
3.07367	4536
3.07433	4536
3.07500	4535
3.07567	4535
3.07633	4534
3.07700	4534
3.07767	4534
3.07833	4533
3.07900	4533
3.07967	4533
3.08033	4532
3.08100	4532
3.08167	4532
3.08233	4531
3.08300	4531
3.08367	4531
3.08433	4530
3.08500	4530
3.08567	4529
3.08633	4529
3.08700	4528
3.08767	4528
3.08833	4527
3.08900	4527
3.08967	4526
3.09033	4525
3.09100	4525
3.09167	4524
3.09233	4523
3.09300	4523
3.09367	4522
3.09433	4521
3.09500	4520
3.09567	4520
3.09633	4519
3.09700	4518
3.09767	4517
3.09833	4516
3.09900	4515
3.09967	4514
3.10033	4513
3.10100	4512
3.10167	4511
3.10233	4510
3.10300	4509
3.10367	4508
3.10433	4507
3.10500	4506
3.10567	4505
3.10633	4503
3.10700	4502
3.10767	4501
3.10833	4499
3.10900	4498
3.10967	4496
3.11033	4495
3.11100	4493
3.11167	4492
3.11233	4490
3.11300	4489
3.11367	4487
3.11433	4485
3.11500	4484
3.11567	4482
3.11633	4480
3.11700	4479
3.11767	4477
3.11833	4476
3.11900	4474
3.11967	4472
3.12033	4471
3.12100	4469
3.12167	4467
3.12233	4466
3.12300	4464
3.12367	4463
3.12433	4461
3.12500	4459
3.12567	4458
3.12633	4456
3.12700	4454
3.12767	4453
3.12833	4451
3.12900	4449
3.12967	4448
3.13033	4446
3.13100	4444
3.13167	4442
3.13233	4441
3.13300	4439
3.13367	4437
3.13433	4436
3.13500	4434
3.13567	4432
3.13633	4430
3.13700	4429
3.13767	4427
3.13833	4425
3.13900	4424
3.13967	4422
3.14033	4420
3.14100	4419
3.14167	4417
3.14233	4415
3.14300	4414
3.14367	4412
3.14433	4411
3.14500	4409
3.14567	4407
3.14633	4406
3.14700	4404
3.14767	4403
3.14833	4401
3.14900	4400
3.14967	4398
3.15033	4397
3.15100	4396
3.15167	4394
3.15233	4393
3.15300	4391
3.15367	4390
3.15433	4389
3.15500	4387
3.15567	4386
3.15633	4385
3.15700	4383
3.15767	4382
3.15833	4381
3.15900	4380
3.15967	4378
3.16033	4377
3.16100	4376
3.16167	4374
3.16233	4373
3.16300	4371
3.16367	4370
3.16433	4369
3.16500	4367
3.16567	4366
3.16633	4364
3.16700	4363
3.16767	4362
3.16833	4360
3.16900	4359
3.16967	4357
3.17033	4356
3.17100	4355
3.17167	4353
3.17233	4352
3.17300	4351
3.17367	4350
3.17433	4348
3.17500	4347
3.17567	4346
3.17633	4344
3.17700	4343
3.17767	4342
3.17833	4341
3.17900	4339
3.17967	4338
3.18033	4337
3.18100	4336
3.18167	4334
3.18233	4333
3.18300	4332
3.18367	4331
3.18433	4329
3.18500	4328
3.18567	4327
3.18633	4326
3.18700	4324
3.18767	4323
3.18833	4322
3.18900	4321
3.18967	4320
3.19033	4319
3.19100	4318
3.19167	4316
3.19233	4315
3.19300	4314
3.19367	4313
3.19433	4312
3.19500	4311
3.19567	4310
3.19633	4309
3.19700	4308
3.19767	4307
3.19833	4306
3.19900	4304
3.19967	4303
3.20033	4302
3.20100	4301
3.20167	4300
3.20233	4299
3.20300	4298
3.20367	4297
3.20433	4297
3.20500	4296
3.20567	4295
3.20633	4294
3.20700	4293
3.20767	4292
3.20833	4291
3.20900	4290
3.20967	4289
3.21033	4289
3.21100	4288
3.21167	4287
3.21233	4286
3.21300	4285
3.21367	4284
3.21433	4284
3.21500	4283
3.21567	4282
3.21633	4281
3.21700	4280
3.21767	4279
3.21833	4278
3.21900	4277
3.21967	4276
3.22033	4275
3.22100	4274
3.22167	4273
3.22233	4273
3.22300	4272
3.22367	4271
3.22433	4270
3.22500	4269
3.22567	4268
3.22633	4268
3.22700	4267
3.22767	4266
3.22833	4265
3.22900	4265
3.22967	4264
3.23033	4263
3.23100	4263
3.23167	4262
3.23233	4261
3.23300	4261
3.23367	4260
3.23433	4259
3.23500	4259
3.23567	4258
3.23633	4257
3.23700	4257
3.23767	4256
3.23833	4255
3.23900	4255
3.23967	4254
3.24033	4253
3.24100	4253
3.24167	4252
3.24233	4251
3.24300	4251
3.24367	4250
3.24433	4250
3.24500	4249
3.24567	4249
3.24633	4248
3.24700	4248
3.24767	4247
3.24833	4246
3.24900	4246
3.24967	4245
3.25033	4245
3.25100	4244
3.25167	4244
3.25233	4243
3.25300	4243
3.25367	4242
3.25433	4242
3.25500	4241
3.25567	4240
3.25633	4240
3.25700	4239
3.25767	4239
3.25833	4238
3.25900	4238
3.25967	4237
3.26033	4237
3.26100	4236
3.26167	4236
3.26233	4235
3.26300	4234
3.26367	4234
3.26433	4233
3.26500	4233
3.26567	4232
3.26633	4231
3.26700	4231
3.26767	4230
3.26833	4230
3.26900	4229
3.26967	4228
3.27033	4228
3.27100	4227
3.27167	4227
3.27233	4226
3.27300	4225
3.27367	4225
3.27433	4224
3.27500	4224
3.27567	4223
3.27633	4222
3.27700	4222
3.27767	4221
3.27833	4221
3.27900	4220
3.27967	4219
3.28033	4219
3.28100	4218
3.28167	4217
3.28233	4217
3.28300	4216
3.28367	4216
3.28433	4215
3.28500	4214
3.28567	4214
3.28633	4213
3.28700	4212
3.28767	4212
3.28833	4211
3.28900	4210
3.28967	4210
3.29033	4209
3.29100	4209
3.29167	4208
3.29233	4207
3.29300	4207
3.29367	4206
3.29433	4205
3.29500	4205
3.29567	4204
3.29633	4203
3.29700	4203
3.29767	4202
3.29833	4201
3.29900	4201
3.29967	4200
3.30033	4199
3.30100	4198
3.30167	4198
3.30233	4197
3.30300	4196
3.30367	4196
3.30433	4195
3.30500	4194
3.30567	4193
3.30633	4193
3.30700	4192
3.30767	4191
3.30833	4191
3.30900	4190
3.30967	4189
3.31033	4188
3.31100	4188
3.31167	4187
3.31233	4186
3.31300	4186
3.31367	4185
3.31433	4184
3.31500	4184
3.31567	4183
3.31633	4182
3.31700	4182
3.31767	4181
3.31833	4180
3.31900	4180
3.31967	4179
3.32033	4178
3.32100	4178
3.32167	4177
3.32233	4176
3.32300	4175
3.32367	4175
3.32433	4174
3.32500	4173
3.32567	4172
3.32633	4172
3.32700	4171
3.32767	4170
3.32833	4169
3.32900	4169
3.32967	4168
3.33033	4167
3.33100	4167
3.33167	4166
3.33233	4165
3.33300	4164
3.33367	4163
3.33433	4162
3.33500	4162
3.33567	4161
3.33633	4160
3.33700	4159
3.33767	4158
3.33833	4157
3.33900	4156
3.33967	4155
3.34033	4154
3.34100	4153
3.34167	4153
3.34233	4152
3.34300	4151
3.34367	4150
3.34433	4149
3.34500	4148
3.34567	4147
3.34633	4147
3.34700	4146
3.34767	4145
3.34833	4144
3.34900	4144
3.34967	4143
3.35033	4142
3.35100	4141
3.35167	4141
3.35233	4140
3.35300	4139
3.35367	4138
3.35433	4138
3.35500	4137
3.35567	4136
3.35633	4136
3.35700	4135
3.35767	4135
3.35833	4134
3.35900	4133
3.35967	4133
3.36033	4132
3.36100	4132
3.36167	4131
3.36233	4131
3.36300	4131
3.36367	4130
3.36433	4130
3.36500	4130
3.36567	4129
3.36633	4129
3.36700	4129
3.36767	4129
3.36833	4128
3.36900	4128
3.36967	4128
3.37033	4128
3.37100	4128
3.37167	4128
3.37233	4128
3.37300	4128
3.37367	4127
3.37433	4127
3.37500	4127
3.37567	4127
3.37633	4127
3.37700	4127
3.37767	4127
3.37833	4127
3.37900	4127
3.37967	4127
3.38033	4127
3.38100	4128
3.38167	4128
3.38233	4128
3.38300	4128
3.38367	4128
3.38433	4128
3.38500	4128
3.38567	4129
3.38633	4129
3.38700	4129
3.38767	4129
3.38833	4130
3.38900	4130
3.38967	4130
3.39033	4131
3.39100	4131
3.39167	4131
3.39233	4132
3.39300	4132
3.39367	4132
3.39433	4133
3.39500	4133
3.39567	4133
3.39633	4134
3.39700	4134
3.39767	4134
3.39833	4135
3.39900	4135
3.39967	4136
3.40033	4136
3.40100	4137
3.40167	4137
3.40233	4138
3.40300	4138
3.40367	4139
3.40433	4140
3.40500	4140
3.40567	4141
3.40633	4142
3.40700	4142
3.40767	4143
3.40833	4144
3.40900	4145
3.40967	4145
3.41033	4146
3.41100	4147
3.41167	4148
3.41233	4149
3.41300	4150
3.41367	4151
3.41433	4152
3.41500	4153
3.41567	4154
3.41633	4155
3.41700	4157
3.41767	4158
3.41833	4159
3.41900	4160
3.41967	4161
3.42033	4163
3.42100	4164
3.42167	4165
3.42233	4166
3.42300	4168
3.42367	4169
3.42433	4170
3.42500	4172
3.42567	4173
3.42633	4175
3.42700	4176
3.42767	4178
3.42833	4180
3.42900	4182
3.42967	4184
3.43033	4186
3.43100	4188
3.43167	4190
3.43233	4192
3.43300	4194
3.43367	4197
3.43433	4199
3.43500	4201
3.43567	4204
3.43633	4206
3.43700	4209
3.43767	4211
3.43833	4214
3.43900	4216
3.43967	4219
3.44033	4222
3.44100	4225
3.44167	4228
3.44233	4230
3.44300	4234
3.44367	4237
3.44433	4240
3.44500	4243
3.44567	4246
3.44633	4249
3.44700	4253
3.44767	4256
3.44833	4260
3.44900	4263
3.44967	4267
3.45033	4271
3.45100	4274
3.45167	4278
3.45233	4282
3.45300	4286
3.45367	4290
3.45433	4294
3.45500	4298
3.45567	4302
3.45633	4307
3.45700	4311
3.45767	4315
3.45833	4319
3.45900	4324
3.45967	4328
3.46033	4333
3.46100	4337
3.46167	4342
3.46233	4346
3.46300	4351
3.46367	4356
3.46433	4360
3.46500	4365
3.46567	4370
3.46633	4375
3.46700	4380
3.46767	4385
3.46833	4390
3.46900	4395
3.46967	4400
3.47033	4405
3.47100	4410
3.47167	4415
3.47233	4420
3.47300	4425
3.47367	4430
3.47433	4436
3.47500	4441
3.47567	4446
3.47633	4452
3.47700	4457
3.47767	4462
3.47833	4468
3.47900	4473
3.47967	4479
3.48033	4484
3.48100	4490
3.48167	4495
3.48233	4501
3.48300	4506
3.48367	4512
3.48433	4518
3.48500	4523
3.48567	4529
3.48633	4535
3.48700	4541
3.48767	4547
3.48833	4553
3.48900	4559
3.48967	4566
3.49033	4572
3.49100	4578
3.49167	4585
3.49233	4592
3.49300	4599
3.49367	4606
3.49433	4613
3.49500	4620
3.49567	4628
3.49633	4635
3.49700	4643
3.49767	4651
3.49833	4659
3.49900	4668
3.49967	4677
3.50033	4686
3.50100	4695
3.50167	4705
3.50233	4715
3.50300	4725
3.50367	4735
3.50433	4746
3.50500	4758
3.50567	4770
3.50633	4782
3.50700	4794
3.50767	4807
3.50833	4821
3.50900	4835
3.50967	4849
3.51033	4865
3.51100	4880
3.51167	4896
3.51233	4913
3.51300	4930
3.51367	4948
3.51433	4967
3.51500	4986
3.51567	5006
3.51633	5027
3.51700	5048
3.51767	5070
3.51833	5093
3.51900	5116
3.51967	5140
3.52033	5165
3.52100	5190
3.52167	5217
3.52233	5244
3.52300	5271
3.52367	5300
3.52433	5329
3.52500	5359
3.52567	5390
3.52633	5422
3.52700	5454
3.52767	5488
3.52833	5522
3.52900	5556
3.52967	5592
3.53033	5628
3.53100	5665
3.53167	5702
3.53233	5740
3.53300	5779
3.53367	5818
3.53433	5858
3.53500	5898
3.53567	5939
3.53633	5980
3.53700	6022
3.53767	6064
3.53833	6107
3.53900	6150
3.53967	6193
3.54033	6237
3.54100	6280
3.54167	6324
3.54233	6368
3.54300	6413
3.54367	6457
3.54433	6501
3.54500	6546
3.54567	6590
3.54633	6634
3.54700	6678
3.54767	6721
3.54833	6764
3.54900	6807
3.54967	6850
3.55033	6892
3.55100	6933
3.55167	6974
3.55233	7014
3.55300	7053
3.55367	7092
3.55433	7130
3.55500	7167
3.55567	7203
3.55633	7239
3.55700	7273
3.55767	7306
3.55833	7339
3.55900	7370
3.55967	7401
3.56033	7430
3.56100	7459
3.56167	7486
3.56233	7513
3.56300	7538
3.56367	7562
3.56433	7585
3.56500	7607
3.56567	7628
3.56633	7647
3.56700	7666
3.56767	7683
3.56833	7699
3.56900	7714
3.56967	7728
3.57033	7740
3.57100	7751
3.57167	7761
3.57233	7770
3.57300	7777
3.57367	7784
3.57433	7789
3.57500	7793
3.57567	7795
3.57633	7797
3.57700	7798
3.57767	7797
3.57833	7795
3.57900	7792
3.57967	7788
3.58033	7783
3.58100	7777
3.58167	7770
3.58233	7763
3.58300	7754
3.58367	7744
3.58433	7733
3.58500	7722
3.58567	7709
3.58633	7696
3.58700	7682
3.58767	7668
3.58833	7653
3.58900	7637
3.58967	7620
3.59033	7603
3.59100	7586
3.59167	7568
3.59233	7549
3.59300	7530
3.59367	7510
3.59433	7490
3.59500	7470
3.59567	7449
3.59633	7428
3.59700	7406
3.59767	7384
3.59833	7362
3.59900	7340
3.59967	7317
3.60033	7294
3.60100	7271
3.60167	7248
3.60233	7224
3.60300	7200
3.60367	7177
3.60433	7153
3.60500	7129
3.60567	7105
3.60633	7080
3.60700	7056
3.60767	7032
3.60833	7008
3.60900	6983
3.60967	6959
3.61033	6935
3.61100	6910
3.61167	6886
3.61233	6862
3.61300	6837
3.61367	6813
3.61433	6789
3.61500	6765
3.61567	6741
3.61633	6717
3.61700	6693
3.61767	6669
3.61833	6645
3.61900	6621
3.61967	6597
3.62033	6573
3.62100	6549
3.62167	6526
3.62233	6502
3.62300	6478
3.62367	6454
3.62433	6431
3.62500	6407
3.62567	6384
3.62633	6360
3.62700	6336
3.62767	6313
3.62833	6289
3.62900	6266
3.62967	6242
3.63033	6219
3.63100	6195
3.63167	6172
3.63233	6149
3.63300	6125
3.63367	6102
3.63433	6079
3.63500	6056
3.63567	6033
3.63633	6010
3.63700	5987
3.63767	5964
3.63833	5941
3.63900	5918
3.63967	5895
3.64033	5873
3.64100	5850
3.64167	5827
3.64233	5805
3.64300	5783
3.64367	5760
3.64433	5738
3.64500	5716
3.64567	5694
3.64633	5672
3.64700	5650
3.64767	5628
3.64833	5606
3.64900	5585
3.64967	5563
3.65033	5542
3.65100	5521
3.65167	5500
3.65233	5479
3.65300	5458
3.65367	5437
3.65433	5417
3.65500	5396
3.65567	5376
3.65633	5356
3.65700	5336
3.65767	5316
3.65833	5297
3.65900	5277
3.65967	5258
3.66033	5239
3.66100	5220
3.66167	5202
3.66233	5183
3.66300	5165
3.66367	5147
3.66433	5129
3.66500	5111
3.66567	5094
3.66633	5077
3.66700	5060
3.66767	5043
3.66833	5026
3.66900	5010
3.66967	4993
3.67033	4977
3.67100	4961
3.67167	4946
3.67233	4930
3.67300	4915
3.67367	4900
3.67433	4885
3.67500	4870
3.67567	4855
3.67633	4841
3.67700	4827
3.67767	4813
3.67833	4799
3.67900	4785
3.67967	4772
3.68033	4758
3.68100	4745
3.68167	4732
3.68233	4720
3.68300	4707
3.68367	4695
3.68433	4683
3.68500	4671
3.68567	4659
3.68633	4647
3.68700	4636
3.68767	4625
3.68833	4614
3.68900	4603
3.68967	4592
3.69033	4582
3.69100	4571
3.69167	4561
3.69233	4551
3.69300	4541
3.69367	4531
3.69433	4521
3.69500	4511
3.69567	4502
3.69633	4493
3.69700	4483
3.69767	4474
3.69833	4466
3.69900	4457
3.69967	4448
3.70033	4440
3.70100	4432
3.70167	4423
3.70233	4415
3.70300	4408
3.70367	4400
3.70433	4392
3.70500	4385
3.70567	4378
3.70633	4370
3.70700	4363
3.70767	4356
3.70833	4349
3.70900	4343
3.70967	4336
3.71033	4329
3.71100	4323
3.71167	4317
3.71233	4310
3.71300	4304
3.71367	4298
3.71433	4292
3.71500	4287
3.71567	4281
3.71633	4275
3.71700	4269
3.71767	4264
3.71833	4258
3.71900	4253
3.71967	4248
3.72033	4242
3.72100	4237
3.72167	4232
3.72233	4227
3.72300	4222
3.72367	4217
3.72433	4212
3.72500	4208
3.72567	4203
3.72633	4198
3.72700	4194
3.72767	4189
3.72833	4185
3.72900	4181
3.72967	4177
3.73033	4173
3.73100	4168
3.73167	4164
3.73233	4160
3.73300	4157
3.73367	4153
3.73433	4149
3.73500	4145
3.73567	4141
3.73633	4138
3.73700	4134
3.73767	4131
3.73833	4127
3.73900	4124
3.73967	4120
3.74033	4117
3.74100	4114
3.74167	4110
3.74233	4107
3.74300	4104
3.74367	4101
3.74433	4098
3.74500	4095
3.74567	4092
3.74633	4089
3.74700	4086
3.74767	4083
3.74833	4080
3.74900	4077
3.74967	4075
3.75033	4072
3.75100	4069
3.75167	4067
3.75233	4064
3.75300	4061
3.75367	4059
3.75433	4056
3.75500	4054
3.75567	4051
3.75633	4048
3.75700	4046
3.75767	4043
3.75833	4041
3.75900	4038
3.75967	4036
3.76033	4033
3.76100	4031
3.76167	4028
3.76233	4026
3.76300	4024
3.76367	4021
3.76433	4019
3.76500	4017
3.76567	4014
3.76633	4012
3.76700	4010
3.76767	4008
3.76833	4006
3.76900	4004
3.76967	4002
3.77033	4000
3.77100	3998
3.77167	3996
3.77233	3994
3.77300	3992
3.77367	3990
3.77433	3988
3.77500	3986
3.77567	3985
3.77633	3983
3.77700	3981
3.77767	3979
3.77833	3978
3.77900	3976
3.77967	3974
3.78033	3972
3.78100	3971
3.78167	3969
3.78233	3967
3.78300	3966
3.78367	3964
3.78433	3963
3.78500	3961
3.78567	3959
3.78633	3958
3.78700	3956
3.78767	3955
3.78833	3953
3.78900	3952
3.78967	3950
3.79033	3949
3.79100	3947
3.79167	3946
3.79233	3944
3.79300	3943
3.79367	3941
3.79433	3940
3.79500	3938
3.79567	3937
3.79633	3935
3.79700	3933
3.79767	3932
3.79833	3930
3.79900	3929
3.79967	3927
3.80033	3926
3.80100	3924
3.80167	3923
3.80233	3921
3.80300	3919
3.80367	3918
3.80433	3916
3.80500	3915
3.80567	3913
3.80633	3912
3.80700	3910
3.80767	3908
3.80833	3907
3.80900	3905
3.80967	3904
3.81033	3902
3.81100	3901
3.81167	3899
3.81233	3898
3.81300	3896
3.81367	3895
3.81433	3893
3.81500	3892
3.81567	3891
3.81633	3889
3.81700	3888
3.81767	3887
3.81833	3885
3.81900	3884
3.81967	3883
3.82033	3882
3.82100	3881
3.82167	3880
3.82233	3878
3.82300	3877
3.82367	3876
3.82433	3875
3.82500	3874
3.82567	3873
3.82633	3872
3.82700	3871
3.82767	3870
3.82833	3869
3.82900	3867
3.82967	3866
3.83033	3865
3.83100	3864
3.83167	3863
3.83233	3862
3.83300	3861
3.83367	3860
3.83433	3859
3.83500	3858
3.83567	3857
3.83633	3856
3.83700	3855
3.83767	3854
3.83833	3853
3.83900	3852
3.83967	3851
3.84033	3850
3.84100	3849
3.84167	3848
3.84233	3847
3.84300	3846
3.84367	3846
3.84433	3845
3.84500	3844
3.84567	3843
3.84633	3842
3.84700	3841
3.84767	3841
3.84833	3840
3.84900	3839
3.84967	3838
3.85033	3837
3.85100	3837
3.85167	3836
3.85233	3835
3.85300	3834
3.85367	3833
3.85433	3833
3.85500	3832
3.85567	3831
3.85633	3830
3.85700	3830
3.85767	3829
3.85833	3828
3.85900	3828
3.85967	3827
3.86033	3826
3.86100	3825
3.86167	3825
3.86233	3824
3.86300	3823
3.86367	3823
3.86433	3822
3.86500	3822
3.86567	3821
3.86633	3820
3.86700	3820
3.86767	3819
3.86833	3818
3.86900	3818
3.86967	3817
3.87033	3816
3.87100	3816
3.87167	3815
3.87233	3815
3.87300	3814
3.87367	3813
3.87433	3813
3.87500	3812
3.87567	3812
3.87633	3811
3.87700	3811
3.87767	3810
3.87833	3810
3.87900	3809
3.87967	3809
3.88033	3808
3.88100	3807
3.88167	3807
3.88233	3806
3.88300	3806
3.88367	3805
3.88433	3805
3.88500	3804
3.88567	3804
3.88633	3803
3.88700	3802
3.88767	3802
3.88833	3801
3.88900	3801
3.88967	3800
3.89033	3799
3.89100	3799
3.89167	3798
3.89233	3798
3.89300	3797
3.89367	3796
3.89433	3796
3.89500	3795
3.89567	3795
3.89633	3794
3.89700	3793
3.89767	3793
3.89833	3792
3.89900	3792
3.89967	3791
3.90033	3790
3.90100	3790
3.90167	3789
3.90233	3789
3.90300	3788
3.90367	3788
3.90433	3787
3.90500	3787
3.90567	3786
3.90633	3786
3.90700	3785
3.90767	3785
3.90833	3784
3.90900	3784
3.90967	3783
3.91033	3782
3.91100	3782
3.91167	3781
3.91233	3781
3.91300	3780
3.91367	3780
3.91433	3779
3.91500	3779
3.91567	3778
3.91633	3777
3.91700	3777
3.91767	3776
3.91833	3776
3.91900	3775
3.91967	3775
3.92033	3774
3.92100	3773
3.92167	3773
3.92233	3772
3.92300	3771
3.92367	3771
3.92433	3770
3.92500	3769
3.92567	3769
3.92633	3768
3.92700	3768
3.92767	3767
3.92833	3766
3.92900	3766
3.92967	3765
3.93033	3765
3.93100	3764
3.93167	3764
3.93233	3763
3.93300	3762
3.93367	3762
3.93433	3761
3.93500	3760
3.93567	3760
3.93633	3759
3.93700	3759
3.93767	3758
3.93833	3758
3.93900	3757
3.93967	3756
3.94033	3756
3.94100	3755
3.94167	3755
3.94233	3754
3.94300	3754
3.94367	3753
3.94433	3753
3.94500	3752
3.94567	3752
3.94633	3751
3.94700	3751
3.94767	3750
3.94833	3750
3.94900	3749
3.94967	3749
3.95033	3748
3.95100	3748
3.95167	3747
3.95233	3747
3.95300	3746
3.95367	3746
3.95433	3746
3.95500	3745
3.95567	3745
3.95633	3745
3.95700	3744
3.95767	3744
3.95833	3743
3.95900	3743
3.95967	3743
3.96033	3742
3.96100	3742
3.96167	3742
3.96233	3742
3.96300	3741
3.96367	3741
3.96433	3741
3.96500	3740
3.96567	3740
3.96633	3740
3.96700	3740
3.96767	3739
3.96833	3739
3.96900	3739
3.96967	3738
3.97033	3738
3.97100	3738
3.97167	3738
3.97233	3737
3.97300	3737
3.97367	3737
3.97433	3737
3.97500	3737
3.97567	3736
3.97633	3736
3.97700	3736
3.97767	3736
3.97833	3736
3.97900	3735
3.97967	3735
3.98033	3735
3.98100	3735
3.98167	3734
3.98233	3734
3.98300	3734
3.98367	3734
3.98433	3734
3.98500	3734
3.98567	3734
3.98633	3734
3.98700	3734
3.98767	3734
3.98833	3734
3.98900	3734
3.98967	3734
3.99033	3734
3.99100	3734
3.99167	3735
3.99233	3735
3.99300	3735
3.99367	3735
3.99433	3736
3.99500	3736
3.99567	3737
3.99633	3737
3.99700	3737
3.99767	3738
3.99833	3739
3.99900	3739
3.99967	3740
4.00033	3741
4.00100	3741
4.00167	3742
4.00233	3743
4.00300	3744
4.00367	3745
4.00433	3747
4.00500	3748
4.00567	3749
4.00633	3750
4.00700	3751
4.00767	3753
4.00833	3754
4.00900	3755
4.00967	3757
4.01033	3758
4.01100	3760
4.01167	3762
4.01233	3763
4.01300	3765
4.01367	3767
4.01433	3769
4.01500	3771
4.01567	3773
4.01633	3775
4.01700	3777
4.01767	3779
4.01833	3782
4.01900	3784
4.01967	3786
4.02033	3789
4.02100	3791
4.02167	3794
4.02233	3797
4.02300	3799
4.02367	3802
4.02433	3805
4.02500	3808
4.02567	3811
4.02633	3815
4.02700	3818
4.02767	3821
4.02833	3825
4.02900	3828
4.02967	3832
4.03033	3836
4.03100	3839
4.03167	3843
4.03233	3847
4.03300	3851
4.03367	3855
4.03433	3859
4.03500	3863
4.03567	3867
4.03633	3871
4.03700	3875
4.03767	3880
4.03833	3884
4.03900	3888
4.03967	3893
4.04033	3897
4.04100	3902
4.04167	3906
4.04233	3911
4.04300	3916
4.04367	3921
4.04433	3925
4.04500	3930
4.04567	3935
4.04633	3940
4.04700	3945
4.04767	3950
4.04833	3955
4.04900	3960
4.04967	3965
4.05033	3970
4.05100	3975
4.05167	3980
4.05233	3985
4.05300	3990
4.05367	3996
4.05433	4001
4.05500	4006
4.05567	4011
4.05633	4016
4.05700	4022
4.05767	4027
4.05833	4032
4.05900	4037
4.05967	4043
4.06033	4048
4.06100	4053
4.06167	4058
4.06233	4063
4.06300	4068
4.06367	4073
4.06433	4079
4.06500	4084
4.06567	4089
4.06633	4094
4.06700	4099
4.06767	4104
4.06833	4108
4.06900	4113
4.06967	4118
4.07033	4122
4.07100	4127
4.07167	4132
4.07233	4136
4.07300	4141
4.07367	4145
4.07433	4149
4.07500	4154
4.07567	4158
4.07633	4162
4.07700	4166
4.07767	4170
4.07833	4174
4.07900	4178
4.07967	4182
4.08033	4186
4.08100	4189
4.08167	4193
4.08233	4197
4.08300	4200
4.08367	4203
4.08433	4207
4.08500	4210
4.08567	4213
4.08633	4216
4.08700	4219
4.08767	4222
4.08833	4225
4.08900	4228
4.08967	4230
4.09033	4233
4.09100	4236
4.09167	4238
4.09233	4240
4.09300	4243
4.09367	4245
4.09433	4247
4.09500	4249
4.09567	4251
4.09633	4253
4.09700	4254
4.09767	4256
4.09833	4258
4.09900	4259
4.09967	4261
4.10033	4262
4.10100	4264
4.10167	4265
4.10233	4266
4.10300	4267
4.10367	4269
4.10433	4270
4.10500	4271
4.10567	4272
4.10633	4273
4.10700	4274
4.10767	4274
4.10833	4275
4.10900	4276
4.10967	4277
4.11033	4277
4.11100	4278
4.11167	4278
4.11233	4279
4.11300	4279
4.11367	4280
4.11433	4280
4.11500	4280
4.11567	4280
4.11633	4281
4.11700	4281
4.11767	4281
4.11833	4281
4.11900	4281
4.11967	4281
4.12033	4281
4.12100	4281
4.12167	4281
4.12233	4281
4.12300	4281
4.12367	4281
4.12433	4281
4.12500	4280
4.12567	4280
4.12633	4280
4.12700	4280
4.12767	4280
4.12833	4279
4.12900	4279
4.12967	4279
4.13033	4279
4.13100	4279
4.13167	4278
4.13233	4278
4.13300	4278
4.13367	4278
4.13433	4277
4.13500	4277
4.13567	4277
4.13633	4277
4.13700	4277
4.13767	4276
4.13833	4276
4.13900	4276
4.13967	4276
4.14033	4276
4.14100	4275
4.14167	4275
4.14233	4275
4.14300	4275
4.14367	4274
4.14433	4274
4.14500	4274
4.14567	4274
4.14633	4273
4.14700	4273
4.14767	4273
4.14833	4273
4.14900	4272
4.14967	4272
4.15033	4272
4.15100	4272
4.15167	4271
4.15233	4271
4.15300	4271
4.15367	4270
4.15433	4270
4.15500	4270
4.15567	4269
4.15633	4269
4.15700	4268
4.15767	4268
4.15833	4268
4.15900	4267
4.15967	4267
4.16033	4267
4.16100	4266
4.16167	4266
4.16233	4265
4.16300	4265
4.16367	4265
4.16433	4264
4.16500	4264
4.16567	4263
4.16633	4263
4.16700	4262
4.16767	4262
4.16833	4261
4.16900	4261
4.16967	4260
4.17033	4259
4.17100	4259
4.17167	4258
4.17233	4257
4.17300	4257
4.17367	4256
4.17433	4255
4.17500	4255
4.17567	4254
4.17633	4253
4.17700	4252
4.17767	4252
4.17833	4251
4.17900	4250
4.17967	4249
4.18033	4248
4.18100	4248
4.18167	4247
4.18233	4246
4.18300	4246
4.18367	4245
4.18433	4244
4.18500	4244
4.18567	4243
4.18633	4242
4.18700	4242
4.18767	4241
4.18833	4241
4.18900	4241
4.18967	4240
4.19033	4240
4.19100	4240
4.19167	4239
4.19233	4239
4.19300	4239
4.19367	4239
4.19433	4239
4.19500	4239
4.19567	4239
4.19633	4239
4.19700	4239
4.19767	4240
4.19833	4240
4.19900	4241
4.19967	4241
4.20033	4242
4.20100	4242
4.20167	4243
4.20233	4244
4.20300	4245
4.20367	4246
4.20433	4247
4.20500	4248
4.20567	4250
4.20633	4251
4.20700	4253
4.20767	4254
4.20833	4256
4.20900	4258
4.20967	4260
4.21033	4263
4.21100	4265
4.21167	4267
4.21233	4270
4.21300	4273
4.21367	4276
4.21433	4279
4.21500	4282
4.21567	4285
4.21633	4288
4.21700	4292
4.21767	4296
4.21833	4300
4.21900	4304
4.21967	4308
4.22033	4313
4.22100	4318
4.22167	4323
4.22233	4328
4.22300	4334
4.22367	4340
4.22433	4346
4.22500	4352
4.22567	4358
4.22633	4365
4.22700	4372
4.22767	4379
4.22833	4387
4.22900	4395
4.22967	4403
4.23033	4411
4.23100	4420
4.23167	4429
4.23233	4438
4.23300	4447
4.23367	4457
4.23433	4467
4.23500	4477
4.23567	4487
4.23633	4498
4.23700	4509
4.23767	4521
4.23833	4532
4.23900	4544
4.23967	4557
4.24033	4569
4.24100	4582
4.24167	4595
4.24233	4609
4.24300	4623
4.24367	4637
4.24433	4651
4.24500	4666
4.24567	4681
4.24633	4697
4.24700	4712
4.24767	4728
4.24833	4745
4.24900	4761
4.24967	4778
4.25033	4796
4.25100	4813
4.25167	4831
4.25233	4849
4.25300	4868
4.25367	4887
4.25433	4906
4.25500	4926
4.25567	4945
4.25633	4966
4.25700	4986
4.25767	5007
4.25833	5028
4.25900	5050
4.25967	5071
4.26033	5094
4.26100	5116
4.26167	5139
4.26233	5162
4.26300	5185
4.26367	5209
4.26433	5233
4.26500	5257
4.26567	5282
4.26633	5307
4.26700	5332
4.26767	5357
4.26833	5383
4.26900	5409
4.26967	5435
4.27033	5461
4.27100	5488
4.27167	5515
4.27233	5541
4.27300	5569
4.27367	5596
4.27433	5623
4.27500	5651
4.27567	5679
4.27633	5707
4.27700	5735
4.27767	5764
4.27833	5792
4.27900	5821
4.27967	5850
4.28033	5879
4.28100	5908
4.28167	5938
4.28233	5967
4.28300	5997
4.28367	6026
4.28433	6056
4.28500	6086
4.28567	6116
4.28633	6146
4.28700	6176
4.28767	6207
4.28833	6237
4.28900	6268
4.28967	6299
4.29033	6330
4.29100	6361
4.29167	6392
4.29233	6423
4.29300	6454
4.29367	6486
4.29433	6517
4.29500	6549
4.29567	6581
4.29633	6612
4.29700	6644
4.29767	6676
4.29833	6708
4.29900	6740
4.29967	6772
4.30033	6804
4.30100	6836
4.30167	6868
4.30233	6899
4.30300	6931
4.30367	6963
4.30433	6994
4.30500	7026
4.30567	7057
4.30633	7088
4.30700	7119
4.30767	7150
4.30833	7180
4.30900	7210
4.30967	7240
4.31033	7270
4.31100	7299
4.31167	7329
4.31233	7358
4.31300	7386
4.31367	7415
4.31433	7443
4.31500	7470
4.31567	7498
4.31633	7525
4.31700	7552
4.31767	7578
4.31833	7604
4.31900	7630
4.31967	7655
4.32033	7680
4.32100	7704
4.32167	7728
4.32233	7751
4.32300	7774
4.32367	7796
4.32433	7818
4.32500	7839
4.32567	7860
4.32633	7880
4.32700	7900
4.32767	7919
4.32833	7938
4.32900	7956
4.32967	7974
4.33033	7991
4.33100	8007
4.33167	8023
4.33233	8039
4.33300	8053
4.33367	8068
4.33433	8082
4.33500	8095
4.33567	8108
4.33633	8120
4.33700	8131
4.33767	8143
4.33833	8153
4.33900	8163
4.33967	8173
4.34033	8182
4.34100	8190
4.34167	8198
4.34233	8206
4.34300	8213
4.34367	8219
4.34433	8225
4.34500	8231
4.34567	8236
4.34633	8241
4.34700	8245
4.34767	8249
4.34833	8252
4.34900	8255
4.34967	8257
4.35033	8260
4.35100	8261
4.35167	8263
4.35233	8264
4.35300	8265
4.35367	8266
4.35433	8266
4.35500	8267
4.35567	8267
4.35633	8268
4.35700	8268
4.35767	8268
4.35833	8268
4.35900	8269
4.35967	8269
4.36033	8270
4.36100	8270
4.36167	8271
4.36233	8272
4.36300	8273
4.36367	8275
4.36433	8277
4.36500	8279
4.36567	8281
4.36633	8284
4.36700	8287
4.36767	8291
4.36833	8295
4.36900	8300
4.36967	8305
4.37033	8311
4.37100	8317
4.37167	8324
4.37233	8332
4.37300	8340
4.37367	8349
4.37433	8359
4.37500	8369
4.37567	8380
4.37633	8392
4.37700	8405
4.37767	8419
4.37833	8433
4.37900	8449
4.37967	8465
4.38033	8482
4.38100	8501
4.38167	8520
4.38233	8541
4.38300	8563
4.38367	8586
4.38433	8611
4.38500	8636
4.38567	8663
4.38633	8692
4.38700	8721
4.38767	8752
4.38833	8785
4.38900	8819
4.38967	8854
4.39033	8891
4.39100	8929
4.39167	8969
4.39233	9010
4.39300	9052
4.39367	9097
4.39433	9142
4.39500	9190
4.39567	9238
4.39633	9289
4.39700	9341
4.39767	9394
4.39833	9449
4.39900	9506
4.39967	9564
4.40033	9624
4.40100	9685
4.40167	9748
4.40233	9812
4.40300	9878
4.40367	9945
4.40433	10014
4.40500	10084
4.40567	10156
4.40633	10229
4.40700	10303
4.40767	10379
4.40833	10456
4.40900	10534
4.40967	10613
4.41033	10693
4.41100	10774
4.41167	10856
4.41233	10939
4.41300	11023
4.41367	11108
4.41433	11193
4.41500	11280
4.41567	11366
4.41633	11454
4.41700	11542
4.41767	11631
4.41833	11720
4.41900	11810
4.41967	11900
4.42033	11990
4.42100	12081
4.42167	12172
4.42233	12263
4.42300	12353
4.42367	12444
4.42433	12535
4.42500	12626
4.42567	12716
4.42633	12807
4.42700	12897
4.42767	12986
4.42833	13075
4.42900	13164
4.42967	13251
4.43033	13339
4.43100	13425
4.43167	13511
4.43233	13595
4.43300	13679
4.43367	13762
4.43433	13844
4.43500	13925
4.43567	14005
4.43633	14083
4.43700	14160
4.43767	14236
4.43833	14311
4.43900	14385
4.43967	14456
4.44033	14527
4.44100	14596
4.44167	14663
4.44233	14729
4.44300	14793
4.44367	14855
4.44433	14915
4.44500	14974
4.44567	15031
4.44633	15086
4.44700	15138
4.44767	15189
4.44833	15238
4.44900	15284
4.44967	15329
4.45033	15371
4.45100	15411
4.45167	15449
4.45233	15484
4.45300	15517
4.45367	15548
4.45433	15577
4.45500	15603
4.45567	15627
4.45633	15649
4.45700	15668
4.45767	15685
4.45833	15700
4.45900	15712
4.45967	15722
4.46033	15729
4.46100	15734
4.46167	15736
4.46233	15736
4.46300	15734
4.46367	15729
4.46433	15722
4.46500	15713
4.46567	15701
4.46633	15687
4.46700	15670
4.46767	15651
4.46833	15630
4.46900	15607
4.46967	15581
4.47033	15553
4.47100	15523
4.47167	15490
4.47233	15456
4.47300	15419
4.47367	15380
4.47433	15339
4.47500	15296
4.47567	15251
4.47633	15205
4.47700	15156
4.47767	15105
4.47833	15052
4.47900	14998
4.47967	14942
4.48033	14884
4.48100	14825
4.48167	14763
4.48233	14701
4.48300	14637
4.48367	14571
4.48433	14504
4.48500	14436
4.48567	14366
4.48633	14296
4.48700	14224
4.48767	14150
4.48833	14076
4.48900	14001
4.48967	13925
4.49033	13848
4.49100	13770
4.49167	13692
4.49233	13612
4.49300	13533
4.49367	13452
4.49433	13371
4.49500	13290
4.49567	13209
4.49633	13127
4.49700	13045
4.49767	12963
4.49833	12880
4.49900	12798
4.49967	12716
4.50033	12633
4.50100	12551
4.50167	12469
4.50233	12387
4.50300	12306
4.50367	12224
4.50433	12144
4.50500	12063
4.50567	11983
4.50633	11904
4.50700	11825
4.50767	11747
4.50833	11669
4.50900	11592
4.50967	11516
4.51033	11441
4.51100	11367
4.51167	11294
4.51233	11221
4.51300	11150
4.51367	11080
4.51433	11011
4.51500	10943
4.51567	10877
4.51633	10812
4.51700	10748
4.51767	10685
4.51833	10624
4.51900	10564
4.51967	10506
4.52033	10449
4.52100	10394
4.52167	10340
4.52233	10288
4.52300	10238
4.52367	10189
4.52433	10142
4.52500	10097
4.52567	10053
4.52633	10011
4.52700	9972
4.52767	9934
4.52833	9897
4.52900	9863
4.52967	9831
4.53033	9801
4.53100	9772
4.53167	9746
4.53233	9722
4.53300	9700
4.53367	9680
4.53433	9662
4.53500	9646
4.53567	9632
4.53633	9621
4.53700	9611
4.53767	9604
4.53833	9598
4.53900	9595
4.53967	9594
4.54033	9596
4.54100	9599
4.54167	9605
4.54233	9613
4.54300	9623
4.54367	9635
4.54433	9650
4.54500	9667
4.54567	9685
4.54633	9706
4.54700	9730
4.54767	9755
4.54833	9782
4.54900	9812
4.54967	9844
4.55033	9877
4.55100	9913
4.55167	9951
4.55233	9990
4.55300	10032
4.55367	10075
4.55433	10120
4.55500	10166
4.55567	10214
4.55633	10264
4.55700	10316
4.55767	10369
4.55833	10424
4.55900	10480
4.55967	10538
4.56033	10598
4.56100	10659
4.56167	10721
4.56233	10785
4.56300	10850
4.56367	10917
4.56433	10985
4.56500	11055
4.56567	11125
4.56633	11197
4.56700	11270
4.56767	11344
4.56833	11420
4.56900	11496
4.56967	11573
4.57033	11651
4.57100	11730
4.57167	11810
4.57233	11890
4.57300	11972
4.57367	12053
4.57433	12136
4.57500	12219
4.57567	12302
4.57633	12386
4.57700	12470
4.57767	12554
4.57833	12638
4.57900	12723
4.57967	12807
4.58033	12892
4.58100	12976
4.58167	13060
4.58233	13144
4.58300	13228
4.58367	13312
4.58433	13395
4.58500	13478
4.58567	13560
4.58633	13641
4.58700	13722
4.58767	13802
4.58833	13882
4.58900	13961
4.58967	14039
4.59033	14116
4.59100	14192
4.59167	14267
4.59233	14341
4.59300	14415
4.59367	14487
4.59433	14558
4.59500	14628
4.59567	14697
4.59633	14765
4.59700	14832
4.59767	14898
4.59833	14962
4.59900	15025
4.59967	15086
4.60033	15146
4.60100	15205
4.60167	15262
4.60233	15318
4.60300	15372
4.60367	15425
4.60433	15476
4.60500	15525
4.60567	15573
4.60633	15620
4.60700	15665
4.60767	15708
4.60833	15750
4.60900	15790
4.60967	15829
4.61033	15866
4.61100	15902
4.61167	15936
4.61233	15969
4.61300	16000
4.61367	16029
4.61433	16057
4.61500	16083
4.61567	16108
4.61633	16131
4.61700	16152
4.61767	16172
4.61833	16191
4.61900	16207
4.61967	16223
4.62033	16236
4.62100	16248
4.62167	16258
4.62233	16267
4.62300	16275
4.62367	16280
4.62433	16285
4.62500	16288
4.62567	16289
4.62633	16289
4.62700	16288
4.62767	16286
4.62833	16282
4.62900	16277
4.62967	16271
4.63033	16264
4.63100	16255
4.63167	16245
4.63233	16234
4.63300	16222
4.63367	16209
4.63433	16195
4.63500	16179
4.63567	16163
4.63633	16146
4.63700	16128
4.63767	16108
4.63833	16088
4.63900	16067
4.63967	16045
4.64033	16023
4.64100	15999
4.64167	15975
4.64233	15950
4.64300	15924
4.64367	15897
4.64433	15870
4.64500	15842
4.64567	15813
4.64633	15783
4.64700	15753
4.64767	15723
4.64833	15692
4.64900	15660
4.64967	15628
4.65033	15595
4.65100	15563
4.65167	15529
4.65233	15496
4.65300	15462
4.65367	15428
4.65433	15393
4.65500	15358
4.65567	15323
4.65633	15288
4.65700	15252
4.65767	15216
4.65833	15180
4.65900	15144
4.65967	15107
4.66033	15070
4.66100	15033
4.66167	14996
4.66233	14958
4.66300	14921
4.66367	14883
4.66433	14845
4.66500	14807
4.66567	14770
4.66633	14732
4.66700	14694
4.66767	14656
4.66833	14618
4.66900	14581
4.66967	14543
4.67033	14505
4.67100	14468
4.67167	14430
4.67233	14393
4.67300	14356
4.67367	14319
4.67433	14282
4.67500	14245
4.67567	14209
4.67633	14173
4.67700	14136
4.67767	14100
4.67833	14064
4.67900	14029
4.67967	13993
4.68033	13958
4.68100	13923
4.68167	13888
4.68233	13853
4.68300	13818
4.68367	13784
4.68433	13750
4.68500	13715
4.68567	13682
4.68633	13648
4.68700	13614
4.68767	13581
4.68833	13548
4.68900	13515
4.68967	13483
4.69033	13450
4.69100	13418
4.69167	13387
4.69233	13355
4.69300	13324
4.69367	13293
4.69433	13262
4.69500	13232
4.69567	13201
4.69633	13172
4.69700	13142
4.69767	13113
4.69833	13085
4.69900	13056
4.69967	13028
4.70033	13000
4.70100	12973
4.70167	12945
4.70233	12919
4.70300	12892
4.70367	12866
4.70433	12840
4.70500	12814
4.70567	12789
4.70633	12764
4.70700	12739
4.70767	12715
4.70833	12691
4.70900	12667
4.70967	12643
4.71033	12620
4.71100	12597
4.71167	12575
4.71233	12552
4.71300	12530
4.71367	12508
4.71433	12486
4.71500	12465
4.71567	12443
4.71633	12422
4.71700	12400
4.71767	12379
4.71833	12358
4.71900	12337
4.71967	12317
4.72033	12296
4.72100	12275
4.72167	12255
4.72233	12234
4.72300	12214
4.72367	12194
4.72433	12174
4.72500	12155
4.72567	12135
4.72633	12116
4.72700	12097
4.72767	12078
4.72833	12059
4.72900	12041
4.72967	12022
4.73033	12004
4.73100	11986
4.73167	11969
4.73233	11951
4.73300	11934
4.73367	11917
4.73433	11900
4.73500	11884
4.73567	11867
4.73633	11851
4.73700	11835
4.73767	11819
4.73833	11803
4.73900	11787
4.73967	11772
4.74033	11757
4.74100	11741
4.74167	11726
4.74233	11711
4.74300	11697
4.74367	11682
4.74433	11667
4.74500	11653
4.74567	11638
4.74633	11624
4.74700	11610
4.74767	11596
4.74833	11582
4.74900	11568
4.74967	11554
4.75033	11540
4.75100	11526
4.75167	11512
4.75233	11498
4.75300	11484
4.75367	11471
4.75433	11457
4.75500	11444
4.75567	11430
4.75633	11417
4.75700	11403
4.75767	11390
4.75833	11377
4.75900	11364
4.75967	11351
4.76033	11338
4.76100	11325
4.76167	11313
4.76233	11300
4.76300	11288
4.76367	11276
4.76433	11263
4.76500	11251
4.76567	11239
4.76633	11227
4.76700	11215
4.76767	11204
4.76833	11192
4.76900	11180
4.76967	11168
4.77033	11157
4.77100	11145
4.77167	11134
4.77233	11122
4.77300	11111
4.77367	11099
4.77433	11088
4.77500	11077
4.77567	11065
4.77633	11054
4.77700	11043
4.77767	11032
4.77833	11021
4.77900	11011
4.77967	11000
4.78033	10989
4.78100	10979
4.78167	10968
4.78233	10958
4.78300	10947
4.78367	10937
4.78433	10926
4.78500	10916
4.78567	10906
4.78633	10895
4.78700	10885
4.78767	10875
4.78833	10864
4.78900	10854
4.78967	10844
4.79033	10834
4.79100	10824
4.79167	10814
4.79233	10804
4.79300	10794
4.79367	10785
4.79433	10775
4.79500	10765
4.79567	10756
4.79633	10746
4.79700	10737
4.79767	10727
4.79833	10718
4.79900	10708
4.79967	10699
4.80033	10690
4.80100	10681
4.80167	10671
4.80233	10662
4.80300	10653
4.80367	10644
4.80433	10636
4.80500	10627
4.80567	10618
4.80633	10609
4.80700	10601
4.80767	10592
4.80833	10584
4.80900	10575
4.80967	10567
4.81033	10559
4.81100	10551
4.81167	10543
4.81233	10535
4.81300	10527
4.81367	10519
4.81433	10511
4.81500	10504
4.81567	10496
4.81633	10488
4.81700	10481
4.81767	10473
4.81833	10466
4.81900	10458
4.81967	10451
4.82033	10443
4.82100	10436
4.82167	10428
4.82233	10420
4.82300	10413
4.82367	10405
4.82433	10397
4.82500	10389
4.82567	10381
4.82633	10373
4.82700	10365
4.82767	10357
4.82833	10349
4.82900	10341
4.82967	10332
4.83033	10324
4.83100	10316
4.83167	10308
4.83233	10300
4.83300	10292
4.83367	10283
4.83433	10275
4.83500	10267
4.83567	10259
4.83633	10251
4.83700	10243
4.83767	10235
4.83833	10227
4.83900	10219
4.83967	10212
4.84033	10204
4.84100	10196
4.84167	10188
4.84233	10180
4.84300	10172
4.84367	10164
4.84433	10156
4.84500	10148
4.84567	10141
4.84633	10133
4.84700	10125
4.84767	10117
4.84833	10109
4.84900	10102
4.84967	10094
4.85033	10087
4.85100	10079
4.85167	10072
4.85233	10064
4.85300	10057
4.85367	10049
4.85433	10042
4.85500	10034
4.85567	10027
4.85633	10020
4.85700	10013
4.85767	10006
4.85833	9999
4.85900	9992
4.85967	9985
4.86033	9978
4.86100	9971
4.86167	9964
4.86233	9958
4.86300	9951
4.86367	9945
4.86433	9938
4.86500	9931
4.86567	9925
4.86633	9919
4.86700	9912
4.86767	9906
4.86833	9900
4.86900	9894
4.86967	9887
4.87033	9881
4.87100	9875
4.87167	9869
4.87233	9863
4.87300	9857
4.87367	9850
4.87433	9844
4.87500	9838
4.87567	9831
4.87633	9825
4.87700	9819
4.87767	9813
4.87833	9806
4.87900	9800
4.87967	9794
4.88033	9788
4.88100	9782
4.88167	9776
4.88233	9769
4.88300	9763
4.88367	9757
4.88433	9751
4.88500	9745
4.88567	9739
4.88633	9733
4.88700	9727
4.88767	9721
4.88833	9715
4.88900	9709
4.88967	9703
4.89033	9697
4.89100	9691
4.89167	9685
4.89233	9678
4.89300	9672
4.89367	9666
4.89433	9660
4.89500	9654
4.89567	9648
4.89633	9641
4.89700	9635
4.89767	9629
4.89833	9623
4.89900	9617
4.89967	9610
4.90033	9604
4.90100	9598
4.90167	9591
4.90233	9585
4.90300	9578
4.90367	9572
4.90433	9565
4.90500	9559
4.90567	9552
4.90633	9546
4.90700	9539
4.90767	9533
4.90833	9527
4.90900	9520
4.90967	9514
4.91033	9508
4.91100	9501
4.91167	9495
4.91233	9489
4.91300	9483
4.91367	9477
4.91433	9471
4.91500	9465
4.91567	9459
4.91633	9453
4.91700	9446
4.91767	9440
4.91833	9434
4.91900	9428
4.91967	9422
4.92033	9416
4.92100	9409
4.92167	9403
4.92233	9397
4.92300	9391
4.92367	9384
4.92433	9378
4.92500	9372
4.92567	9365
4.92633	9359
4.92700	9353
4.92767	9346
4.92833	9340
4.92900	9334
4.92967	9328
4.93033	9322
4.93100	9316
4.93167	9310
4.93233	9304
4.93300	9298
4.93367	9292
4.93433	9286
4.93500	9280
4.93567	9274
4.93633	9269
4.93700	9263
4.93767	9257
4.93833	9252
4.93900	9247
4.93967	9241
4.94033	9236
4.94100	9231
4.94167	9226
4.94233	9220
4.94300	9215
4.94367	9210
4.94433	9205
4.94500	9200
4.94567	9195
4.94633	9190
4.94700	9184
4.94767	9179
4.94833	9174
4.94900	9169
4.94967	9164
4.95033	9158
4.95100	9153
4.95167	9148
4.95233	9142
4.95300	9137
4.95367	9132
4.95433	9127
4.95500	9121
4.95567	9116
4.95633	9111
4.95700	9106
4.95767	9101
4.95833	9095
4.95900	9090
4.95967	9085
4.96033	9080
4.96100	9075
4.96167	9070
4.96233	9065
4.96300	9060
4.96367	9054
4.96433	9049
4.96500	9044
4.96567	9039
4.96633	9034
4.96700	9029
4.96767	9024
4.96833	9018
4.96900	9013
4.96967	9008
4.97033	9003
4.97100	8997
4.97167	8992
4.97233	8987
4.97300	8982
4.97367	8977
4.97433	8972
4.97500	8967
4.97567	8962
4.97633	8957
4.97700	8952
4.97767	8947
4.97833	8942
4.97900	8938
4.97967	8933
4.98033	8928
4.98100	8923
4.98167	8919
4.98233	8914
4.98300	8910
4.98367	8905
4.98433	8901
4.98500	8896
4.98567	8892
4.98633	8888
4.98700	8883
4.98767	8879
4.98833	8875
4.98900	8871
4.98967	8866
4.99033	8862
4.99100	8858
4.99167	8854
4.99233	8850
4.99300	8845
4.99367	8841
4.99433	8837
4.99500	8833
4.99567	8829
4.99633	8825
4.99700	8821
4.99767	8817
4.99833	8812
4.99900	8808
4.99967	8804
5.00033	8800
5.00100	8796
5.00167	8792
5.00233	8788
5.00300	8783
5.00367	8779
5.00433	8775
5.00500	8771
5.00567	8767
5.00633	8763
5.00700	8759
5.00767	8755
5.00833	8751
5.00900	8747
5.00967	8743
5.01033	8739
5.01100	8735
5.01167	8731
5.01233	8727
5.01300	8723
5.01367	8719
5.01433	8716
5.01500	8712
5.01567	8708
5.01633	8704
5.01700	8700
5.01767	8696
5.01833	8693
5.01900	8689
5.01967	8685
5.02033	8681
5.02100	8678
5.02167	8674
5.02233	8670
5.02300	8667
5.02367	8663
5.02433	8660
5.02500	8656
5.02567	8652
5.02633	8649
5.02700	8645
5.02767	8642
5.02833	8638
5.02900	8635
5.02967	8631
5.03033	8628
5.03100	8624
5.03167	8621
5.03233	8617
5.03300	8614
5.03367	8610
5.03433	8606
5.03500	8603
5.03567	8599
5.03633	8596
5.03700	8593
5.03767	8589
5.03833	8586
5.03900	8582
5.03967	8579
5.04033	8576
5.04100	8572
5.04167	8569
5.04233	8566
5.04300	8563
5.04367	8559
5.04433	8556
5.04500	8553
5.04567	8550
5.04633	8547
5.04700	8544
5.04767	8540
5.04833	8537
5.04900	8534
5.04967	8531
5.05033	8528
5.05100	8525
5.05167	8522
5.05233	8519
5.05300	8516
5.05367	8513
5.05433	8510
5.05500	8507
5.05567	8504
5.05633	8501
5.05700	8499
5.05767	8496
5.05833	8493
5.05900	8490
5.05967	8487
5.06033	8485
5.06100	8482
5.06167	8479
5.06233	8476
5.06300	8474
5.06367	8471
5.06433	8468
5.06500	8466
5.06567	8463
5.06633	8461
5.06700	8458
5.06767	8455
5.06833	8453
5.06900	8450
5.06967	8447
5.07033	8445
5.07100	8442
5.07167	8440
5.07233	8437
5.07300	8435
5.07367	8432
5.07433	8430
5.07500	8427
5.07567	8424
5.07633	8422
5.07700	8419
5.07767	8417
5.07833	8414
5.07900	8411
5.07967	8409
5.08033	8406
5.08100	8403
5.08167	8401
5.08233	8398
5.08300	8395
5.08367	8393
5.08433	8390
5.08500	8387
5.08567	8385
5.08633	8382
5.08700	8380
5.08767	8377
5.08833	8374
5.08900	8372
5.08967	8369
5.09033	8367
5.09100	8364
5.09167	8361
5.09233	8359
5.09300	8356
5.09367	8354
5.09433	8351
5.09500	8349
5.09567	8346
5.09633	8344
5.09700	8341
5.09767	8339
5.09833	8337
5.09900	8334
5.09967	8332
5.10033	8330
5.10100	8328
5.10167	8326
5.10233	8324
5.10300	8322
5.10367	8320
5.10433	8319
5.10500	8317
5.10567	8316
5.10633	8314
5.10700	8313
5.10767	8311
5.10833	8310
5.10900	8309
5.10967	8307
5.11033	8306
5.11100	8305
5.11167	8304
5.11233	8304
5.11300	8303
5.11367	8302
5.11433	8302
5.11500	8301
5.11567	8301
5.11633	8300
5.11700	8300
5.11767	8300
5.11833	8300
5.11900	8300
5.11967	8300
5.12033	8300
5.12100	8300
5.12167	8300
5.12233	8301
5.12300	8301
5.12367	8302
5.12433	8303
5.12500	8303
5.12567	8304
5.12633	8305
5.12700	8306
5.12767	8307
5.12833	8308
5.12900	8309
5.12967	8310
5.13033	8312
5.13100	8313
5.13167	8314
5.13233	8316
5.13300	8318
5.13367	8320
5.13433	8322
5.13500	8324
5.13567	8326
5.13633	8328
5.13700	8331
5.13767	8333
5.13833	8336
5.13900	8339
5.13967	8342
5.14033	8345
5.14100	8348
5.14167	8351
5.14233	8354
5.14300	8358
5.14367	8361
5.14433	8365
5.14500	8369
5.14567	8373
5.14633	8377
5.14700	8381
5.14767	8385
5.14833	8389
5.14900	8393
5.14967	8398
5.15033	8402
5.15100	8407
5.15167	8412
5.15233	8416
5.15300	8421
5.15367	8426
5.15433	8432
5.15500	8437
5.15567	8442
5.15633	8448
5.15700	8453
5.15767	8459
5.15833	8465
5.15900	8471
5.15967	8478
5.16033	8484
5.16100	8491
5.16167	8497
5.16233	8504
5.16300	8511
5.16367	8518
5.16433	8525
5.16500	8532
5.16567	8540
5.16633	8547
5.16700	8554
5.16767	8562
5.16833	8570
5.16900	8577
5.16967	8585
5.17033	8593
5.17100	8601
5.17167	8609
5.17233	8618
5.17300	8626
5.17367	8635
5.17433	8643
5.17500	8652
5.17567	8661
5.17633	8670
5.17700	8679
5.17767	8688
5.17833	8698
5.17900	8707
5.17967	8717
5.18033	8727
5.18100	8737
5.18167	8747
5.18233	8757
5.18300	8767
5.18367	8777
5.18433	8787
5.18500	8798
5.18567	8808
5.18633	8819
5.18700	8829
5.18767	8840
5.18833	8850
5.18900	8861
5.18967	8872
5.19033	8883
5.19100	8893
5.19167	8904
5.19233	8915
5.19300	8926
5.19367	8936
5.19433	8947
5.19500	8958
5.19567	8969
5.19633	8979
5.19700	8990
5.19767	9001
5.19833	9011
5.19900	9022
5.19967	9032
5.20033	9042
5.20100	9053
5.20167	9063
5.20233	9073
5.20300	9083
5.20367	9092
5.20433	9102
5.20500	9112
5.20567	9121
5.20633	9131
5.20700	9140
5.20767	9149
5.20833	9158
5.20900	9167
5.20967	9176
5.21033	9185
5.21100	9193
5.21167	9202
5.21233	9210
5.21300	9218
5.21367	9226
5.21433	9234
5.21500	9241
5.21567	9249
5.21633	9256
5.21700	9263
5.21767	9270
5.21833	9276
5.21900	9283
5.21967	9289
5.22033	9295
5.22100	9301
5.22167	9306
5.22233	9311
5.22300	9316
5.22367	9321
5.22433	9325
5.22500	9329
5.22567	9333
5.22633	9337
5.22700	9340
5.22767	9343
5.22833	9346
5.22900	9348
5.22967	9351
5.23033	9353
5.23100	9355
5.23167	9356
5.23233	9357
5.23300	9358
5.23367	9359
5.23433	9359
5.23500	9359
5.23567	9359
5.23633	9359
5.23700	9358
5.23767	9357
5.23833	9356
5.23900	9354
5.23967	9353
5.24033	9351
5.24100	9349
5.24167	9346
5.24233	9344
5.24300	9341
5.24367	9338
5.24433	9334
5.24500	9331
5.24567	9327
5.24633	9323
5.24700	9319
5.24767	9314
5.24833	9309
5.24900	9305
5.24967	9300
5.25033	9294
5.25100	9289
5.25167	9283
5.25233	9277
5.25300	9271
5.25367	9265
5.25433	9259
5.25500	9252
5.25567	9245
5.25633	9238
5.25700	9231
5.25767	9224
5.25833	9217
5.25900	9209
5.25967	9201
5.26033	9193
5.26100	9185
5.26167	9177
5.26233	9168
5.26300	9160
5.26367	9151
5.26433	9142
5.26500	9133
5.26567	9124
5.26633	9115
5.26700	9106
5.26767	9097
5.26833	9087
5.26900	9078
5.26967	9068
5.27033	9058
5.27100	9048
5.27167	9038
5.27233	9028
5.27300	9018
5.27367	9008
5.27433	8998
5.27500	8988
5.27567	8978
5.27633	8967
5.27700	8957
5.27767	8947
5.27833	8936
5.27900	8926
5.27967	8916
5.28033	8906
5.28100	8895
5.28167	8885
5.28233	8875
5.28300	8865
5.28367	8854
5.28433	8844
5.28500	8834
5.28567	8824
5.28633	8814
5.28700	8803
5.28767	8793
5.28833	8783
5.28900	8773
5.28967	8763
5.29033	8752
5.29100	8742
5.29167	8732
5.29233	8722
5.29300	8712
5.29367	8702
5.29433	8691
5.29500	8681
5.29567	8671
5.29633	8661
5.29700	8651
5.29767	8641
5.29833	8631
5.29900	8621
5.29967	8611
5.30033	8601
5.30100	8591
5.30167	8581
5.30233	8572
5.30300	8562
5.30367	8552
5.30433	8543
5.30500	8533
5.30567	8523
5.30633	8514
5.30700	8504
5.30767	8495
5.30833	8486
5.30900	8476
5.30967	8467
5.31033	8457
5.31100	8448
5.31167	8439
5.31233	8430
5.31300	8421
5.31367	8412
5.31433	8402
5.31500	8393
5.31567	8384
5.31633	8375
5.31700	8366
5.31767	8358
5.31833	8349
5.31900	8340
5.31967	8331
5.32033	8322
5.32100	8313
5.32167	8304
5.32233	8296
5.32300	8287
5.32367	8278
5.32433	8270
5.32500	8261
5.32567	8253
5.32633	8244
5.32700	8236
5.32767	8227
5.32833	8219
5.32900	8210
5.32967	8202
5.33033	8194
5.33100	8186
5.33167	8177
5.33233	8169
5.33300	8161
5.33367	8154
5.33433	8146
5.33500	8138
5.33567	8131
5.33633	8123
5.33700	8116
5.33767	8108
5.33833	8101
5.33900	8094
5.33967	8086
5.34033	8079
5.34100	8072
5.34167	8065
5.34233	8058
5.34300	8051
5.34367	8044
5.34433	8037
5.34500	8031
5.34567	8024
5.34633	8018
5.34700	8011
5.34767	8005
5.34833	7998
5.34900	7992
5.34967	7986
5.35033	7980
5.35100	7974
5.35167	7968
5.35233	7962
5.35300	7956
5.35367	7950
5.35433	7944
5.35500	7938
5.35567	7932
5.35633	7927
5.35700	7921
5.35767	7916
5.35833	7910
5.35900	7904
5.35967	7899
5.36033	7893
5.36100	7888
5.36167	7883
5.36233	7877
5.36300	7872
5.36367	7867
5.36433	7861
5.36500	7856
5.36567	7851
5.36633	7846
5.36700	7841
5.36767	7836
5.36833	7831
5.36900	7826
5.36967	7821
5.37033	7816
5.37100	7811
5.37167	7806
5.37233	7801
5.37300	7797
5.37367	7792
5.37433	7787
5.37500	7782
5.37567	7778
5.37633	7773
5.37700	7768
5.37767	7764
5.37833	7759
5.37900	7754
5.37967	7750
5.38033	7745
5.38100	7740
5.38167	7736
5.38233	7731
5.38300	7726
5.38367	7722
5.38433	7717
5.38500	7713
5.38567	7708
5.38633	7703
5.38700	7699
5.38767	7694
5.38833	7689
5.38900	7685
5.38967	7680
5.39033	7675
5.39100	7671
5.39167	7666
5.39233	7661
5.39300	7657
5.39367	7652
5.39433	7647
5.39500	7643
5.39567	7638
5.39633	7633
5.39700	7629
5.39767	7624
5.39833	7620
5.39900	7615
5.39967	7610
5.40033	7606
5.40100	7601
5.40167	7597
5.40233	7592
5.40300	7588
5.40367	7583
5.40433	7579
5.40500	7574
5.40567	7570
5.40633	7565
5.40700	7561
5.40767	7556
5.40833	7552
5.40900	7547
5.40967	7543
5.41033	7538
5.41100	7534
5.41167	7530
5.41233	7525
5.41300	7521
5.41367	7517
5.41433	7512
5.41500	7508
5.41567	7504
5.41633	7500
5.41700	7496
5.41767	7491
5.41833	7487
5.41900	7483
5.41967	7479
5.42033	7475
5.42100	7471
5.42167	7467
5.42233	7464
5.42300	7460
5.42367	7456
5.42433	7452
5.42500	7448
5.42567	7444
5.42633	7440
5.42700	7436
5.42767	7432
5.42833	7429
5.42900	7425
5.42967	7421
5.43033	7418
5.43100	7414
5.43167	7410
5.43233	7407
5.43300	7403
5.43367	7400
5.43433	7396
5.43500	7393
5.43567	7389
5.43633	7386
5.43700	7382
5.43767	7379
5.43833	7376
5.43900	7372
5.43967	7369
5.44033	7366
5.44100	7362
5.44167	7359
5.44233	7356
5.44300	7353
5.44367	7350
5.44433	7347
5.44500	7343
5.44567	7340
5.44633	7337
5.44700	7334
5.44767	7331
5.44833	7328
5.44900	7325
5.44967	7322
5.45033	7319
5.45100	7316
5.45167	7312
5.45233	7309
5.45300	7306
5.45367	7303
5.45433	7299
5.45500	7296
5.45567	7293
5.45633	7290
5.45700	7286
5.45767	7283
5.45833	7280
5.45900	7277
5.45967	7274
5.46033	7271
5.46100	7267
5.46167	7264
5.46233	7261
5.46300	7258
5.46367	7255
5.46433	7251
5.46500	7248
5.46567	7245
5.46633	7242
5.46700	7238
5.46767	7235
5.46833	7232
5.46900	7229
5.46967	7225
5.47033	7222
5.47100	7219
5.47167	7215
5.47233	7212
5.47300	7209
5.47367	7205
5.47433	7202
5.47500	7199
5.47567	7195
5.47633	7192
5.47700	7188
5.47767	7185
5.47833	7181
5.47900	7178
5.47967	7174
5.48033	7171
5.48100	7167
5.48167	7164
5.48233	7161
5.48300	7157
5.48367	7154
5.48433	7151
5.48500	7148
5.48567	7144
5.48633	7141
5.48700	7138
5.48767	7135
5.48833	7132
5.48900	7129
5.48967	7126
5.49033	7123
5.49100	7120
5.49167	7117
5.49233	7114
5.49300	7111
5.49367	7108
5.49433	7105
5.49500	7102
5.49567	7099
5.49633	7096
5.49700	7093
5.49767	7090
5.49833	7087
5.49900	7084
5.49967	7081
5.50033	7078
5.50100	7075
5.50167	7072
5.50233	7069
5.50300	7066
5.50367	7063
5.50433	7060
5.50500	7058
5.50567	7055
5.50633	7052
5.50700	7049
5.50767	7046
5.50833	7044
5.50900	7041
5.50967	7038
5.51033	7036
5.51100	7033
5.51167	7030
5.51233	7028
5.51300	7025
5.51367	7023
5.51433	7020
5.51500	7018
5.51567	7015
5.51633	7012
5.51700	7010
5.51767	7007
5.51833	7005
5.51900	7002
5.51967	7000
5.52033	6998
5.52100	6995
5.52167	6993
5.52233	6990
5.52300	6987
5.52367	6985
5.52433	6982
5.52500	6980
5.52567	6977
5.52633	6975
5.52700	6972
5.52767	6970
5.52833	6967
5.52900	6965
5.52967	6962
5.53033	6959
5.53100	6957
5.53167	6954
5.53233	6952
5.53300	6949
5.53367	6947
5.53433	6944
5.53500	6942
5.53567	6939
5.53633	6937
5.53700	6935
5.53767	6932
5.53833	6930
5.53900	6927
5.53967	6925
5.54033	6922
5.54100	6920
5.54167	6918
5.54233	6915
5.54300	6913
5.54367	6910
5.54433	6908
5.54500	6906
5.54567	6904
5.54633	6901
5.54700	6899
5.54767	6897
5.54833	6895
5.54900	6893
5.54967	6891
5.55033	6888
5.55100	6886
5.55167	6884
5.55233	6882
5.55300	6880
5.55367	6878
5.55433	6876
5.55500	6874
5.55567	6871
5.55633	6869
5.55700	6867
5.55767	6865
5.55833	6863
5.55900	6860
5.55967	6858
5.56033	6856
5.56100	6854
5.56167	6851
5.56233	6849
5.56300	6847
5.56367	6845
5.56433	6842
5.56500	6840
5.56567	6838
5.56633	6836
5.56700	6833
5.56767	6831
5.56833	6829
5.56900	6827
5.56967	6824
5.57033	6822
5.57100	6820
5.57167	6818
5.57233	6816
5.57300	6813
5.57367	6811
5.57433	6809
5.57500	6807
5.57567	6804
5.57633	6802
5.57700	6800
5.57767	6798
5.57833	6795
5.57900	6793
5.57967	6791
5.58033	6789
5.58100	6787
5.58167	6785
5.58233	6783
5.58300	6781
5.58367	6778
5.58433	6776
5.58500	6774
5.58567	6772
5.58633	6770
5.58700	6768
5.58767	6766
5.58833	6764
5.58900	6762
5.58967	6760
5.59033	6758
5.59100	6756
5.59167	6754
5.59233	6752
5.59300	6750
5.59367	6748
5.59433	6746
5.59500	6744
5.59567	6742
5.59633	6740
5.59700	6738
5.59767	6736
5.59833	6734
5.59900	6732
5.59967	6731
5.60033	6729
5.60100	6727
5.60167	6725
5.60233	6723
5.60300	6721
5.60367	6719
5.60433	6717
5.60500	6715
5.60567	6713
5.60633	6712
5.60700	6710
5.60767	6708
5.60833	6706
5.60900	6704
5.60967	6702
5.61033	6700
5.61100	6699
5.61167	6697
5.61233	6695
5.61300	6693
5.61367	6691
5.61433	6690
5.61500	6688
5.61567	6686
5.61633	6685
5.61700	6683
5.61767	6681
5.61833	6680
5.61900	6678
5.61967	6676
5.62033	6675
5.62100	6673
5.62167	6671
5.62233	6670
5.62300	6668
5.62367	6666
5.62433	6665
5.62500	6663
5.62567	6661
5.62633	6659
5.62700	6657
5.62767	6656
5.62833	6654
5.62900	6652
5.62967	6650
5.63033	6648
5.63100	6646
5.63167	6644
5.63233	6643
5.63300	6641
5.63367	6639
5.63433	6637
5.63500	6635
5.63567	6633
5.63633	6632
5.63700	6630
5.63767	6628
5.63833	6627
5.63900	6625
5.63967	6623
5.64033	6622
5.64100	6620
5.64167	6618
5.64233	6617
5.64300	6615
5.64367	6613
5.64433	6612
5.64500	6610
5.64567	6608
5.64633	6607
5.64700	6605
5.64767	6603
5.64833	6602
5.64900	6600
5.64967	6598
5.65033	6596
5.65100	6595
5.65167	6593
5.65233	6591
5.65300	6589
5.65367	6588
5.65433	6586
5.65500	6584
5.65567	6582
5.65633	6581
5.65700	6579
5.65767	6577
5.65833	6575
5.65900	6574
5.65967	6572
5.66033	6570
5.66100	6569
5.66167	6567
5.66233	6565
5.66300	6563
5.66367	6562
5.66433	6560
5.66500	6558
5.66567	6557
5.66633	6555
5.66700	6553
5.66767	6551
5.66833	6550
5.66900	6548
5.66967	6546
5.67033	6545
5.67100	6543
5.67167	6542
5.67233	6540
5.67300	6538
5.67367	6537
5.67433	6535
5.67500	6534
5.67567	6532
5.67633	6531
5.67700	6529
5.67767	6528
5.67833	6526
5.67900	6525
5.67967	6523
5.68033	6522
5.68100	6521
5.68167	6519
5.68233	6518
5.68300	6516
5.68367	6515
5.68433	6513
5.68500	6512
5.68567	6510
5.68633	6509
5.68700	6507
5.68767	6506
5.68833	6504
5.68900	6503
5.68967	6501
5.69033	6500
5.69100	6499
5.69167	6497
5.69233	6496
5.69300	6494
5.69367	6493
5.69433	6492
5.69500	6490
5.69567	6489
5.69633	6487
5.69700	6486
5.69767	6484
5.69833	6483
5.69900	6481
5.69967	6480
5.70033	6478
5.70100	6477
5.70167	6475
5.70233	6474
5.70300	6473
5.70367	6471
5.70433	6470
5.70500	6468
5.70567	6466
5.70633	6465
5.70700	6463
5.70767	6462
5.70833	6460
5.70900	6459
5.70967	6457
5.71033	6456
5.71100	6454
5.71167	6453
5.71233	6451
5.71300	6450
5.71367	6448
5.71433	6446
5.71500	6445
5.71567	6443
5.71633	6442
5.71700	6441
5.71767	6439
5.71833	6438
5.71900	6436
5.71967	6435
5.72033	6434
5.72100	6433
5.72167	6431
5.72233	6430
5.72300	6429
5.72367	6428
5.72433	6426
5.72500	6425
5.72567	6424
5.72633	6423
5.72700	6422
5.72767	6420
5.72833	6419
5.72900	6418
5.72967	6417
5.73033	6416
5.73100	6414
5.73167	6413
5.73233	6412
5.73300	6411
5.73367	6410
5.73433	6409
5.73500	6408
5.73567	6407
5.73633	6406
5.73700	6405
5.73767	6403
5.73833	6402
5.73900	6401
5.73967	6400
5.74033	6399
5.74100	6398
5.74167	6397
5.74233	6396
5.74300	6395
5.74367	6393
5.74433	6392
5.74500	6391
5.74567	6390
5.74633	6389
5.74700	6387
5.74767	6386
5.74833	6385
5.74900	6384
5.74967	6383
5.75033	6381
5.75100	6380
5.75167	6379
5.75233	6378
5.75300	6377
5.75367	6376
5.75433	6375
5.75500	6374
5.75567	6373
5.75633	6371
5.75700	6370
5.75767	6369
5.75833	6368
5.75900	6367
5.75967	6366
5.76033	6365
5.76100	6364
5.76167	6363
5.76233	6362
5.76300	6361
5.76367	6360
5.76433	6359
5.76500	6358
5.76567	6357
5.76633	6356
5.76700	6356
5.76767	6355
5.76833	6354
5.76900	6353
5.76967	6352
5.77033	6352
5.77100	6351
5.77167	6350
5.77233	6350
5.77300	6349
5.77367	6349
5.77433	6348
5.77500	6347
5.77567	6347
5.77633	6346
5.77700	6346
5.77767	6345
5.77833	6345
5.77900	6344
5.77967	6344
5.78033	6343
5.78100	6343
5.78167	6342
5.78233	6342
5.78300	6341
5.78367	6341
5.78433	6340
5.78500	6340
5.78567	6340
5.78633	6339
5.78700	6339
5.78767	6339
5.78833	6339
5.78900	6338
5.78967	6338
5.79033	6338
5.79100	6338
5.79167	6338
5.79233	6337
5.79300	6337
5.79367	6337
5.79433	6337
5.79500	6337
5.79567	6337
5.79633	6337
5.79700	6337
5.79767	6336
5.79833	6336
5.79900	6336
5.79967	6336
5.80033	6336
5.80100	6336
5.80167	6336
5.80233	6336
5.80300	6336
5.80367	6335
5.80433	6335
5.80500	6335
5.80567	6335
5.80633	6335
5.80700	6335
5.80767	6335
5.80833	6334
5.80900	6334
5.80967	6334
5.81033	6334
5.81100	6334
5.81167	6333
5.81233	6333
5.81300	6333
5.81367	6333
5.81433	6332
5.81500	6332
5.81567	6332
5.81633	6332
5.81700	6331
5.81767	6331
5.81833	6331
5.81900	6330
5.81967	6330
5.82033	6330
5.82100	6329
5.82167	6329
5.82233	6329
5.82300	6328
5.82367	6328
5.82433	6328
5.82500	6327
5.82567	6327
5.82633	6326
5.82700	6326
5.82767	6326
5.82833	6325
5.82900	6325
5.82967	6324
5.83033	6324
5.83100	6323
5.83167	6323
5.83233	6322
5.83300	6322
5.83367	6322
5.83433	6321
5.83500	6321
5.83567	6320
5.83633	6320
5.83700	6319
5.83767	6319
5.83833	6318
5.83900	6318
5.83967	6317
5.84033	6317
5.84100	6316
5.84167	6316
5.84233	6315
5.84300	6314
5.84367	6314
5.84433	6313
5.84500	6313
5.84567	6312
5.84633	6312
5.84700	6311
5.84767	6311
5.84833	6310
5.84900	6309
5.84967	6309
5.85033	6308
5.85100	6308
5.85167	6307
5.85233	6306
5.85300	6306
5.85367	6305
5.85433	6305
5.85500	6304
5.85567	6303
5.85633	6303
5.85700	6302
5.85767	6301
5.85833	6301
5.85900	6300
5.85967	6299
5.86033	6298
5.86100	6298
5.86167	6297
5.86233	6296
5.86300	6295
5.86367	6294
5.86433	6293
5.86500	6292
5.86567	6292
5.86633	6291
5.86700	6290
5.86767	6289
5.86833	6288
5.86900	6287
5.86967	6286
5.87033	6285
5.87100	6284
5.87167	6283
5.87233	6283
5.87300	6282
5.87367	6281
5.87433	6280
5.87500	6279
5.87567	6278
5.87633	6277
5.87700	6276
5.87767	6275
5.87833	6275
5.87900	6274
5.87967	6273
5.88033	6272
5.88100	6271
5.88167	6270
5.88233	6269
5.88300	6268
5.88367	6267
5.88433	6266
5.88500	6265
5.88567	6264
5.88633	6262
5.88700	6261
5.88767	6260
5.88833	6259
5.88900	6258
5.88967	6257
5.89033	6255
5.89100	6254
5.89167	6253
5.89233	6252
5.89300	6251
5.89367	6249
5.89433	6248
5.89500	6247
5.89567	6246
5.89633	6244
5.89700	6243
5.89767	6242
5.89833	6241
5.89900	6239
5.89967	6238
5.90033	6237
5.90100	6235
5.90167	6234
5.90233	6233
5.90300	6231
5.90367	6230
5.90433	6229
5.90500	6227
5.90567	6226
5.90633	6225
5.90700	6223
5.90767	6222
5.90833	6221
5.90900	6219
5.90967	6218
5.91033	6216
5.91100	6215
5.91167	6214
5.91233	6212
5.91300	6211
5.91367	6209
5.91433	6208
5.91500	6207
5.91567	6205
5.91633	6204
5.91700	6202
5.91767	6201
5.91833	6199
5.91900	6198
5.91967	6196
5.92033	6195
5.92100	6193
5.92167	6192
5.92233	6191
5.92300	6189
5.92367	6188
5.92433	6186
5.92500	6185
5.92567	6184
5.92633	6182
5.92700	6181
5.92767	6179
5.92833	6178
5.92900	6176
5.92967	6175
5.93033	6174
5.93100	6173
5.93167	6171
5.93233	6170
5.93300	6169
5.93367	6168
5.93433	6167
5.93500	6166
5.93567	6165
5.93633	6164
5.93700	6163
5.93767	6162
5.93833	6161
5.93900	6160
5.93967	6159
5.94033	6158
5.94100	6157
5.94167	6156
5.94233	6155
5.94300	6154
5.94367	6153
5.94433	6152
5.94500	6151
5.94567	6150
5.94633	6149
5.94700	6148
5.94767	6147
5.94833	6146
5.94900	6145
5.94967	6144
5.95033	6143
5.95100	6142
5.95167	6141
5.95233	6140
5.95300	6139
5.95367	6138
5.95433	6137
5.95500	6136
5.95567	6135
5.95633	6135
5.95700	6134
5.95767	6133
5.95833	6132
5.95900	6131
5.95967	6130
5.96033	6129
5.96100	6128
5.96167	6127
5.96233	6126
5.96300	6125
5.96367	6124
5.96433	6124
5.96500	6123
5.96567	6122
5.96633	6121
5.96700	6120
5.96767	6119
5.96833	6118
5.96900	6117
5.96967	6116
5.97033	6115
5.97100	6114
5.97167	6113
5.97233	6112
5.97300	6111
5.97367	6111
5.97433	6110
5.97500	6109
5.97567	6108
5.97633	6107
5.97700	6106
5.97767	6106
5.97833	6105
5.97900	6104
5.97967	6103
5.98033	6103
5.98100	6102
5.98167	6101
5.98233	6100
5.98300	6099
5.98367	6099
5.98433	6098
5.98500	6097
5.98567	6096
5.98633	6096
5.98700	6095
5.98767	6094
5.98833	6093
5.98900	6093
5.98967	6092
5.99033	6091
5.99100	6090
5.99167	6090
5.99233	6089
5.99300	6088
5.99367	6088
5.99433	6087
5.99500	6086
5.99567	6086
5.99633	6085
5.99700	6084
5.99767	6084
5.99833	6083
5.99900	6082
5.99967	6082
6.00033	6081
6.00100	6081
6.00167	6080
6.00233	6080
6.00300	6079
6.00367	6079
6.00433	6078
6.00500	6078
6.00567	6077
6.00633	6077
6.00700	6076
6.00767	6076
6.00833	6075
6.00900	6075
6.00967	6074
6.01033	6073
6.01100	6073
6.01167	6072
6.01233	6072
6.01300	6071
6.01367	6071
6.01433	6070
6.01500	6070
6.01567	6069
6.01633	6069
6.01700	6068
6.01767	6068
6.01833	6067
6.01900	6067
6.01967	6066
6.02033	6066
6.02100	6065
6.02167	6065
6.02233	6064
6.02300	6064
6.02367	6063
6.02433	6063
6.02500	6062
6.02567	6062
6.02633	6061
6.02700	6061
6.02767	6060
6.02833	6059
6.02900	6059
6.02967	6058
6.03033	6058
6.03100	6057
6.03167	6056
6.03233	6056
6.03300	6055
6.03367	6054
6.03433	6053
6.03500	6053
6.03567	6052
6.03633	6051
6.03700	6050
6.03767	6049
6.03833	6049
6.03900	6048
6.03967	6047
6.04033	6046
6.04100	6045
6.04167	6045
6.04233	6044
6.04300	6043
6.04367	6042
6.04433	6041
6.04500	6040
6.04567	6040
6.04633	6039
6.04700	6038
6.04767	6037
6.04833	6036
6.04900	6035
6.04967	6034
6.05033	6034
6.05100	6033
6.05167	6032
6.05233	6031
6.05300	6031
6.05367	6030
6.05433	6029
6.05500	6028
6.05567	6027
6.05633	6027
6.05700	6026
6.05767	6025
6.05833	6024
6.05900	6023
6.05967	6022
6.06033	6021
6.06100	6021
6.06167	6020
6.06233	6019
6.06300	6018
6.06367	6017
6.06433	6017
6.06500	6016
6.06567	6015
6.06633	6014
6.06700	6014
6.06767	6013
6.06833	6012
6.06900	6012
6.06967	6011
6.07033	6010
6.07100	6010
6.07167	6009
6.07233	6008
6.07300	6008
6.07367	6007
6.07433	6007
6.07500	6006
6.07567	6005
6.07633	6005
6.07700	6004
6.07767	6003
6.07833	6003
6.07900	6002
6.07967	6001
6.08033	6001
6.08100	6000
6.08167	5999
6.08233	5999
6.08300	5998
6.08367	5997
6.08433	5996
6.08500	5996
6.08567	5995
6.08633	5994
6.08700	5993
6.08767	5992
6.08833	5992
6.08900	5991
6.08967	5990
6.09033	5989
6.09100	5988
6.09167	5987
6.09233	5987
6.09300	5986
6.09367	5985
6.09433	5984
6.09500	5984
6.09567	5983
6.09633	5982
6.09700	5981
6.09767	5981
6.09833	5980
6.09900	5979
6.09967	5978
6.10033	5977
6.10100	5976
6.10167	5976
6.10233	5975
6.10300	5974
6.10367	5973
6.10433	5972
6.10500	5971
6.10567	5970
6.10633	5970
6.10700	5969
6.10767	5968
6.10833	5967
6.10900	5967
6.10967	5966
6.11033	5965
6.11100	5965
6.11167	5964
6.11233	5963
6.11300	5963
6.11367	5962
6.11433	5961
6.11500	5961
6.11567	5960
6.11633	5960
6.11700	5959
6.11767	5958
6.11833	5958
6.11900	5957
6.11967	5957
6.12033	5956
6.12100	5955
6.12167	5955
6.12233	5954
6.12300	5953
6.12367	5953
6.12433	5952
6.12500	5952
6.12567	5951
6.12633	5951
6.12700	5950
6.12767	5949
6.12833	5949
6.12900	5948
6.12967	5948
6.13033	5947
6.13100	5946
6.13167	5946
6.13233	5945
6.13300	5944
6.13367	5944
6.13433	5943
6.13500	5943
6.13567	5942
6.13633	5941
6.13700	5941
6.13767	5940
6.13833	5940
6.13900	5939
6.13967	5938
6.14033	5937
6.14100	5937
6.14167	5936
6.14233	5935
6.14300	5934
6.14367	5933
6.14433	5933
6.14500	5932
6.14567	5931
6.14633	5930
6.14700	5929
6.14767	5929
6.14833	5928
6.14900	5927
6.14967	5926
6.15033	5925
6.15100	5925
6.15167	5924
6.15233	5923
6.15300	5923
6.15367	5922
6.15433	5921
6.15500	5921
6.15567	5920
6.15633	5919
6.15700	5918
6.15767	5918
6.15833	5917
6.15900	5916
6.15967	5915
6.16033	5915
6.16100	5914
6.16167	5913
6.16233	5912
6.16300	5911
6.16367	5910
6.16433	5910
6.16500	5909
6.16567	5908
6.16633	5908
6.16700	5907
6.16767	5906
6.16833	5905
6.16900	5905
6.16967	5904
6.17033	5904
6.17100	5903
6.17167	5902
6.17233	5902
6.17300	5901
6.17367	5900
6.17433	5900
6.17500	5899
6.17567	5899
6.17633	5898
6.17700	5898
6.17767	5897
6.17833	5897
6.17900	5896
6.17967	5896
6.18033	5895
6.18100	5895
6.18167	5894
6.18233	5894
6.18300	5894
6.18367	5893
6.18433	5893
6.18500	5892
6.18567	5892
6.18633	5892
6.18700	5891
6.18767	5891
6.18833	5891
6.18900	5890
6.18967	5890
6.19033	5890
6.19100	5890
6.19167	5889
6.19233	5889
6.19300	5889
6.19367	5888
6.19433	5888
6.19500	5888
6.19567	5888
6.19633	5887
6.19700	5887
6.19767	5887
6.19833	5887
6.19900	5887
6.19967	5886
6.20033	5886
6.20100	5886
6.20167	5886
6.20233	5886
6.20300	5886
6.20367	5886
6.20433	5886
6.20500	5886
6.20567	5886
6.20633	5886
6.20700	5886
6.20767	5885
6.20833	5885
6.20900	5885
6.20967	5885
6.21033	5885
6.21100	5886
6.21167	5886
6.21233	5886
6.21300	5886
6.21367	5886
6.21433	5886
6.21500	5886
6.21567	5886
6.21633	5886
6.21700	5886
6.21767	5886
6.21833	5887
6.21900	5887
6.21967	5887
6.22033	5887
6.22100	5887
6.22167	5887
6.22233	5887
6.22300	5887
6.22367	5887
6.22433	5888
6.22500	5888
6.22567	5888
6.22633	5888
6.22700	5888
6.22767	5888
6.22833	5888
6.22900	5889
6.22967	5889
6.23033	5889
6.23100	5889
6.23167	5889
6.23233	5890
6.23300	5890
6.23367	5890
6.23433	5890
6.23500	5891
6.23567	5891
6.23633	5891
6.23700	5891
6.23767	5892
6.23833	5892
6.23900	5892
6.23967	5892
6.24033	5893
6.24100	5893
6.24167	5893
6.24233	5894
6.24300	5894
6.24367	5894
6.24433	5895
6.24500	5895
6.24567	5895
6.24633	5896
6.24700	5896
6.24767	5896
6.24833	5897
6.24900	5897
6.24967	5898
6.25033	5898
6.25100	5899
6.25167	5899
6.25233	5900
6.25300	5900
6.25367	5901
6.25433	5901
6.25500	5902
6.25567	5902
6.25633	5903
6.25700	5903
6.25767	5904
6.25833	5904
6.25900	5905
6.25967	5905
6.26033	5905
6.26100	5906
6.26167	5906
6.26233	5907
6.26300	5907
6.26367	5907
6.26433	5908
6.26500	5908
6.26567	5908
6.26633	5908
6.26700	5909
6.26767	5909
6.26833	5909
6.26900	5909
6.26967	5909
6.27033	5909
6.27100	5910
6.27167	5910
6.27233	5910
6.27300	5910
6.27367	5910
6.27433	5910
6.27500	5911
6.27567	5911
6.27633	5911
6.27700	5912
6.27767	5912
6.27833	5912
6.27900	5913
6.27967	5913
6.28033	5913
6.28100	5913
6.28167	5914
6.28233	5914
6.28300	5914
6.28367	5915
6.28433	5915
6.28500	5915
6.28567	5916
6.28633	5916
6.28700	5916
6.28767	5917
6.28833	5917
6.28900	5917
6.28967	5917
6.29033	5918
6.29100	5918
6.29167	5918
6.29233	5918
6.29300	5919
6.29367	5919
6.29433	5919
6.29500	5919
6.29567	5919
6.29633	5919
6.29700	5919
6.29767	5919
6.29833	5919
6.29900	5919
6.29967	5919
6.30033	5919
6.30100	5919
6.30167	5919
6.30233	5919
6.30300	5919
6.30367	5919
6.30433	5919
6.30500	5919
6.30567	5919
6.30633	5919
6.30700	5919
6.30767	5919
6.30833	5918
6.30900	5918
6.30967	5918
6.31033	5918
6.31100	5918
6.31167	5917
6.31233	5917
6.31300	5917
6.31367	5916
6.31433	5916
6.31500	5916
6.31567	5915
6.31633	5915
6.31700	5914
6.31767	5914
6.31833	5913
6.31900	5913
6.31967	5912
6.32033	5912
6.32100	5911
6.32167	5911
6.32233	5910
6.32300	5910
6.32367	5909
6.32433	5909
6.32500	5908
6.32567	5908
6.32633	5907
6.32700	5907
6.32767	5906
6.32833	5905
6.32900	5905
6.32967	5904
6.33033	5904
6.33100	5903
6.33167	5903
6.33233	5902
6.33300	5901
6.33367	5901
6.33433	5900
6.33500	5900
6.33567	5899
6.33633	5898
6.33700	5898
6.33767	5897
6.33833	5897
6.33900	5896
6.33967	5895
6.34033	5895
6.34100	5894
6.34167	5893
6.34233	5893
6.34300	5892
6.34367	5892
6.34433	5891
6.34500	5890
6.34567	5890
6.34633	5889
6.34700	5889
6.34767	5888
6.34833	5887
6.34900	5886
6.34967	5886
6.35033	5885
6.35100	5884
6.35167	5884
6.35233	5883
6.35300	5882
6.35367	5882
6.35433	5881
6.35500	5880
6.35567	5879
6.35633	5879
6.35700	5878
6.35767	5877
6.35833	5876
6.35900	5876
6.35967	5875
6.36033	5874
6.36100	5873
6.36167	5873
6.36233	5872
6.36300	5871
6.36367	5871
6.36433	5870
6.36500	5869
6.36567	5869
6.36633	5868
6.36700	5867
6.36767	5866
6.36833	5866
6.36900	5865
6.36967	5865
6.37033	5864
6.37100	5863
6.37167	5863
6.37233	5862
6.37300	5862
6.37367	5861
6.37433	5861
6.37500	5860
6.37567	5860
6.37633	5859
6.37700	5859
6.37767	5858
6.37833	5857
6.37900	5857
6.37967	5856
6.38033	5856
6.38100	5855
6.38167	5855
6.38233	5854
6.38300	5853
6.38367	5853
6.38433	5852
6.38500	5852
6.38567	5851
6.38633	5851
6.38700	5850
6.38767	5850
6.38833	5849
6.38900	5849
6.38967	5848
6.39033	5848
6.39100	5847
6.39167	5847
6.39233	5846
6.39300	5846
6.39367	5845
6.39433	5845
6.39500	5845
6.39567	5844
6.39633	5844
6.39700	5844
6.39767	5843
6.39833	5843
6.39900	5843
6.39967	5843

