[Header]
Application Name	LabSolutions
Version	5.73
Data File Name	C:\LabSolutions\Data\Project1\stephen\2016-01-06\62.gcd
Output Date	1/11/2016
Output Time	1:19:52 PM

[Configuration]
Instrument Name	WEISSTA-PC-Instrument1
Instrument #	1
Line #	1
# of Detectors	1
Detector ID	DET#2
Detector Name	DFID1
# of Channels	1

[Chromatogram (Ch1)]
Interval(msec)	40
# of Points	9600
Start Time(min)	0.000
End Time(min)	6.399
R.Time (min)	Intensity
0.00000	5
0.00067	5
0.00133	6
0.00200	6
0.00267	6
0.00333	6
0.00400	6
0.00467	6
0.00533	6
0.00600	6
0.00667	7
0.00733	7
0.00800	7
0.00867	7
0.00933	7
0.01000	6
0.01067	6
0.01133	5
0.01200	5
0.01267	4
0.01333	3
0.01400	1
0.01467	-0
0.01533	-2
0.01600	-4
0.01667	-6
0.01733	-8
0.01800	-11
0.01867	-14
0.01933	-17
0.02000	-20
0.02067	-23
0.02133	-26
0.02200	-29
0.02267	-33
0.02333	-36
0.02400	-40
0.02467	-43
0.02533	-46
0.02600	-50
0.02667	-53
0.02733	-56
0.02800	-59
0.02867	-62
0.02933	-65
0.03000	-68
0.03067	-71
0.03133	-73
0.03200	-76
0.03267	-78
0.03333	-80
0.03400	-82
0.03467	-85
0.03533	-86
0.03600	-88
0.03667	-90
0.03733	-92
0.03800	-93
0.03867	-95
0.03933	-96
0.04000	-97
0.04067	-99
0.04133	-100
0.04200	-101
0.04267	-102
0.04333	-103
0.04400	-104
0.04467	-104
0.04533	-105
0.04600	-106
0.04667	-107
0.04733	-107
0.04800	-108
0.04867	-108
0.04933	-109
0.05000	-109
0.05067	-109
0.05133	-109
0.05200	-110
0.05267	-110
0.05333	-110
0.05400	-110
0.05467	-110
0.05533	-110
0.05600	-110
0.05667	-110
0.05733	-109
0.05800	-109
0.05867	-109
0.05933	-109
0.06000	-108
0.06067	-108
0.06133	-108
0.06200	-107
0.06267	-107
0.06333	-106
0.06400	-106
0.06467	-106
0.06533	-105
0.06600	-105
0.06667	-104
0.06733	-104
0.06800	-103
0.06867	-103
0.06933	-102
0.07000	-102
0.07067	-101
0.07133	-101
0.07200	-100
0.07267	-99
0.07333	-99
0.07400	-98
0.07467	-97
0.07533	-96
0.07600	-96
0.07667	-95
0.07733	-94
0.07800	-94
0.07867	-93
0.07933	-92
0.08000	-92
0.08067	-91
0.08133	-90
0.08200	-89
0.08267	-89
0.08333	-88
0.08400	-87
0.08467	-86
0.08533	-86
0.08600	-85
0.08667	-84
0.08733	-83
0.08800	-81
0.08867	-76
0.08933	-68
0.09000	-56
0.09067	-26
0.09133	32
0.09200	125
0.09267	246
0.09333	385
0.09400	549
0.09467	779
0.09533	1084
0.09600	1408
0.09667	1757
0.09733	2124
0.09800	2507
0.09867	2895
0.09933	3293
0.10000	3708
0.10067	4146
0.10133	4685
0.10200	5256
0.10267	5863
0.10333	6502
0.10400	7161
0.10467	7818
0.10533	8484
0.10600	9190
0.10667	9936
0.10733	10712
0.10800	11517
0.10867	12327
0.10933	13182
0.11000	14022
0.11067	14850
0.11133	15692
0.11200	16500
0.11267	17260
0.11333	18040
0.11400	18823
0.11467	19561
0.11533	20297
0.11600	20994
0.11667	21648
0.11733	22285
0.11800	22877
0.11867	23457
0.11933	24013
0.12000	24532
0.12067	25013
0.12133	25484
0.12200	25932
0.12267	26399
0.12333	26837
0.12400	27230
0.12467	27647
0.12533	28071
0.12600	28492
0.12667	28858
0.12733	29169
0.12800	29485
0.12867	29817
0.12933	30215
0.13000	30614
0.13067	30951
0.13133	31254
0.13200	31513
0.13267	31720
0.13333	31879
0.13400	32049
0.13467	32332
0.13533	32964
0.13600	34703
0.13667	39193
0.13733	49501
0.13800	70888
0.13867	111266
0.13933	182074
0.14000	297726
0.14067	475555
0.14133	733509
0.14200	1089631
0.14267	1560269
0.14333	2160658
0.14400	2904319
0.14467	3804252
0.14533	4871868
0.14600	6118210
0.14667	7551583
0.14733	9179254
0.14800	11006521
0.14867	13038018
0.14933	15277467
0.15000	17726785
0.15067	20384836
0.15133	23243830
0.15200	26297653
0.15267	29554577
0.15333	33028367
0.15400	36722297
0.15467	40627340
0.15533	44726042
0.15600	48996235
0.15667	53414411
0.15733	57956543
0.15800	62599646
0.15867	67321647
0.15933	72101889
0.16000	76921293
0.16067	81761988
0.16133	86606189
0.16200	91437431
0.16267	96239999
0.16333	100999384
0.16400	105701073
0.16467	110331132
0.16533	114875970
0.16600	119322511
0.16667	123658077
0.16733	127870383
0.16800	131947857
0.16867	135879509
0.16933	139655698
0.17000	143268171
0.17067	146710152
0.17133	149976097
0.17200	153061975
0.17267	155964738
0.17333	158682486
0.17400	161213891
0.17467	163558670
0.17533	165717221
0.17600	167691490
0.17667	169484067
0.17733	171097329
0.17800	172532769
0.17867	173791696
0.17933	174875422
0.18000	175785981
0.18067	176525993
0.18133	177098831
0.18200	177508190
0.18267	177758076
0.18333	177852795
0.18400	177796803
0.18467	177594752
0.18533	177251467
0.18600	176772047
0.18667	176161613
0.18733	175425402
0.18800	174568654
0.18867	173596793
0.18933	172515205
0.19000	171329400
0.19067	170044825
0.19133	168667039
0.19200	167201475
0.19267	165653615
0.19333	164028692
0.19400	162331955
0.19467	160568556
0.19533	158743582
0.19600	156862010
0.19667	154928741
0.19733	152948554
0.19800	150926086
0.19867	148865800
0.19933	146771955
0.20000	144648628
0.20067	142499707
0.20133	140328945
0.20200	138139970
0.20267	135936393
0.20333	133721882
0.20400	131500140
0.20467	129274593
0.20533	127048097
0.20600	124822910
0.20667	122600918
0.20733	120383774
0.20800	118173077
0.20867	115970384
0.20933	113777274
0.21000	111595263
0.21067	109425869
0.21133	107270579
0.21200	105130833
0.21267	103007996
0.21333	100903365
0.21400	98818158
0.21467	96753518
0.21533	94710505
0.21600	92690097
0.21667	90693194
0.21733	88720612
0.21800	86773096
0.21867	84851311
0.21933	82955860
0.22000	81087273
0.22067	79246017
0.22133	77432501
0.22200	75647079
0.22267	73890054
0.22333	72161682
0.22400	70462169
0.22467	68791678
0.22533	67150330
0.22600	65538202
0.22667	63955338
0.22733	62401741
0.22800	60877382
0.22867	59382197
0.22933	57916095
0.23000	56478955
0.23067	55070624
0.23133	53690925
0.23200	52339650
0.23267	51016568
0.23333	49721425
0.23400	48453942
0.23467	47213824
0.23533	46000752
0.23600	44814397
0.23667	43654412
0.23733	42520442
0.23800	41412120
0.23867	40329070
0.23933	39270908
0.24000	38237246
0.24067	37227690
0.24133	36241843
0.24200	35279303
0.24267	34339668
0.24333	33422533
0.24400	32527494
0.24467	31654144
0.24533	30802080
0.24600	29970897
0.24667	29160193
0.24733	28369568
0.24800	27598624
0.24867	26846965
0.24933	26114200
0.25000	25399941
0.25067	24703801
0.25133	24025400
0.25200	23364362
0.25267	22720317
0.25333	22092895
0.25400	21481735
0.25467	20886479
0.25533	20306774
0.25600	19742273
0.25667	19192634
0.25733	18657518
0.25800	18136596
0.25867	17629540
0.25933	17136028
0.26000	16655745
0.26067	16188380
0.26133	15733638
0.26200	15291242
0.26267	14860931
0.26333	14442445
0.26400	14035518
0.26467	13639867
0.26533	13255202
0.26600	12881230
0.26667	12517660
0.26733	12164207
0.26800	11820594
0.26867	11486554
0.26933	11161830
0.27000	10846174
0.27067	10539345
0.27133	10241108
0.27200	9951237
0.27267	9669512
0.27333	9395717
0.27400	9129643
0.27467	8871085
0.27533	8619844
0.27600	8375728
0.27667	8138547
0.27733	7908116
0.27800	7684255
0.27867	7466786
0.27933	7255537
0.28000	7050342
0.28067	6851034
0.28133	6657456
0.28200	6469451
0.28267	6286867
0.28333	6109556
0.28400	5937373
0.28467	5770176
0.28533	5607828
0.28600	5450195
0.28667	5297147
0.28733	5148556
0.28800	5004299
0.28867	4864254
0.28933	4728303
0.29000	4596332
0.29067	4468229
0.29133	4343884
0.29200	4223190
0.29267	4106045
0.29333	3992348
0.29400	3882000
0.29467	3774907
0.29533	3670976
0.29600	3570116
0.29667	3472238
0.29733	3377258
0.29800	3285091
0.29867	3195657
0.29933	3108876
0.30000	3024672
0.30067	2942971
0.30133	2863698
0.30200	2786784
0.30267	2712160
0.30333	2639759
0.30400	2569517
0.30467	2501369
0.30533	2435256
0.30600	2371117
0.30667	2308894
0.30733	2248531
0.30800	2189974
0.30867	2133168
0.30933	2078063
0.31000	2024608
0.31067	1972755
0.31133	1922457
0.31200	1873669
0.31267	1826345
0.31333	1780443
0.31400	1735920
0.31467	1692738
0.31533	1650855
0.31600	1610235
0.31667	1570840
0.31733	1532633
0.31800	1495582
0.31867	1459651
0.31933	1424809
0.32000	1391024
0.32067	1358266
0.32133	1326506
0.32200	1295718
0.32267	1265875
0.32333	1236952
0.32400	1208927
0.32467	1181776
0.32533	1155480
0.32600	1130021
0.32667	1105381
0.32733	1081546
0.32800	1058500
0.32867	1036231
0.32933	1014728
0.33000	993979
0.33067	973974
0.33133	954704
0.33200	936160
0.33267	918334
0.33333	901221
0.33400	884813
0.33467	869106
0.33533	854095
0.33600	839779
0.33667	826153
0.33733	813216
0.33800	800964
0.33867	789394
0.33933	778499
0.34000	768276
0.34067	758716
0.34133	749812
0.34200	741556
0.34267	733938
0.34333	726947
0.34400	720571
0.34467	714796
0.34533	709606
0.34600	704986
0.34667	700916
0.34733	697377
0.34800	694348
0.34867	691807
0.34933	689732
0.35000	688100
0.35067	686889
0.35133	686074
0.35200	685633
0.35267	685539
0.35333	685769
0.35400	686300
0.35467	687107
0.35533	688168
0.35600	689459
0.35667	690961
0.35733	692652
0.35800	694513
0.35867	696526
0.35933	698674
0.36000	700940
0.36067	703313
0.36133	705778
0.36200	708324
0.36267	710942
0.36333	713623
0.36400	716361
0.36467	719150
0.36533	721985
0.36600	724861
0.36667	727776
0.36733	730728
0.36800	733715
0.36867	736730
0.36933	739771
0.37000	742833
0.37067	745913
0.37133	749007
0.37200	752114
0.37267	755230
0.37333	758356
0.37400	761490
0.37467	764634
0.37533	767786
0.37600	770948
0.37667	774121
0.37733	777304
0.37800	780498
0.37867	783703
0.37933	786919
0.38000	790144
0.38067	793378
0.38133	796621
0.38200	799870
0.38267	803127
0.38333	806391
0.38400	809663
0.38467	812946
0.38533	816240
0.38600	819553
0.38667	822887
0.38733	826250
0.38800	829648
0.38867	833088
0.38933	836575
0.39000	840111
0.39067	843697
0.39133	847328
0.39200	851002
0.39267	854711
0.39333	858450
0.39400	862213
0.39467	865992
0.39533	869779
0.39600	873568
0.39667	877349
0.39733	881117
0.39800	884864
0.39867	888585
0.39933	892274
0.40000	895926
0.40067	899538
0.40133	903106
0.40200	906627
0.40267	910098
0.40333	913514
0.40400	916871
0.40467	920158
0.40533	923365
0.40600	926477
0.40667	929479
0.40733	932352
0.40800	935075
0.40867	937628
0.40933	939988
0.41000	942136
0.41067	944049
0.41133	945707
0.41200	947088
0.41267	948171
0.41333	948933
0.41400	949350
0.41467	949396
0.41533	949047
0.41600	948276
0.41667	947059
0.41733	945372
0.41800	943189
0.41867	940491
0.41933	937260
0.42000	933483
0.42067	929149
0.42133	924255
0.42200	918802
0.42267	912801
0.42333	906263
0.42400	899210
0.42467	891663
0.42533	883648
0.42600	875195
0.42667	866332
0.42733	857090
0.42800	847499
0.42867	837590
0.42933	827394
0.43000	816938
0.43067	806251
0.43133	795361
0.43200	784294
0.43267	773074
0.43333	761726
0.43400	750272
0.43467	738734
0.43533	727131
0.43600	715483
0.43667	703808
0.43733	692123
0.43800	680442
0.43867	668782
0.43933	657154
0.44000	645574
0.44067	634052
0.44133	622599
0.44200	611226
0.44267	599942
0.44333	588755
0.44400	577674
0.44467	566705
0.44533	555854
0.44600	545127
0.44667	534528
0.44733	524063
0.44800	513736
0.44867	503549
0.44933	493507
0.45000	483614
0.45067	473871
0.45133	464281
0.45200	454848
0.45267	445571
0.45333	436454
0.45400	427498
0.45467	418702
0.45533	410068
0.45600	401597
0.45667	393287
0.45733	385139
0.45800	377152
0.45867	369327
0.45933	361662
0.46000	354157
0.46067	346810
0.46133	339621
0.46200	332589
0.46267	325712
0.46333	318990
0.46400	312422
0.46467	306005
0.46533	299741
0.46600	293627
0.46667	287662
0.46733	281846
0.46800	276178
0.46867	270657
0.46933	265282
0.47000	260053
0.47067	254968
0.47133	250024
0.47200	245218
0.47267	240547
0.47333	236007
0.47400	231595
0.47467	227308
0.47533	223142
0.47600	219096
0.47667	215165
0.47733	211345
0.47800	207635
0.47867	204030
0.47933	200528
0.48000	197126
0.48067	193820
0.48133	190608
0.48200	187486
0.48267	184452
0.48333	181504
0.48400	178639
0.48467	175854
0.48533	173147
0.48600	170515
0.48667	167957
0.48733	165469
0.48800	163051
0.48867	160699
0.48933	158412
0.49000	156187
0.49067	154023
0.49133	151918
0.49200	149869
0.49267	147876
0.49333	145935
0.49400	144045
0.49467	142205
0.49533	140413
0.49600	138666
0.49667	136964
0.49733	135304
0.49800	133686
0.49867	132107
0.49933	130567
0.50000	129064
0.50067	127597
0.50133	126165
0.50200	124766
0.50267	123400
0.50333	122066
0.50400	120762
0.50467	119487
0.50533	118241
0.50600	117022
0.50667	115830
0.50733	114663
0.50800	113521
0.50867	112403
0.50933	111308
0.51000	110235
0.51067	109183
0.51133	108153
0.51200	107142
0.51267	106151
0.51333	105179
0.51400	104225
0.51467	103288
0.51533	102369
0.51600	101466
0.51667	100578
0.51733	99707
0.51800	98850
0.51867	98008
0.51933	97180
0.52000	96366
0.52067	95565
0.52133	94777
0.52200	94001
0.52267	93237
0.52333	92485
0.52400	91744
0.52467	91015
0.52533	90296
0.52600	89587
0.52667	88889
0.52733	88201
0.52800	87522
0.52867	86852
0.52933	86192
0.53000	85540
0.53067	84897
0.53133	84263
0.53200	83636
0.53267	83018
0.53333	82407
0.53400	81804
0.53467	81208
0.53533	80620
0.53600	80038
0.53667	79463
0.53733	78895
0.53800	78334
0.53867	77779
0.53933	77230
0.54000	76687
0.54067	76151
0.54133	75620
0.54200	75095
0.54267	74576
0.54333	74062
0.54400	73554
0.54467	73051
0.54533	72554
0.54600	72061
0.54667	71574
0.54733	71092
0.54800	70615
0.54867	70143
0.54933	69676
0.55000	69214
0.55067	68756
0.55133	68304
0.55200	67856
0.55267	67414
0.55333	66976
0.55400	66543
0.55467	66114
0.55533	65691
0.55600	65272
0.55667	64858
0.55733	64449
0.55800	64044
0.55867	63644
0.55933	63248
0.56000	62857
0.56067	62470
0.56133	62087
0.56200	61708
0.56267	61334
0.56333	60963
0.56400	60596
0.56467	60233
0.56533	59873
0.56600	59516
0.56667	59163
0.56733	58813
0.56800	58466
0.56867	58122
0.56933	57781
0.57000	57443
0.57067	57107
0.57133	56774
0.57200	56444
0.57267	56117
0.57333	55792
0.57400	55469
0.57467	55150
0.57533	54832
0.57600	54517
0.57667	54204
0.57733	53894
0.57800	53586
0.57867	53281
0.57933	52978
0.58000	52677
0.58067	52378
0.58133	52081
0.58200	51786
0.58267	51494
0.58333	51203
0.58400	50915
0.58467	50629
0.58533	50344
0.58600	50062
0.58667	49782
0.58733	49503
0.58800	49227
0.58867	48952
0.58933	48680
0.59000	48409
0.59067	48140
0.59133	47874
0.59200	47609
0.59267	47346
0.59333	47086
0.59400	46827
0.59467	46570
0.59533	46316
0.59600	46063
0.59667	45813
0.59733	45564
0.59800	45317
0.59867	45073
0.59933	44830
0.60000	44589
0.60067	44350
0.60133	44113
0.60200	43878
0.60267	43645
0.60333	43413
0.60400	43184
0.60467	42956
0.60533	42731
0.60600	42507
0.60667	42285
0.60733	42066
0.60800	41848
0.60867	41632
0.60933	41418
0.61000	41205
0.61067	40995
0.61133	40787
0.61200	40581
0.61267	40376
0.61333	40174
0.61400	39974
0.61467	39776
0.61533	39579
0.61600	39385
0.61667	39193
0.61733	39003
0.61800	38814
0.61867	38628
0.61933	38444
0.62000	38261
0.62067	38080
0.62133	37901
0.62200	37724
0.62267	37548
0.62333	37374
0.62400	37201
0.62467	37030
0.62533	36861
0.62600	36693
0.62667	36526
0.62733	36361
0.62800	36196
0.62867	36034
0.62933	35872
0.63000	35712
0.63067	35553
0.63133	35395
0.63200	35238
0.63267	35082
0.63333	34927
0.63400	34774
0.63467	34622
0.63533	34471
0.63600	34321
0.63667	34172
0.63733	34025
0.63800	33878
0.63867	33733
0.63933	33589
0.64000	33447
0.64067	33306
0.64133	33165
0.64200	33027
0.64267	32889
0.64333	32753
0.64400	32617
0.64467	32484
0.64533	32351
0.64600	32219
0.64667	32089
0.64733	31960
0.64800	31832
0.64867	31705
0.64933	31579
0.65000	31454
0.65067	31331
0.65133	31208
0.65200	31086
0.65267	30965
0.65333	30845
0.65400	30726
0.65467	30607
0.65533	30489
0.65600	30372
0.65667	30256
0.65733	30140
0.65800	30025
0.65867	29910
0.65933	29796
0.66000	29682
0.66067	29569
0.66133	29457
0.66200	29345
0.66267	29233
0.66333	29122
0.66400	29012
0.66467	28901
0.66533	28791
0.66600	28682
0.66667	28573
0.66733	28465
0.66800	28357
0.66867	28250
0.66933	28142
0.67000	28036
0.67067	27929
0.67133	27824
0.67200	27718
0.67267	27613
0.67333	27509
0.67400	27405
0.67467	27302
0.67533	27199
0.67600	27097
0.67667	26995
0.67733	26894
0.67800	26794
0.67867	26695
0.67933	26597
0.68000	26499
0.68067	26403
0.68133	26308
0.68200	26214
0.68267	26121
0.68333	26030
0.68400	25940
0.68467	25853
0.68533	25767
0.68600	25684
0.68667	25602
0.68733	25523
0.68800	25447
0.68867	25374
0.68933	25304
0.69000	25237
0.69067	25174
0.69133	25115
0.69200	25059
0.69267	25008
0.69333	24961
0.69400	24919
0.69467	24881
0.69533	24848
0.69600	24820
0.69667	24796
0.69733	24777
0.69800	24763
0.69867	24753
0.69933	24747
0.70000	24745
0.70067	24747
0.70133	24751
0.70200	24759
0.70267	24768
0.70333	24780
0.70400	24792
0.70467	24806
0.70533	24819
0.70600	24832
0.70667	24844
0.70733	24854
0.70800	24862
0.70867	24868
0.70933	24871
0.71000	24871
0.71067	24868
0.71133	24860
0.71200	24849
0.71267	24834
0.71333	24815
0.71400	24791
0.71467	24763
0.71533	24731
0.71600	24695
0.71667	24655
0.71733	24610
0.71800	24562
0.71867	24510
0.71933	24454
0.72000	24395
0.72067	24333
0.72133	24268
0.72200	24200
0.72267	24129
0.72333	24056
0.72400	23981
0.72467	23903
0.72533	23824
0.72600	23742
0.72667	23660
0.72733	23575
0.72800	23490
0.72867	23403
0.72933	23315
0.73000	23226
0.73067	23137
0.73133	23047
0.73200	22956
0.73267	22865
0.73333	22773
0.73400	22682
0.73467	22590
0.73533	22498
0.73600	22405
0.73667	22313
0.73733	22221
0.73800	22129
0.73867	22037
0.73933	21946
0.74000	21854
0.74067	21763
0.74133	21673
0.74200	21582
0.74267	21493
0.74333	21403
0.74400	21314
0.74467	21226
0.74533	21138
0.74600	21051
0.74667	20964
0.74733	20878
0.74800	20793
0.74867	20708
0.74933	20624
0.75000	20540
0.75067	20457
0.75133	20375
0.75200	20294
0.75267	20213
0.75333	20133
0.75400	20054
0.75467	19975
0.75533	19897
0.75600	19820
0.75667	19744
0.75733	19668
0.75800	19593
0.75867	19519
0.75933	19445
0.76000	19372
0.76067	19300
0.76133	19229
0.76200	19158
0.76267	19088
0.76333	19019
0.76400	18951
0.76467	18883
0.76533	18816
0.76600	18749
0.76667	18684
0.76733	18619
0.76800	18554
0.76867	18491
0.76933	18428
0.77000	18366
0.77067	18304
0.77133	18243
0.77200	18183
0.77267	18123
0.77333	18064
0.77400	18006
0.77467	17948
0.77533	17891
0.77600	17835
0.77667	17779
0.77733	17723
0.77800	17668
0.77867	17614
0.77933	17561
0.78000	17507
0.78067	17455
0.78133	17403
0.78200	17351
0.78267	17300
0.78333	17250
0.78400	17200
0.78467	17150
0.78533	17101
0.78600	17053
0.78667	17005
0.78733	16957
0.78800	16910
0.78867	16863
0.78933	16817
0.79000	16771
0.79067	16726
0.79133	16681
0.79200	16637
0.79267	16593
0.79333	16549
0.79400	16506
0.79467	16463
0.79533	16421
0.79600	16379
0.79667	16337
0.79733	16296
0.79800	16255
0.79867	16214
0.79933	16174
0.80000	16134
0.80067	16095
0.80133	16056
0.80200	16017
0.80267	15978
0.80333	15940
0.80400	15902
0.80467	15864
0.80533	15827
0.80600	15790
0.80667	15753
0.80733	15717
0.80800	15681
0.80867	15645
0.80933	15610
0.81000	15574
0.81067	15540
0.81133	15505
0.81200	15471
0.81267	15437
0.81333	15404
0.81400	15371
0.81467	15338
0.81533	15305
0.81600	15273
0.81667	15241
0.81733	15210
0.81800	15179
0.81867	15148
0.81933	15117
0.82000	15087
0.82067	15057
0.82133	15027
0.82200	14997
0.82267	14968
0.82333	14939
0.82400	14910
0.82467	14882
0.82533	14853
0.82600	14825
0.82667	14797
0.82733	14769
0.82800	14741
0.82867	14714
0.82933	14687
0.83000	14660
0.83067	14633
0.83133	14606
0.83200	14579
0.83267	14553
0.83333	14527
0.83400	14500
0.83467	14474
0.83533	14448
0.83600	14423
0.83667	14397
0.83733	14371
0.83800	14346
0.83867	14320
0.83933	14295
0.84000	14270
0.84067	14245
0.84133	14220
0.84200	14195
0.84267	14170
0.84333	14146
0.84400	14121
0.84467	14097
0.84533	14073
0.84600	14049
0.84667	14024
0.84733	14000
0.84800	13976
0.84867	13953
0.84933	13929
0.85000	13905
0.85067	13882
0.85133	13858
0.85200	13835
0.85267	13811
0.85333	13788
0.85400	13765
0.85467	13741
0.85533	13718
0.85600	13695
0.85667	13672
0.85733	13649
0.85800	13626
0.85867	13603
0.85933	13580
0.86000	13557
0.86067	13534
0.86133	13512
0.86200	13489
0.86267	13466
0.86333	13444
0.86400	13421
0.86467	13399
0.86533	13376
0.86600	13354
0.86667	13332
0.86733	13310
0.86800	13287
0.86867	13265
0.86933	13243
0.87000	13221
0.87067	13199
0.87133	13177
0.87200	13155
0.87267	13133
0.87333	13112
0.87400	13090
0.87467	13069
0.87533	13048
0.87600	13026
0.87667	13005
0.87733	12984
0.87800	12964
0.87867	12943
0.87933	12922
0.88000	12902
0.88067	12881
0.88133	12861
0.88200	12841
0.88267	12821
0.88333	12801
0.88400	12781
0.88467	12761
0.88533	12742
0.88600	12722
0.88667	12703
0.88733	12684
0.88800	12665
0.88867	12646
0.88933	12627
0.89000	12608
0.89067	12589
0.89133	12571
0.89200	12552
0.89267	12534
0.89333	12515
0.89400	12497
0.89467	12479
0.89533	12461
0.89600	12443
0.89667	12425
0.89733	12407
0.89800	12389
0.89867	12372
0.89933	12354
0.90000	12337
0.90067	12320
0.90133	12302
0.90200	12285
0.90267	12268
0.90333	12251
0.90400	12234
0.90467	12217
0.90533	12200
0.90600	12183
0.90667	12167
0.90733	12150
0.90800	12133
0.90867	12117
0.90933	12100
0.91000	12084
0.91067	12068
0.91133	12051
0.91200	12035
0.91267	12019
0.91333	12003
0.91400	11987
0.91467	11971
0.91533	11955
0.91600	11939
0.91667	11923
0.91733	11907
0.91800	11891
0.91867	11876
0.91933	11860
0.92000	11845
0.92067	11829
0.92133	11814
0.92200	11798
0.92267	11783
0.92333	11768
0.92400	11752
0.92467	11737
0.92533	11722
0.92600	11707
0.92667	11692
0.92733	11677
0.92800	11663
0.92867	11648
0.92933	11633
0.93000	11619
0.93067	11605
0.93133	11590
0.93200	11576
0.93267	11562
0.93333	11547
0.93400	11533
0.93467	11519
0.93533	11505
0.93600	11491
0.93667	11477
0.93733	11463
0.93800	11450
0.93867	11436
0.93933	11422
0.94000	11408
0.94067	11395
0.94133	11381
0.94200	11367
0.94267	11354
0.94333	11340
0.94400	11326
0.94467	11313
0.94533	11299
0.94600	11286
0.94667	11272
0.94733	11258
0.94800	11245
0.94867	11231
0.94933	11218
0.95000	11204
0.95067	11191
0.95133	11178
0.95200	11164
0.95267	11151
0.95333	11138
0.95400	11125
0.95467	11112
0.95533	11099
0.95600	11086
0.95667	11073
0.95733	11061
0.95800	11048
0.95867	11036
0.95933	11024
0.96000	11011
0.96067	10999
0.96133	10987
0.96200	10976
0.96267	10964
0.96333	10953
0.96400	10941
0.96467	10930
0.96533	10919
0.96600	10908
0.96667	10896
0.96733	10885
0.96800	10874
0.96867	10863
0.96933	10852
0.97000	10841
0.97067	10830
0.97133	10819
0.97200	10809
0.97267	10798
0.97333	10786
0.97400	10775
0.97467	10764
0.97533	10753
0.97600	10742
0.97667	10731
0.97733	10719
0.97800	10708
0.97867	10696
0.97933	10685
0.98000	10673
0.98067	10662
0.98133	10650
0.98200	10638
0.98267	10626
0.98333	10614
0.98400	10602
0.98467	10590
0.98533	10578
0.98600	10566
0.98667	10554
0.98733	10542
0.98800	10530
0.98867	10518
0.98933	10506
0.99000	10493
0.99067	10481
0.99133	10469
0.99200	10457
0.99267	10444
0.99333	10432
0.99400	10420
0.99467	10408
0.99533	10396
0.99600	10383
0.99667	10371
0.99733	10359
0.99800	10347
0.99867	10335
0.99933	10323
1.00000	10311
1.00067	10299
1.00133	10287
1.00200	10275
1.00267	10263
1.00333	10251
1.00400	10240
1.00467	10228
1.00533	10216
1.00600	10205
1.00667	10193
1.00733	10182
1.00800	10170
1.00867	10159
1.00933	10148
1.01000	10137
1.01067	10126
1.01133	10115
1.01200	10104
1.01267	10093
1.01333	10083
1.01400	10072
1.01467	10062
1.01533	10052
1.01600	10043
1.01667	10033
1.01733	10024
1.01800	10015
1.01867	10006
1.01933	9997
1.02000	9989
1.02067	9980
1.02133	9973
1.02200	9965
1.02267	9958
1.02333	9951
1.02400	9944
1.02467	9937
1.02533	9931
1.02600	9925
1.02667	9919
1.02733	9913
1.02800	9908
1.02867	9902
1.02933	9897
1.03000	9891
1.03067	9886
1.03133	9881
1.03200	9876
1.03267	9870
1.03333	9865
1.03400	9860
1.03467	9854
1.03533	9849
1.03600	9843
1.03667	9838
1.03733	9832
1.03800	9826
1.03867	9820
1.03933	9814
1.04000	9808
1.04067	9802
1.04133	9796
1.04200	9789
1.04267	9782
1.04333	9775
1.04400	9768
1.04467	9761
1.04533	9754
1.04600	9746
1.04667	9739
1.04733	9731
1.04800	9723
1.04867	9715
1.04933	9707
1.05000	9699
1.05067	9691
1.05133	9682
1.05200	9674
1.05267	9666
1.05333	9657
1.05400	9649
1.05467	9640
1.05533	9631
1.05600	9622
1.05667	9614
1.05733	9605
1.05800	9596
1.05867	9586
1.05933	9577
1.06000	9568
1.06067	9559
1.06133	9549
1.06200	9540
1.06267	9530
1.06333	9521
1.06400	9511
1.06467	9502
1.06533	9492
1.06600	9483
1.06667	9473
1.06733	9463
1.06800	9454
1.06867	9444
1.06933	9434
1.07000	9425
1.07067	9415
1.07133	9406
1.07200	9396
1.07267	9386
1.07333	9377
1.07400	9367
1.07467	9357
1.07533	9348
1.07600	9338
1.07667	9328
1.07733	9319
1.07800	9309
1.07867	9300
1.07933	9290
1.08000	9281
1.08067	9271
1.08133	9262
1.08200	9253
1.08267	9243
1.08333	9234
1.08400	9225
1.08467	9216
1.08533	9206
1.08600	9197
1.08667	9188
1.08733	9179
1.08800	9170
1.08867	9161
1.08933	9152
1.09000	9143
1.09067	9134
1.09133	9126
1.09200	9117
1.09267	9108
1.09333	9099
1.09400	9090
1.09467	9082
1.09533	9073
1.09600	9064
1.09667	9055
1.09733	9047
1.09800	9038
1.09867	9029
1.09933	9021
1.10000	9012
1.10067	9003
1.10133	8995
1.10200	8986
1.10267	8977
1.10333	8969
1.10400	8960
1.10467	8952
1.10533	8943
1.10600	8935
1.10667	8926
1.10733	8918
1.10800	8909
1.10867	8901
1.10933	8893
1.11000	8885
1.11067	8876
1.11133	8868
1.11200	8860
1.11267	8852
1.11333	8844
1.11400	8836
1.11467	8828
1.11533	8820
1.11600	8812
1.11667	8804
1.11733	8797
1.11800	8789
1.11867	8781
1.11933	8774
1.12000	8766
1.12067	8759
1.12133	8752
1.12200	8745
1.12267	8738
1.12333	8731
1.12400	8724
1.12467	8718
1.12533	8711
1.12600	8705
1.12667	8699
1.12733	8693
1.12800	8687
1.12867	8681
1.12933	8676
1.13000	8671
1.13067	8665
1.13133	8661
1.13200	8656
1.13267	8652
1.13333	8647
1.13400	8644
1.13467	8640
1.13533	8636
1.13600	8633
1.13667	8630
1.13733	8627
1.13800	8625
1.13867	8622
1.13933	8620
1.14000	8618
1.14067	8616
1.14133	8614
1.14200	8612
1.14267	8610
1.14333	8609
1.14400	8607
1.14467	8605
1.14533	8603
1.14600	8602
1.14667	8600
1.14733	8598
1.14800	8596
1.14867	8594
1.14933	8592
1.15000	8590
1.15067	8587
1.15133	8585
1.15200	8582
1.15267	8579
1.15333	8576
1.15400	8573
1.15467	8570
1.15533	8566
1.15600	8563
1.15667	8559
1.15733	8555
1.15800	8551
1.15867	8547
1.15933	8542
1.16000	8538
1.16067	8533
1.16133	8528
1.16200	8523
1.16267	8518
1.16333	8513
1.16400	8507
1.16467	8502
1.16533	8496
1.16600	8491
1.16667	8485
1.16733	8479
1.16800	8473
1.16867	8467
1.16933	8461
1.17000	8454
1.17067	8448
1.17133	8441
1.17200	8435
1.17267	8428
1.17333	8422
1.17400	8415
1.17467	8408
1.17533	8401
1.17600	8395
1.17667	8388
1.17733	8381
1.17800	8374
1.17867	8367
1.17933	8360
1.18000	8353
1.18067	8346
1.18133	8339
1.18200	8332
1.18267	8326
1.18333	8319
1.18400	8312
1.18467	8305
1.18533	8299
1.18600	8292
1.18667	8285
1.18733	8279
1.18800	8272
1.18867	8266
1.18933	8259
1.19000	8253
1.19067	8247
1.19133	8241
1.19200	8234
1.19267	8228
1.19333	8222
1.19400	8216
1.19467	8210
1.19533	8205
1.19600	8199
1.19667	8193
1.19733	8188
1.19800	8182
1.19867	8177
1.19933	8172
1.20000	8166
1.20067	8161
1.20133	8156
1.20200	8151
1.20267	8147
1.20333	8142
1.20400	8137
1.20467	8133
1.20533	8128
1.20600	8124
1.20667	8120
1.20733	8116
1.20800	8112
1.20867	8108
1.20933	8104
1.21000	8100
1.21067	8097
1.21133	8093
1.21200	8090
1.21267	8086
1.21333	8083
1.21400	8080
1.21467	8076
1.21533	8073
1.21600	8070
1.21667	8067
1.21733	8064
1.21800	8061
1.21867	8058
1.21933	8055
1.22000	8053
1.22067	8050
1.22133	8047
1.22200	8045
1.22267	8042
1.22333	8040
1.22400	8037
1.22467	8035
1.22533	8033
1.22600	8030
1.22667	8028
1.22733	8026
1.22800	8024
1.22867	8021
1.22933	8019
1.23000	8017
1.23067	8015
1.23133	8013
1.23200	8011
1.23267	8009
1.23333	8006
1.23400	8004
1.23467	8002
1.23533	8000
1.23600	7998
1.23667	7996
1.23733	7994
1.23800	7992
1.23867	7990
1.23933	7988
1.24000	7986
1.24067	7984
1.24133	7982
1.24200	7980
1.24267	7978
1.24333	7976
1.24400	7974
1.24467	7972
1.24533	7970
1.24600	7968
1.24667	7966
1.24733	7964
1.24800	7963
1.24867	7961
1.24933	7959
1.25000	7957
1.25067	7956
1.25133	7954
1.25200	7952
1.25267	7951
1.25333	7950
1.25400	7948
1.25467	7947
1.25533	7946
1.25600	7945
1.25667	7944
1.25733	7943
1.25800	7943
1.25867	7942
1.25933	7942
1.26000	7941
1.26067	7941
1.26133	7941
1.26200	7941
1.26267	7941
1.26333	7942
1.26400	7942
1.26467	7943
1.26533	7943
1.26600	7944
1.26667	7945
1.26733	7947
1.26800	7948
1.26867	7950
1.26933	7951
1.27000	7953
1.27067	7955
1.27133	7958
1.27200	7960
1.27267	7963
1.27333	7966
1.27400	7970
1.27467	7973
1.27533	7977
1.27600	7982
1.27667	7986
1.27733	7991
1.27800	7996
1.27867	8001
1.27933	8007
1.28000	8013
1.28067	8019
1.28133	8025
1.28200	8032
1.28267	8039
1.28333	8045
1.28400	8052
1.28467	8059
1.28533	8067
1.28600	8074
1.28667	8081
1.28733	8088
1.28800	8095
1.28867	8102
1.28933	8108
1.29000	8115
1.29067	8121
1.29133	8127
1.29200	8133
1.29267	8138
1.29333	8143
1.29400	8148
1.29467	8152
1.29533	8156
1.29600	8160
1.29667	8163
1.29733	8166
1.29800	8169
1.29867	8171
1.29933	8173
1.30000	8175
1.30067	8176
1.30133	8177
1.30200	8177
1.30267	8177
1.30333	8177
1.30400	8176
1.30467	8175
1.30533	8174
1.30600	8172
1.30667	8170
1.30733	8168
1.30800	8166
1.30867	8163
1.30933	8160
1.31000	8157
1.31067	8154
1.31133	8150
1.31200	8146
1.31267	8142
1.31333	8138
1.31400	8133
1.31467	8128
1.31533	8123
1.31600	8118
1.31667	8113
1.31733	8107
1.31800	8102
1.31867	8096
1.31933	8090
1.32000	8084
1.32067	8078
1.32133	8071
1.32200	8065
1.32267	8058
1.32333	8052
1.32400	8045
1.32467	8038
1.32533	8031
1.32600	8023
1.32667	8016
1.32733	8009
1.32800	8001
1.32867	7994
1.32933	7986
1.33000	7979
1.33067	7971
1.33133	7963
1.33200	7956
1.33267	7948
1.33333	7940
1.33400	7932
1.33467	7924
1.33533	7916
1.33600	7908
1.33667	7900
1.33733	7892
1.33800	7884
1.33867	7876
1.33933	7868
1.34000	7860
1.34067	7852
1.34133	7844
1.34200	7836
1.34267	7828
1.34333	7819
1.34400	7811
1.34467	7803
1.34533	7795
1.34600	7787
1.34667	7779
1.34733	7771
1.34800	7763
1.34867	7755
1.34933	7747
1.35000	7739
1.35067	7732
1.35133	7724
1.35200	7716
1.35267	7708
1.35333	7701
1.35400	7693
1.35467	7686
1.35533	7678
1.35600	7671
1.35667	7664
1.35733	7657
1.35800	7650
1.35867	7643
1.35933	7635
1.36000	7629
1.36067	7622
1.36133	7615
1.36200	7608
1.36267	7601
1.36333	7594
1.36400	7588
1.36467	7581
1.36533	7574
1.36600	7568
1.36667	7561
1.36733	7555
1.36800	7548
1.36867	7542
1.36933	7536
1.37000	7530
1.37067	7523
1.37133	7517
1.37200	7511
1.37267	7505
1.37333	7500
1.37400	7494
1.37467	7488
1.37533	7483
1.37600	7477
1.37667	7472
1.37733	7466
1.37800	7461
1.37867	7456
1.37933	7451
1.38000	7446
1.38067	7441
1.38133	7436
1.38200	7431
1.38267	7426
1.38333	7421
1.38400	7416
1.38467	7412
1.38533	7407
1.38600	7402
1.38667	7398
1.38733	7393
1.38800	7389
1.38867	7384
1.38933	7380
1.39000	7376
1.39067	7371
1.39133	7367
1.39200	7362
1.39267	7358
1.39333	7354
1.39400	7349
1.39467	7345
1.39533	7341
1.39600	7336
1.39667	7332
1.39733	7328
1.39800	7324
1.39867	7320
1.39933	7316
1.40000	7311
1.40067	7307
1.40133	7303
1.40200	7299
1.40267	7295
1.40333	7291
1.40400	7287
1.40467	7283
1.40533	7279
1.40600	7275
1.40667	7271
1.40733	7267
1.40800	7263
1.40867	7259
1.40933	7255
1.41000	7251
1.41067	7247
1.41133	7243
1.41200	7239
1.41267	7235
1.41333	7231
1.41400	7228
1.41467	7224
1.41533	7220
1.41600	7216
1.41667	7212
1.41733	7208
1.41800	7204
1.41867	7201
1.41933	7197
1.42000	7193
1.42067	7190
1.42133	7186
1.42200	7182
1.42267	7179
1.42333	7175
1.42400	7172
1.42467	7168
1.42533	7165
1.42600	7161
1.42667	7158
1.42733	7154
1.42800	7151
1.42867	7148
1.42933	7144
1.43000	7141
1.43067	7138
1.43133	7135
1.43200	7132
1.43267	7129
1.43333	7125
1.43400	7122
1.43467	7119
1.43533	7116
1.43600	7113
1.43667	7111
1.43733	7108
1.43800	7105
1.43867	7102
1.43933	7099
1.44000	7097
1.44067	7094
1.44133	7091
1.44200	7089
1.44267	7086
1.44333	7084
1.44400	7081
1.44467	7079
1.44533	7076
1.44600	7074
1.44667	7072
1.44733	7069
1.44800	7067
1.44867	7065
1.44933	7062
1.45000	7060
1.45067	7058
1.45133	7055
1.45200	7053
1.45267	7051
1.45333	7048
1.45400	7046
1.45467	7044
1.45533	7042
1.45600	7039
1.45667	7037
1.45733	7035
1.45800	7033
1.45867	7031
1.45933	7029
1.46000	7027
1.46067	7025
1.46133	7023
1.46200	7021
1.46267	7019
1.46333	7017
1.46400	7015
1.46467	7013
1.46533	7011
1.46600	7009
1.46667	7007
1.46733	7005
1.46800	7003
1.46867	7001
1.46933	6999
1.47000	6997
1.47067	6995
1.47133	6993
1.47200	6991
1.47267	6989
1.47333	6987
1.47400	6985
1.47467	6983
1.47533	6981
1.47600	6979
1.47667	6977
1.47733	6975
1.47800	6973
1.47867	6971
1.47933	6969
1.48000	6967
1.48067	6965
1.48133	6963
1.48200	6960
1.48267	6958
1.48333	6956
1.48400	6954
1.48467	6952
1.48533	6950
1.48600	6948
1.48667	6946
1.48733	6944
1.48800	6942
1.48867	6940
1.48933	6938
1.49000	6935
1.49067	6933
1.49133	6931
1.49200	6929
1.49267	6927
1.49333	6924
1.49400	6922
1.49467	6920
1.49533	6917
1.49600	6915
1.49667	6912
1.49733	6910
1.49800	6908
1.49867	6905
1.49933	6903
1.50000	6901
1.50067	6898
1.50133	6896
1.50200	6893
1.50267	6891
1.50333	6888
1.50400	6886
1.50467	6883
1.50533	6881
1.50600	6878
1.50667	6875
1.50733	6873
1.50800	6870
1.50867	6867
1.50933	6865
1.51000	6862
1.51067	6859
1.51133	6857
1.51200	6854
1.51267	6851
1.51333	6848
1.51400	6846
1.51467	6843
1.51533	6840
1.51600	6837
1.51667	6834
1.51733	6832
1.51800	6829
1.51867	6826
1.51933	6823
1.52000	6821
1.52067	6818
1.52133	6815
1.52200	6813
1.52267	6810
1.52333	6808
1.52400	6805
1.52467	6802
1.52533	6800
1.52600	6797
1.52667	6795
1.52733	6792
1.52800	6790
1.52867	6788
1.52933	6785
1.53000	6783
1.53067	6780
1.53133	6778
1.53200	6775
1.53267	6773
1.53333	6771
1.53400	6768
1.53467	6766
1.53533	6763
1.53600	6761
1.53667	6759
1.53733	6757
1.53800	6755
1.53867	6752
1.53933	6750
1.54000	6748
1.54067	6746
1.54133	6744
1.54200	6742
1.54267	6740
1.54333	6738
1.54400	6735
1.54467	6733
1.54533	6731
1.54600	6729
1.54667	6727
1.54733	6725
1.54800	6723
1.54867	6721
1.54933	6719
1.55000	6717
1.55067	6715
1.55133	6713
1.55200	6710
1.55267	6708
1.55333	6706
1.55400	6704
1.55467	6702
1.55533	6700
1.55600	6698
1.55667	6696
1.55733	6694
1.55800	6692
1.55867	6690
1.55933	6688
1.56000	6686
1.56067	6683
1.56133	6681
1.56200	6679
1.56267	6677
1.56333	6675
1.56400	6673
1.56467	6671
1.56533	6669
1.56600	6667
1.56667	6665
1.56733	6663
1.56800	6661
1.56867	6659
1.56933	6657
1.57000	6655
1.57067	6653
1.57133	6651
1.57200	6649
1.57267	6647
1.57333	6645
1.57400	6643
1.57467	6641
1.57533	6639
1.57600	6636
1.57667	6634
1.57733	6632
1.57800	6630
1.57867	6628
1.57933	6626
1.58000	6624
1.58067	6622
1.58133	6620
1.58200	6618
1.58267	6616
1.58333	6614
1.58400	6612
1.58467	6610
1.58533	6608
1.58600	6606
1.58667	6605
1.58733	6603
1.58800	6601
1.58867	6599
1.58933	6598
1.59000	6596
1.59067	6595
1.59133	6593
1.59200	6591
1.59267	6590
1.59333	6588
1.59400	6587
1.59467	6585
1.59533	6584
1.59600	6582
1.59667	6580
1.59733	6579
1.59800	6578
1.59867	6576
1.59933	6575
1.60000	6573
1.60067	6572
1.60133	6571
1.60200	6569
1.60267	6568
1.60333	6566
1.60400	6565
1.60467	6564
1.60533	6562
1.60600	6561
1.60667	6560
1.60733	6558
1.60800	6557
1.60867	6556
1.60933	6554
1.61000	6553
1.61067	6551
1.61133	6550
1.61200	6549
1.61267	6547
1.61333	6546
1.61400	6544
1.61467	6543
1.61533	6541
1.61600	6540
1.61667	6538
1.61733	6537
1.61800	6535
1.61867	6534
1.61933	6532
1.62000	6531
1.62067	6529
1.62133	6527
1.62200	6526
1.62267	6524
1.62333	6523
1.62400	6521
1.62467	6520
1.62533	6518
1.62600	6517
1.62667	6515
1.62733	6514
1.62800	6512
1.62867	6511
1.62933	6509
1.63000	6508
1.63067	6507
1.63133	6506
1.63200	6504
1.63267	6503
1.63333	6502
1.63400	6501
1.63467	6500
1.63533	6499
1.63600	6498
1.63667	6497
1.63733	6496
1.63800	6495
1.63867	6495
1.63933	6494
1.64000	6493
1.64067	6492
1.64133	6492
1.64200	6491
1.64267	6490
1.64333	6490
1.64400	6489
1.64467	6489
1.64533	6488
1.64600	6488
1.64667	6487
1.64733	6487
1.64800	6486
1.64867	6486
1.64933	6485
1.65000	6484
1.65067	6484
1.65133	6483
1.65200	6482
1.65267	6482
1.65333	6481
1.65400	6480
1.65467	6480
1.65533	6479
1.65600	6478
1.65667	6477
1.65733	6476
1.65800	6475
1.65867	6474
1.65933	6473
1.66000	6472
1.66067	6471
1.66133	6470
1.66200	6469
1.66267	6468
1.66333	6467
1.66400	6466
1.66467	6465
1.66533	6464
1.66600	6463
1.66667	6462
1.66733	6461
1.66800	6460
1.66867	6458
1.66933	6457
1.67000	6456
1.67067	6455
1.67133	6454
1.67200	6453
1.67267	6451
1.67333	6450
1.67400	6449
1.67467	6448
1.67533	6446
1.67600	6445
1.67667	6444
1.67733	6442
1.67800	6441
1.67867	6440
1.67933	6438
1.68000	6437
1.68067	6436
1.68133	6434
1.68200	6433
1.68267	6432
1.68333	6430
1.68400	6429
1.68467	6428
1.68533	6426
1.68600	6425
1.68667	6424
1.68733	6422
1.68800	6421
1.68867	6420
1.68933	6419
1.69000	6417
1.69067	6416
1.69133	6415
1.69200	6414
1.69267	6412
1.69333	6411
1.69400	6410
1.69467	6409
1.69533	6408
1.69600	6406
1.69667	6405
1.69733	6404
1.69800	6403
1.69867	6401
1.69933	6400
1.70000	6399
1.70067	6397
1.70133	6396
1.70200	6394
1.70267	6393
1.70333	6392
1.70400	6390
1.70467	6389
1.70533	6387
1.70600	6386
1.70667	6384
1.70733	6383
1.70800	6381
1.70867	6380
1.70933	6378
1.71000	6377
1.71067	6375
1.71133	6374
1.71200	6373
1.71267	6372
1.71333	6371
1.71400	6370
1.71467	6370
1.71533	6370
1.71600	6370
1.71667	6371
1.71733	6372
1.71800	6375
1.71867	6378
1.71933	6382
1.72000	6387
1.72067	6394
1.72133	6403
1.72200	6415
1.72267	6429
1.72333	6447
1.72400	6469
1.72467	6497
1.72533	6530
1.72600	6571
1.72667	6620
1.72733	6680
1.72800	6751
1.72867	6836
1.72933	6937
1.73000	7058
1.73067	7199
1.73133	7365
1.73200	7560
1.73267	7787
1.73333	8050
1.73400	8355
1.73467	8706
1.73533	9109
1.73600	9571
1.73667	10097
1.73733	10696
1.73800	11373
1.73867	12137
1.73933	12996
1.74000	13959
1.74067	15033
1.74133	16229
1.74200	17554
1.74267	19018
1.74333	20631
1.74400	22402
1.74467	24342
1.74533	26459
1.74600	28763
1.74667	31261
1.74733	33958
1.74800	36861
1.74867	39974
1.74933	43301
1.75000	46844
1.75067	50607
1.75133	54590
1.75200	58795
1.75267	63220
1.75333	67861
1.75400	72714
1.75467	77774
1.75533	83037
1.75600	88495
1.75667	94139
1.75733	99954
1.75800	105926
1.75867	112034
1.75933	118258
1.76000	124577
1.76067	130967
1.76133	137403
1.76200	143859
1.76267	150310
1.76333	156730
1.76400	163091
1.76467	169368
1.76533	175535
1.76600	181567
1.76667	187439
1.76733	193127
1.76800	198609
1.76867	203862
1.76933	208866
1.77000	213601
1.77067	218052
1.77133	222205
1.77200	226047
1.77267	229570
1.77333	232768
1.77400	235638
1.77467	238178
1.77533	240389
1.77600	242274
1.77667	243838
1.77733	245087
1.77800	246027
1.77867	246669
1.77933	247020
1.78000	247093
1.78067	246898
1.78133	246447
1.78200	245751
1.78267	244823
1.78333	243676
1.78400	242322
1.78467	240774
1.78533	239044
1.78600	237146
1.78667	235090
1.78733	232888
1.78800	230553
1.78867	228096
1.78933	225526
1.79000	222854
1.79067	220091
1.79133	217245
1.79200	214325
1.79267	211340
1.79333	208299
1.79400	205208
1.79467	202075
1.79533	198907
1.79600	195711
1.79667	192492
1.79733	189256
1.79800	186009
1.79867	182755
1.79933	179499
1.80000	176246
1.80067	173000
1.80133	169764
1.80200	166541
1.80267	163336
1.80333	160150
1.80400	156987
1.80467	153849
1.80533	150739
1.80600	147658
1.80667	144609
1.80733	141593
1.80800	138612
1.80867	135667
1.80933	132760
1.81000	129891
1.81067	127063
1.81133	124274
1.81200	121528
1.81267	118823
1.81333	116161
1.81400	113542
1.81467	110967
1.81533	108436
1.81600	105949
1.81667	103506
1.81733	101107
1.81800	98753
1.81867	96443
1.81933	94178
1.82000	91956
1.82067	89779
1.82133	87645
1.82200	85554
1.82267	83507
1.82333	81502
1.82400	79540
1.82467	77620
1.82533	75741
1.82600	73904
1.82667	72107
1.82733	70350
1.82800	68633
1.82867	66954
1.82933	65315
1.83000	63713
1.83067	62149
1.83133	60621
1.83200	59130
1.83267	57675
1.83333	56254
1.83400	54868
1.83467	53516
1.83533	52197
1.83600	50911
1.83667	49656
1.83733	48433
1.83800	47241
1.83867	46079
1.83933	44947
1.84000	43843
1.84067	42768
1.84133	41721
1.84200	40702
1.84267	39708
1.84333	38741
1.84400	37800
1.84467	36884
1.84533	35991
1.84600	35123
1.84667	34279
1.84733	33457
1.84800	32657
1.84867	31879
1.84933	31122
1.85000	30386
1.85067	29670
1.85133	28974
1.85200	28297
1.85267	27638
1.85333	26999
1.85400	26377
1.85467	25772
1.85533	25184
1.85600	24613
1.85667	24058
1.85733	23519
1.85800	22995
1.85867	22485
1.85933	21991
1.86000	21510
1.86067	21043
1.86133	20590
1.86200	20150
1.86267	19722
1.86333	19307
1.86400	18903
1.86467	18511
1.86533	18131
1.86600	17761
1.86667	17402
1.86733	17054
1.86800	16716
1.86867	16387
1.86933	16068
1.87000	15758
1.87067	15458
1.87133	15166
1.87200	14882
1.87267	14607
1.87333	14340
1.87400	14081
1.87467	13830
1.87533	13585
1.87600	13348
1.87667	13118
1.87733	12895
1.87800	12678
1.87867	12468
1.87933	12264
1.88000	12066
1.88067	11874
1.88133	11687
1.88200	11506
1.88267	11331
1.88333	11160
1.88400	10995
1.88467	10835
1.88533	10679
1.88600	10528
1.88667	10382
1.88733	10240
1.88800	10102
1.88867	9969
1.88933	9839
1.89000	9713
1.89067	9591
1.89133	9473
1.89200	9359
1.89267	9247
1.89333	9140
1.89400	9035
1.89467	8934
1.89533	8835
1.89600	8740
1.89667	8648
1.89733	8558
1.89800	8471
1.89867	8387
1.89933	8305
1.90000	8225
1.90067	8148
1.90133	8074
1.90200	8001
1.90267	7931
1.90333	7863
1.90400	7797
1.90467	7733
1.90533	7671
1.90600	7611
1.90667	7553
1.90733	7496
1.90800	7441
1.90867	7388
1.90933	7336
1.91000	7286
1.91067	7237
1.91133	7190
1.91200	7144
1.91267	7099
1.91333	7056
1.91400	7014
1.91467	6973
1.91533	6933
1.91600	6894
1.91667	6857
1.91733	6820
1.91800	6785
1.91867	6750
1.91933	6717
1.92000	6684
1.92067	6652
1.92133	6621
1.92200	6591
1.92267	6561
1.92333	6533
1.92400	6505
1.92467	6478
1.92533	6451
1.92600	6425
1.92667	6400
1.92733	6375
1.92800	6351
1.92867	6328
1.92933	6305
1.93000	6283
1.93067	6261
1.93133	6240
1.93200	6220
1.93267	6199
1.93333	6180
1.93400	6161
1.93467	6142
1.93533	6124
1.93600	6106
1.93667	6088
1.93733	6071
1.93800	6054
1.93867	6038
1.93933	6022
1.94000	6006
1.94067	5991
1.94133	5976
1.94200	5961
1.94267	5947
1.94333	5933
1.94400	5920
1.94467	5907
1.94533	5894
1.94600	5881
1.94667	5869
1.94733	5857
1.94800	5845
1.94867	5834
1.94933	5823
1.95000	5812
1.95067	5802
1.95133	5791
1.95200	5782
1.95267	5772
1.95333	5762
1.95400	5753
1.95467	5744
1.95533	5735
1.95600	5727
1.95667	5718
1.95733	5710
1.95800	5702
1.95867	5694
1.95933	5686
1.96000	5679
1.96067	5671
1.96133	5664
1.96200	5657
1.96267	5649
1.96333	5642
1.96400	5636
1.96467	5629
1.96533	5622
1.96600	5616
1.96667	5609
1.96733	5603
1.96800	5597
1.96867	5590
1.96933	5584
1.97000	5578
1.97067	5572
1.97133	5567
1.97200	5561
1.97267	5555
1.97333	5550
1.97400	5544
1.97467	5539
1.97533	5534
1.97600	5529
1.97667	5524
1.97733	5519
1.97800	5514
1.97867	5509
1.97933	5504
1.98000	5500
1.98067	5495
1.98133	5490
1.98200	5486
1.98267	5482
1.98333	5477
1.98400	5473
1.98467	5469
1.98533	5464
1.98600	5460
1.98667	5456
1.98733	5452
1.98800	5448
1.98867	5444
1.98933	5440
1.99000	5436
1.99067	5433
1.99133	5429
1.99200	5425
1.99267	5422
1.99333	5418
1.99400	5415
1.99467	5411
1.99533	5408
1.99600	5405
1.99667	5401
1.99733	5398
1.99800	5395
1.99867	5392
1.99933	5388
2.00000	5385
2.00067	5382
2.00133	5379
2.00200	5376
2.00267	5373
2.00333	5370
2.00400	5367
2.00467	5364
2.00533	5361
2.00600	5358
2.00667	5355
2.00733	5352
2.00800	5349
2.00867	5346
2.00933	5343
2.01000	5340
2.01067	5337
2.01133	5334
2.01200	5331
2.01267	5328
2.01333	5325
2.01400	5322
2.01467	5319
2.01533	5316
2.01600	5313
2.01667	5310
2.01733	5307
2.01800	5304
2.01867	5301
2.01933	5297
2.02000	5294
2.02067	5291
2.02133	5288
2.02200	5285
2.02267	5282
2.02333	5279
2.02400	5277
2.02467	5274
2.02533	5271
2.02600	5268
2.02667	5265
2.02733	5262
2.02800	5259
2.02867	5257
2.02933	5254
2.03000	5251
2.03067	5248
2.03133	5246
2.03200	5243
2.03267	5240
2.03333	5238
2.03400	5235
2.03467	5232
2.03533	5230
2.03600	5227
2.03667	5225
2.03733	5222
2.03800	5219
2.03867	5217
2.03933	5214
2.04000	5212
2.04067	5210
2.04133	5207
2.04200	5205
2.04267	5203
2.04333	5200
2.04400	5198
2.04467	5196
2.04533	5194
2.04600	5192
2.04667	5190
2.04733	5188
2.04800	5186
2.04867	5184
2.04933	5182
2.05000	5180
2.05067	5178
2.05133	5176
2.05200	5174
2.05267	5171
2.05333	5169
2.05400	5167
2.05467	5165
2.05533	5163
2.05600	5161
2.05667	5159
2.05733	5157
2.05800	5155
2.05867	5153
2.05933	5151
2.06000	5149
2.06067	5147
2.06133	5145
2.06200	5143
2.06267	5141
2.06333	5139
2.06400	5137
2.06467	5135
2.06533	5133
2.06600	5131
2.06667	5129
2.06733	5127
2.06800	5125
2.06867	5123
2.06933	5121
2.07000	5119
2.07067	5117
2.07133	5115
2.07200	5114
2.07267	5112
2.07333	5110
2.07400	5108
2.07467	5106
2.07533	5104
2.07600	5102
2.07667	5100
2.07733	5099
2.07800	5097
2.07867	5095
2.07933	5093
2.08000	5092
2.08067	5090
2.08133	5088
2.08200	5086
2.08267	5085
2.08333	5083
2.08400	5081
2.08467	5080
2.08533	5078
2.08600	5076
2.08667	5074
2.08733	5072
2.08800	5071
2.08867	5069
2.08933	5067
2.09000	5065
2.09067	5063
2.09133	5061
2.09200	5059
2.09267	5057
2.09333	5055
2.09400	5054
2.09467	5052
2.09533	5050
2.09600	5048
2.09667	5046
2.09733	5044
2.09800	5043
2.09867	5041
2.09933	5039
2.10000	5038
2.10067	5036
2.10133	5034
2.10200	5033
2.10267	5031
2.10333	5029
2.10400	5028
2.10467	5026
2.10533	5025
2.10600	5023
2.10667	5022
2.10733	5020
2.10800	5018
2.10867	5017
2.10933	5015
2.11000	5014
2.11067	5012
2.11133	5011
2.11200	5009
2.11267	5008
2.11333	5006
2.11400	5005
2.11467	5003
2.11533	5002
2.11600	5000
2.11667	4999
2.11733	4997
2.11800	4996
2.11867	4994
2.11933	4992
2.12000	4991
2.12067	4989
2.12133	4988
2.12200	4986
2.12267	4984
2.12333	4983
2.12400	4981
2.12467	4979
2.12533	4978
2.12600	4976
2.12667	4974
2.12733	4972
2.12800	4971
2.12867	4969
2.12933	4967
2.13000	4966
2.13067	4964
2.13133	4963
2.13200	4961
2.13267	4959
2.13333	4958
2.13400	4956
2.13467	4955
2.13533	4953
2.13600	4951
2.13667	4950
2.13733	4948
2.13800	4947
2.13867	4945
2.13933	4944
2.14000	4943
2.14067	4941
2.14133	4940
2.14200	4938
2.14267	4936
2.14333	4935
2.14400	4933
2.14467	4932
2.14533	4930
2.14600	4929
2.14667	4927
2.14733	4925
2.14800	4924
2.14867	4922
2.14933	4921
2.15000	4919
2.15067	4917
2.15133	4916
2.15200	4914
2.15267	4912
2.15333	4911
2.15400	4909
2.15467	4908
2.15533	4906
2.15600	4905
2.15667	4903
2.15733	4901
2.15800	4900
2.15867	4899
2.15933	4897
2.16000	4896
2.16067	4894
2.16133	4893
2.16200	4891
2.16267	4890
2.16333	4888
2.16400	4887
2.16467	4885
2.16533	4884
2.16600	4882
2.16667	4881
2.16733	4879
2.16800	4878
2.16867	4877
2.16933	4875
2.17000	4874
2.17067	4872
2.17133	4871
2.17200	4869
2.17267	4868
2.17333	4866
2.17400	4865
2.17467	4863
2.17533	4862
2.17600	4860
2.17667	4859
2.17733	4857
2.17800	4856
2.17867	4855
2.17933	4853
2.18000	4852
2.18067	4850
2.18133	4849
2.18200	4847
2.18267	4846
2.18333	4845
2.18400	4843
2.18467	4842
2.18533	4840
2.18600	4839
2.18667	4838
2.18733	4836
2.18800	4835
2.18867	4833
2.18933	4832
2.19000	4831
2.19067	4830
2.19133	4828
2.19200	4827
2.19267	4826
2.19333	4825
2.19400	4824
2.19467	4822
2.19533	4821
2.19600	4820
2.19667	4819
2.19733	4818
2.19800	4817
2.19867	4816
2.19933	4815
2.20000	4814
2.20067	4813
2.20133	4813
2.20200	4812
2.20267	4811
2.20333	4810
2.20400	4809
2.20467	4809
2.20533	4808
2.20600	4807
2.20667	4807
2.20733	4806
2.20800	4806
2.20867	4806
2.20933	4805
2.21000	4805
2.21067	4805
2.21133	4805
2.21200	4805
2.21267	4805
2.21333	4805
2.21400	4805
2.21467	4805
2.21533	4805
2.21600	4805
2.21667	4805
2.21733	4806
2.21800	4806
2.21867	4806
2.21933	4807
2.22000	4807
2.22067	4807
2.22133	4808
2.22200	4808
2.22267	4808
2.22333	4809
2.22400	4809
2.22467	4809
2.22533	4810
2.22600	4810
2.22667	4810
2.22733	4811
2.22800	4811
2.22867	4811
2.22933	4811
2.23000	4812
2.23067	4812
2.23133	4812
2.23200	4812
2.23267	4812
2.23333	4812
2.23400	4811
2.23467	4811
2.23533	4811
2.23600	4811
2.23667	4811
2.23733	4810
2.23800	4810
2.23867	4810
2.23933	4809
2.24000	4809
2.24067	4808
2.24133	4808
2.24200	4807
2.24267	4807
2.24333	4806
2.24400	4806
2.24467	4805
2.24533	4805
2.24600	4804
2.24667	4804
2.24733	4803
2.24800	4803
2.24867	4802
2.24933	4802
2.25000	4801
2.25067	4800
2.25133	4800
2.25200	4799
2.25267	4798
2.25333	4798
2.25400	4797
2.25467	4796
2.25533	4795
2.25600	4795
2.25667	4794
2.25733	4793
2.25800	4792
2.25867	4791
2.25933	4790
2.26000	4790
2.26067	4789
2.26133	4788
2.26200	4787
2.26267	4786
2.26333	4785
2.26400	4784
2.26467	4783
2.26533	4782
2.26600	4781
2.26667	4780
2.26733	4779
2.26800	4778
2.26867	4777
2.26933	4776
2.27000	4775
2.27067	4773
2.27133	4772
2.27200	4771
2.27267	4770
2.27333	4768
2.27400	4767
2.27467	4766
2.27533	4764
2.27600	4763
2.27667	4762
2.27733	4760
2.27800	4759
2.27867	4758
2.27933	4756
2.28000	4755
2.28067	4754
2.28133	4752
2.28200	4751
2.28267	4750
2.28333	4748
2.28400	4747
2.28467	4746
2.28533	4745
2.28600	4743
2.28667	4742
2.28733	4741
2.28800	4740
2.28867	4739
2.28933	4738
2.29000	4736
2.29067	4735
2.29133	4734
2.29200	4733
2.29267	4732
2.29333	4731
2.29400	4730
2.29467	4729
2.29533	4728
2.29600	4727
2.29667	4726
2.29733	4725
2.29800	4724
2.29867	4723
2.29933	4722
2.30000	4721
2.30067	4720
2.30133	4719
2.30200	4718
2.30267	4718
2.30333	4717
2.30400	4716
2.30467	4715
2.30533	4714
2.30600	4713
2.30667	4713
2.30733	4712
2.30800	4711
2.30867	4710
2.30933	4710
2.31000	4709
2.31067	4708
2.31133	4707
2.31200	4707
2.31267	4706
2.31333	4706
2.31400	4705
2.31467	4705
2.31533	4704
2.31600	4704
2.31667	4703
2.31733	4703
2.31800	4703
2.31867	4702
2.31933	4702
2.32000	4702
2.32067	4701
2.32133	4701
2.32200	4701
2.32267	4701
2.32333	4701
2.32400	4700
2.32467	4700
2.32533	4700
2.32600	4700
2.32667	4700
2.32733	4700
2.32800	4700
2.32867	4700
2.32933	4700
2.33000	4700
2.33067	4700
2.33133	4700
2.33200	4700
2.33267	4700
2.33333	4700
2.33400	4700
2.33467	4700
2.33533	4701
2.33600	4701
2.33667	4701
2.33733	4701
2.33800	4702
2.33867	4702
2.33933	4702
2.34000	4703
2.34067	4703
2.34133	4704
2.34200	4705
2.34267	4705
2.34333	4706
2.34400	4707
2.34467	4708
2.34533	4708
2.34600	4709
2.34667	4710
2.34733	4711
2.34800	4712
2.34867	4713
2.34933	4715
2.35000	4716
2.35067	4717
2.35133	4718
2.35200	4719
2.35267	4721
2.35333	4722
2.35400	4724
2.35467	4725
2.35533	4726
2.35600	4728
2.35667	4729
2.35733	4731
2.35800	4733
2.35867	4734
2.35933	4736
2.36000	4737
2.36067	4739
2.36133	4741
2.36200	4742
2.36267	4744
2.36333	4745
2.36400	4746
2.36467	4748
2.36533	4749
2.36600	4751
2.36667	4752
2.36733	4753
2.36800	4754
2.36867	4756
2.36933	4757
2.37000	4758
2.37067	4759
2.37133	4760
2.37200	4761
2.37267	4762
2.37333	4762
2.37400	4763
2.37467	4764
2.37533	4765
2.37600	4765
2.37667	4766
2.37733	4766
2.37800	4767
2.37867	4767
2.37933	4767
2.38000	4767
2.38067	4767
2.38133	4767
2.38200	4767
2.38267	4767
2.38333	4767
2.38400	4767
2.38467	4767
2.38533	4766
2.38600	4766
2.38667	4766
2.38733	4765
2.38800	4765
2.38867	4764
2.38933	4764
2.39000	4763
2.39067	4762
2.39133	4762
2.39200	4761
2.39267	4760
2.39333	4760
2.39400	4759
2.39467	4758
2.39533	4757
2.39600	4756
2.39667	4755
2.39733	4755
2.39800	4754
2.39867	4753
2.39933	4752
2.40000	4750
2.40067	4749
2.40133	4748
2.40200	4747
2.40267	4746
2.40333	4745
2.40400	4744
2.40467	4743
2.40533	4741
2.40600	4740
2.40667	4739
2.40733	4738
2.40800	4736
2.40867	4735
2.40933	4734
2.41000	4733
2.41067	4731
2.41133	4730
2.41200	4729
2.41267	4728
2.41333	4726
2.41400	4725
2.41467	4724
2.41533	4723
2.41600	4721
2.41667	4720
2.41733	4719
2.41800	4718
2.41867	4716
2.41933	4715
2.42000	4714
2.42067	4712
2.42133	4711
2.42200	4709
2.42267	4708
2.42333	4707
2.42400	4705
2.42467	4704
2.42533	4702
2.42600	4700
2.42667	4699
2.42733	4697
2.42800	4696
2.42867	4694
2.42933	4692
2.43000	4691
2.43067	4689
2.43133	4687
2.43200	4686
2.43267	4684
2.43333	4682
2.43400	4680
2.43467	4679
2.43533	4677
2.43600	4675
2.43667	4673
2.43733	4671
2.43800	4669
2.43867	4667
2.43933	4665
2.44000	4663
2.44067	4662
2.44133	4660
2.44200	4658
2.44267	4656
2.44333	4654
2.44400	4652
2.44467	4650
2.44533	4648
2.44600	4646
2.44667	4644
2.44733	4642
2.44800	4640
2.44867	4638
2.44933	4636
2.45000	4634
2.45067	4632
2.45133	4630
2.45200	4629
2.45267	4627
2.45333	4625
2.45400	4623
2.45467	4621
2.45533	4619
2.45600	4617
2.45667	4616
2.45733	4614
2.45800	4612
2.45867	4610
2.45933	4608
2.46000	4606
2.46067	4604
2.46133	4602
2.46200	4600
2.46267	4599
2.46333	4597
2.46400	4595
2.46467	4593
2.46533	4591
2.46600	4589
2.46667	4587
2.46733	4585
2.46800	4583
2.46867	4581
2.46933	4579
2.47000	4578
2.47067	4576
2.47133	4574
2.47200	4572
2.47267	4570
2.47333	4568
2.47400	4566
2.47467	4564
2.47533	4563
2.47600	4561
2.47667	4559
2.47733	4557
2.47800	4555
2.47867	4553
2.47933	4552
2.48000	4550
2.48067	4548
2.48133	4546
2.48200	4544
2.48267	4543
2.48333	4541
2.48400	4539
2.48467	4537
2.48533	4535
2.48600	4533
2.48667	4532
2.48733	4530
2.48800	4528
2.48867	4526
2.48933	4524
2.49000	4522
2.49067	4521
2.49133	4519
2.49200	4517
2.49267	4516
2.49333	4514
2.49400	4512
2.49467	4511
2.49533	4509
2.49600	4507
2.49667	4506
2.49733	4504
2.49800	4503
2.49867	4501
2.49933	4499
2.50000	4498
2.50067	4496
2.50133	4495
2.50200	4493
2.50267	4492
2.50333	4490
2.50400	4489
2.50467	4488
2.50533	4486
2.50600	4485
2.50667	4483
2.50733	4482
2.50800	4481
2.50867	4479
2.50933	4478
2.51000	4477
2.51067	4475
2.51133	4474
2.51200	4473
2.51267	4471
2.51333	4470
2.51400	4469
2.51467	4467
2.51533	4466
2.51600	4465
2.51667	4463
2.51733	4462
2.51800	4461
2.51867	4460
2.51933	4458
2.52000	4457
2.52067	4456
2.52133	4454
2.52200	4453
2.52267	4452
2.52333	4450
2.52400	4449
2.52467	4448
2.52533	4446
2.52600	4445
2.52667	4443
2.52733	4442
2.52800	4441
2.52867	4439
2.52933	4438
2.53000	4437
2.53067	4435
2.53133	4434
2.53200	4432
2.53267	4431
2.53333	4429
2.53400	4428
2.53467	4426
2.53533	4425
2.53600	4423
2.53667	4422
2.53733	4420
2.53800	4419
2.53867	4417
2.53933	4416
2.54000	4414
2.54067	4413
2.54133	4412
2.54200	4410
2.54267	4409
2.54333	4407
2.54400	4406
2.54467	4405
2.54533	4403
2.54600	4402
2.54667	4401
2.54733	4400
2.54800	4399
2.54867	4397
2.54933	4396
2.55000	4395
2.55067	4394
2.55133	4393
2.55200	4391
2.55267	4390
2.55333	4389
2.55400	4388
2.55467	4386
2.55533	4385
2.55600	4384
2.55667	4383
2.55733	4382
2.55800	4381
2.55867	4380
2.55933	4379
2.56000	4378
2.56067	4377
2.56133	4376
2.56200	4375
2.56267	4374
2.56333	4373
2.56400	4372
2.56467	4371
2.56533	4370
2.56600	4369
2.56667	4368
2.56733	4367
2.56800	4366
2.56867	4365
2.56933	4364
2.57000	4363
2.57067	4362
2.57133	4361
2.57200	4360
2.57267	4359
2.57333	4358
2.57400	4357
2.57467	4356
2.57533	4355
2.57600	4354
2.57667	4353
2.57733	4352
2.57800	4351
2.57867	4350
2.57933	4349
2.58000	4348
2.58067	4347
2.58133	4346
2.58200	4345
2.58267	4344
2.58333	4343
2.58400	4342
2.58467	4340
2.58533	4339
2.58600	4338
2.58667	4337
2.58733	4336
2.58800	4335
2.58867	4334
2.58933	4333
2.59000	4332
2.59067	4331
2.59133	4330
2.59200	4329
2.59267	4328
2.59333	4327
2.59400	4326
2.59467	4325
2.59533	4324
2.59600	4323
2.59667	4322
2.59733	4321
2.59800	4320
2.59867	4319
2.59933	4318
2.60000	4317
2.60067	4316
2.60133	4315
2.60200	4314
2.60267	4313
2.60333	4312
2.60400	4312
2.60467	4311
2.60533	4310
2.60600	4309
2.60667	4308
2.60733	4307
2.60800	4307
2.60867	4306
2.60933	4305
2.61000	4304
2.61067	4303
2.61133	4302
2.61200	4301
2.61267	4300
2.61333	4299
2.61400	4298
2.61467	4297
2.61533	4296
2.61600	4295
2.61667	4293
2.61733	4292
2.61800	4291
2.61867	4290
2.61933	4289
2.62000	4288
2.62067	4287
2.62133	4285
2.62200	4284
2.62267	4283
2.62333	4282
2.62400	4281
2.62467	4280
2.62533	4279
2.62600	4278
2.62667	4276
2.62733	4275
2.62800	4274
2.62867	4273
2.62933	4272
2.63000	4271
2.63067	4270
2.63133	4269
2.63200	4268
2.63267	4267
2.63333	4266
2.63400	4265
2.63467	4264
2.63533	4263
2.63600	4262
2.63667	4261
2.63733	4260
2.63800	4259
2.63867	4258
2.63933	4257
2.64000	4256
2.64067	4255
2.64133	4254
2.64200	4252
2.64267	4251
2.64333	4250
2.64400	4249
2.64467	4248
2.64533	4247
2.64600	4246
2.64667	4245
2.64733	4244
2.64800	4242
2.64867	4241
2.64933	4240
2.65000	4239
2.65067	4238
2.65133	4237
2.65200	4236
2.65267	4234
2.65333	4233
2.65400	4232
2.65467	4231
2.65533	4230
2.65600	4229
2.65667	4227
2.65733	4226
2.65800	4225
2.65867	4224
2.65933	4223
2.66000	4222
2.66067	4221
2.66133	4220
2.66200	4219
2.66267	4218
2.66333	4217
2.66400	4215
2.66467	4214
2.66533	4213
2.66600	4212
2.66667	4211
2.66733	4210
2.66800	4209
2.66867	4208
2.66933	4206
2.67000	4205
2.67067	4204
2.67133	4203
2.67200	4202
2.67267	4201
2.67333	4200
2.67400	4199
2.67467	4197
2.67533	4196
2.67600	4195
2.67667	4194
2.67733	4193
2.67800	4192
2.67867	4191
2.67933	4189
2.68000	4188
2.68067	4187
2.68133	4186
2.68200	4184
2.68267	4183
2.68333	4182
2.68400	4181
2.68467	4180
2.68533	4178
2.68600	4177
2.68667	4176
2.68733	4175
2.68800	4174
2.68867	4173
2.68933	4172
2.69000	4171
2.69067	4170
2.69133	4169
2.69200	4167
2.69267	4166
2.69333	4165
2.69400	4164
2.69467	4163
2.69533	4162
2.69600	4161
2.69667	4160
2.69733	4159
2.69800	4158
2.69867	4157
2.69933	4156
2.70000	4155
2.70067	4154
2.70133	4154
2.70200	4153
2.70267	4152
2.70333	4151
2.70400	4150
2.70467	4149
2.70533	4148
2.70600	4148
2.70667	4147
2.70733	4146
2.70800	4145
2.70867	4145
2.70933	4144
2.71000	4143
2.71067	4142
2.71133	4142
2.71200	4141
2.71267	4140
2.71333	4140
2.71400	4139
2.71467	4139
2.71533	4138
2.71600	4137
2.71667	4137
2.71733	4137
2.71800	4136
2.71867	4136
2.71933	4135
2.72000	4135
2.72067	4134
2.72133	4134
2.72200	4133
2.72267	4133
2.72333	4133
2.72400	4132
2.72467	4132
2.72533	4131
2.72600	4131
2.72667	4130
2.72733	4130
2.72800	4129
2.72867	4129
2.72933	4128
2.73000	4128
2.73067	4128
2.73133	4127
2.73200	4127
2.73267	4127
2.73333	4126
2.73400	4126
2.73467	4126
2.73533	4125
2.73600	4125
2.73667	4125
2.73733	4124
2.73800	4124
2.73867	4124
2.73933	4124
2.74000	4124
2.74067	4123
2.74133	4123
2.74200	4123
2.74267	4123
2.74333	4123
2.74400	4123
2.74467	4122
2.74533	4122
2.74600	4122
2.74667	4122
2.74733	4122
2.74800	4121
2.74867	4121
2.74933	4121
2.75000	4121
2.75067	4120
2.75133	4120
2.75200	4120
2.75267	4119
2.75333	4119
2.75400	4119
2.75467	4119
2.75533	4119
2.75600	4119
2.75667	4118
2.75733	4118
2.75800	4118
2.75867	4118
2.75933	4118
2.76000	4118
2.76067	4117
2.76133	4117
2.76200	4117
2.76267	4117
2.76333	4117
2.76400	4117
2.76467	4117
2.76533	4117
2.76600	4117
2.76667	4117
2.76733	4117
2.76800	4117
2.76867	4117
2.76933	4118
2.77000	4118
2.77067	4118
2.77133	4118
2.77200	4118
2.77267	4119
2.77333	4119
2.77400	4119
2.77467	4120
2.77533	4120
2.77600	4121
2.77667	4121
2.77733	4122
2.77800	4122
2.77867	4123
2.77933	4123
2.78000	4124
2.78067	4124
2.78133	4125
2.78200	4126
2.78267	4126
2.78333	4127
2.78400	4128
2.78467	4128
2.78533	4129
2.78600	4130
2.78667	4130
2.78733	4131
2.78800	4132
2.78867	4133
2.78933	4133
2.79000	4134
2.79067	4135
2.79133	4136
2.79200	4137
2.79267	4137
2.79333	4138
2.79400	4139
2.79467	4140
2.79533	4141
2.79600	4142
2.79667	4143
2.79733	4144
2.79800	4145
2.79867	4146
2.79933	4147
2.80000	4148
2.80067	4149
2.80133	4150
2.80200	4151
2.80267	4152
2.80333	4154
2.80400	4155
2.80467	4156
2.80533	4157
2.80600	4158
2.80667	4159
2.80733	4160
2.80800	4161
2.80867	4162
2.80933	4163
2.81000	4164
2.81067	4165
2.81133	4166
2.81200	4167
2.81267	4168
2.81333	4169
2.81400	4170
2.81467	4170
2.81533	4171
2.81600	4172
2.81667	4173
2.81733	4173
2.81800	4174
2.81867	4175
2.81933	4175
2.82000	4176
2.82067	4176
2.82133	4177
2.82200	4177
2.82267	4177
2.82333	4178
2.82400	4178
2.82467	4179
2.82533	4179
2.82600	4179
2.82667	4179
2.82733	4180
2.82800	4180
2.82867	4180
2.82933	4180
2.83000	4180
2.83067	4180
2.83133	4181
2.83200	4181
2.83267	4181
2.83333	4181
2.83400	4181
2.83467	4181
2.83533	4181
2.83600	4181
2.83667	4181
2.83733	4180
2.83800	4180
2.83867	4180
2.83933	4180
2.84000	4180
2.84067	4180
2.84133	4180
2.84200	4180
2.84267	4180
2.84333	4180
2.84400	4180
2.84467	4180
2.84533	4180
2.84600	4180
2.84667	4180
2.84733	4180
2.84800	4179
2.84867	4179
2.84933	4179
2.85000	4179
2.85067	4179
2.85133	4179
2.85200	4179
2.85267	4179
2.85333	4179
2.85400	4178
2.85467	4178
2.85533	4178
2.85600	4178
2.85667	4178
2.85733	4178
2.85800	4178
2.85867	4178
2.85933	4179
2.86000	4179
2.86067	4179
2.86133	4179
2.86200	4179
2.86267	4179
2.86333	4179
2.86400	4179
2.86467	4179
2.86533	4179
2.86600	4180
2.86667	4180
2.86733	4180
2.86800	4180
2.86867	4180
2.86933	4180
2.87000	4181
2.87067	4181
2.87133	4181
2.87200	4181
2.87267	4182
2.87333	4182
2.87400	4182
2.87467	4183
2.87533	4183
2.87600	4183
2.87667	4184
2.87733	4184
2.87800	4185
2.87867	4185
2.87933	4186
2.88000	4186
2.88067	4187
2.88133	4188
2.88200	4189
2.88267	4189
2.88333	4190
2.88400	4191
2.88467	4192
2.88533	4193
2.88600	4194
2.88667	4195
2.88733	4196
2.88800	4197
2.88867	4198
2.88933	4199
2.89000	4200
2.89067	4201
2.89133	4202
2.89200	4203
2.89267	4204
2.89333	4205
2.89400	4207
2.89467	4208
2.89533	4209
2.89600	4210
2.89667	4211
2.89733	4213
2.89800	4214
2.89867	4215
2.89933	4216
2.90000	4217
2.90067	4218
2.90133	4220
2.90200	4221
2.90267	4222
2.90333	4223
2.90400	4224
2.90467	4225
2.90533	4225
2.90600	4226
2.90667	4227
2.90733	4227
2.90800	4228
2.90867	4228
2.90933	4229
2.91000	4229
2.91067	4229
2.91133	4229
2.91200	4229
2.91267	4229
2.91333	4229
2.91400	4229
2.91467	4228
2.91533	4228
2.91600	4227
2.91667	4226
2.91733	4226
2.91800	4225
2.91867	4223
2.91933	4222
2.92000	4221
2.92067	4219
2.92133	4217
2.92200	4216
2.92267	4214
2.92333	4212
2.92400	4209
2.92467	4207
2.92533	4204
2.92600	4202
2.92667	4199
2.92733	4196
2.92800	4193
2.92867	4190
2.92933	4187
2.93000	4183
2.93067	4180
2.93133	4176
2.93200	4173
2.93267	4169
2.93333	4165
2.93400	4161
2.93467	4157
2.93533	4153
2.93600	4149
2.93667	4145
2.93733	4141
2.93800	4137
2.93867	4133
2.93933	4129
2.94000	4125
2.94067	4120
2.94133	4116
2.94200	4112
2.94267	4108
2.94333	4103
2.94400	4099
2.94467	4095
2.94533	4091
2.94600	4086
2.94667	4082
2.94733	4078
2.94800	4074
2.94867	4069
2.94933	4065
2.95000	4061
2.95067	4057
2.95133	4053
2.95200	4049
2.95267	4044
2.95333	4040
2.95400	4036
2.95467	4032
2.95533	4028
2.95600	4024
2.95667	4020
2.95733	4016
2.95800	4012
2.95867	4008
2.95933	4004
2.96000	4000
2.96067	3997
2.96133	3993
2.96200	3989
2.96267	3985
2.96333	3982
2.96400	3978
2.96467	3974
2.96533	3971
2.96600	3968
2.96667	3964
2.96733	3961
2.96800	3957
2.96867	3954
2.96933	3951
2.97000	3948
2.97067	3945
2.97133	3942
2.97200	3939
2.97267	3936
2.97333	3933
2.97400	3930
2.97467	3927
2.97533	3924
2.97600	3921
2.97667	3918
2.97733	3916
2.97800	3913
2.97867	3910
2.97933	3908
2.98000	3905
2.98067	3902
2.98133	3900
2.98200	3897
2.98267	3895
2.98333	3892
2.98400	3890
2.98467	3888
2.98533	3885
2.98600	3883
2.98667	3881
2.98733	3878
2.98800	3876
2.98867	3874
2.98933	3872
2.99000	3870
2.99067	3867
2.99133	3865
2.99200	3863
2.99267	3861
2.99333	3859
2.99400	3857
2.99467	3855
2.99533	3853
2.99600	3851
2.99667	3849
2.99733	3847
2.99800	3845
2.99867	3844
2.99933	3842
3.00000	3840
3.00067	3838
3.00133	3837
3.00200	3835
3.00267	3833
3.00333	3832
3.00400	3830
3.00467	3828
3.00533	3826
3.00600	3825
3.00667	3823
3.00733	3822
3.00800	3820
3.00867	3818
3.00933	3817
3.01000	3815
3.01067	3814
3.01133	3812
3.01200	3811
3.01267	3809
3.01333	3808
3.01400	3806
3.01467	3805
3.01533	3804
3.01600	3802
3.01667	3801
3.01733	3799
3.01800	3798
3.01867	3797
3.01933	3795
3.02000	3794
3.02067	3793
3.02133	3791
3.02200	3790
3.02267	3789
3.02333	3788
3.02400	3786
3.02467	3785
3.02533	3784
3.02600	3783
3.02667	3781
3.02733	3780
3.02800	3779
3.02867	3778
3.02933	3776
3.03000	3775
3.03067	3774
3.03133	3773
3.03200	3772
3.03267	3771
3.03333	3770
3.03400	3769
3.03467	3768
3.03533	3767
3.03600	3766
3.03667	3765
3.03733	3764
3.03800	3763
3.03867	3762
3.03933	3761
3.04000	3760
3.04067	3759
3.04133	3759
3.04200	3758
3.04267	3757
3.04333	3756
3.04400	3755
3.04467	3754
3.04533	3753
3.04600	3752
3.04667	3751
3.04733	3751
3.04800	3750
3.04867	3749
3.04933	3748
3.05000	3748
3.05067	3747
3.05133	3746
3.05200	3746
3.05267	3745
3.05333	3745
3.05400	3744
3.05467	3744
3.05533	3743
3.05600	3743
3.05667	3742
3.05733	3742
3.05800	3741
3.05867	3741
3.05933	3741
3.06000	3740
3.06067	3740
3.06133	3740
3.06200	3739
3.06267	3739
3.06333	3739
3.06400	3738
3.06467	3738
3.06533	3738
3.06600	3737
3.06667	3737
3.06733	3737
3.06800	3737
3.06867	3736
3.06933	3736
3.07000	3736
3.07067	3736
3.07133	3736
3.07200	3735
3.07267	3735
3.07333	3735
3.07400	3735
3.07467	3735
3.07533	3735
3.07600	3734
3.07667	3734
3.07733	3734
3.07800	3734
3.07867	3734
3.07933	3734
3.08000	3733
3.08067	3733
3.08133	3733
3.08200	3733
3.08267	3733
3.08333	3733
3.08400	3733
3.08467	3732
3.08533	3732
3.08600	3732
3.08667	3732
3.08733	3732
3.08800	3732
3.08867	3732
3.08933	3732
3.09000	3732
3.09067	3731
3.09133	3731
3.09200	3731
3.09267	3731
3.09333	3731
3.09400	3731
3.09467	3730
3.09533	3730
3.09600	3730
3.09667	3730
3.09733	3730
3.09800	3729
3.09867	3729
3.09933	3729
3.10000	3729
3.10067	3729
3.10133	3728
3.10200	3728
3.10267	3728
3.10333	3728
3.10400	3728
3.10467	3728
3.10533	3727
3.10600	3727
3.10667	3727
3.10733	3727
3.10800	3727
3.10867	3727
3.10933	3727
3.11000	3726
3.11067	3726
3.11133	3726
3.11200	3726
3.11267	3725
3.11333	3725
3.11400	3725
3.11467	3725
3.11533	3724
3.11600	3724
3.11667	3724
3.11733	3723
3.11800	3723
3.11867	3722
3.11933	3722
3.12000	3722
3.12067	3721
3.12133	3721
3.12200	3721
3.12267	3720
3.12333	3720
3.12400	3720
3.12467	3719
3.12533	3719
3.12600	3719
3.12667	3718
3.12733	3718
3.12800	3717
3.12867	3717
3.12933	3716
3.13000	3716
3.13067	3715
3.13133	3715
3.13200	3714
3.13267	3714
3.13333	3713
3.13400	3713
3.13467	3712
3.13533	3712
3.13600	3711
3.13667	3711
3.13733	3710
3.13800	3710
3.13867	3710
3.13933	3709
3.14000	3709
3.14067	3709
3.14133	3708
3.14200	3708
3.14267	3708
3.14333	3707
3.14400	3707
3.14467	3707
3.14533	3707
3.14600	3707
3.14667	3706
3.14733	3706
3.14800	3706
3.14867	3706
3.14933	3706
3.15000	3706
3.15067	3706
3.15133	3705
3.15200	3705
3.15267	3705
3.15333	3705
3.15400	3705
3.15467	3705
3.15533	3705
3.15600	3705
3.15667	3705
3.15733	3705
3.15800	3705
3.15867	3705
3.15933	3705
3.16000	3704
3.16067	3704
3.16133	3704
3.16200	3704
3.16267	3704
3.16333	3704
3.16400	3704
3.16467	3704
3.16533	3704
3.16600	3704
3.16667	3704
3.16733	3704
3.16800	3703
3.16867	3703
3.16933	3703
3.17000	3703
3.17067	3703
3.17133	3703
3.17200	3703
3.17267	3703
3.17333	3703
3.17400	3702
3.17467	3702
3.17533	3702
3.17600	3702
3.17667	3702
3.17733	3702
3.17800	3702
3.17867	3702
3.17933	3701
3.18000	3701
3.18067	3701
3.18133	3701
3.18200	3701
3.18267	3701
3.18333	3701
3.18400	3701
3.18467	3701
3.18533	3701
3.18600	3701
3.18667	3701
3.18733	3701
3.18800	3701
3.18867	3701
3.18933	3701
3.19000	3701
3.19067	3701
3.19133	3701
3.19200	3701
3.19267	3701
3.19333	3701
3.19400	3701
3.19467	3702
3.19533	3702
3.19600	3702
3.19667	3702
3.19733	3702
3.19800	3702
3.19867	3703
3.19933	3703
3.20000	3703
3.20067	3703
3.20133	3703
3.20200	3703
3.20267	3703
3.20333	3703
3.20400	3704
3.20467	3704
3.20533	3704
3.20600	3704
3.20667	3704
3.20733	3704
3.20800	3704
3.20867	3704
3.20933	3704
3.21000	3704
3.21067	3705
3.21133	3705
3.21200	3705
3.21267	3705
3.21333	3705
3.21400	3705
3.21467	3706
3.21533	3706
3.21600	3706
3.21667	3706
3.21733	3707
3.21800	3707
3.21867	3707
3.21933	3708
3.22000	3708
3.22067	3708
3.22133	3709
3.22200	3709
3.22267	3710
3.22333	3710
3.22400	3710
3.22467	3711
3.22533	3711
3.22600	3712
3.22667	3712
3.22733	3712
3.22800	3713
3.22867	3713
3.22933	3714
3.23000	3714
3.23067	3715
3.23133	3715
3.23200	3715
3.23267	3716
3.23333	3716
3.23400	3717
3.23467	3717
3.23533	3718
3.23600	3719
3.23667	3719
3.23733	3720
3.23800	3720
3.23867	3721
3.23933	3721
3.24000	3722
3.24067	3723
3.24133	3723
3.24200	3724
3.24267	3725
3.24333	3725
3.24400	3726
3.24467	3727
3.24533	3727
3.24600	3728
3.24667	3729
3.24733	3730
3.24800	3730
3.24867	3731
3.24933	3732
3.25000	3733
3.25067	3734
3.25133	3735
3.25200	3735
3.25267	3736
3.25333	3737
3.25400	3738
3.25467	3739
3.25533	3740
3.25600	3741
3.25667	3742
3.25733	3742
3.25800	3743
3.25867	3744
3.25933	3745
3.26000	3746
3.26067	3747
3.26133	3748
3.26200	3749
3.26267	3749
3.26333	3750
3.26400	3751
3.26467	3752
3.26533	3753
3.26600	3754
3.26667	3755
3.26733	3756
3.26800	3757
3.26867	3758
3.26933	3759
3.27000	3760
3.27067	3760
3.27133	3761
3.27200	3762
3.27267	3763
3.27333	3764
3.27400	3765
3.27467	3766
3.27533	3766
3.27600	3767
3.27667	3768
3.27733	3769
3.27800	3770
3.27867	3771
3.27933	3772
3.28000	3773
3.28067	3774
3.28133	3775
3.28200	3776
3.28267	3777
3.28333	3778
3.28400	3779
3.28467	3780
3.28533	3781
3.28600	3781
3.28667	3782
3.28733	3783
3.28800	3784
3.28867	3785
3.28933	3786
3.29000	3787
3.29067	3788
3.29133	3789
3.29200	3790
3.29267	3791
3.29333	3792
3.29400	3793
3.29467	3794
3.29533	3795
3.29600	3796
3.29667	3797
3.29733	3798
3.29800	3799
3.29867	3800
3.29933	3801
3.30000	3802
3.30067	3803
3.30133	3804
3.30200	3805
3.30267	3806
3.30333	3806
3.30400	3807
3.30467	3808
3.30533	3809
3.30600	3810
3.30667	3811
3.30733	3812
3.30800	3813
3.30867	3814
3.30933	3815
3.31000	3816
3.31067	3817
3.31133	3817
3.31200	3818
3.31267	3819
3.31333	3820
3.31400	3821
3.31467	3822
3.31533	3822
3.31600	3823
3.31667	3824
3.31733	3824
3.31800	3825
3.31867	3826
3.31933	3826
3.32000	3827
3.32067	3828
3.32133	3828
3.32200	3829
3.32267	3830
3.32333	3830
3.32400	3831
3.32467	3831
3.32533	3832
3.32600	3832
3.32667	3833
3.32733	3833
3.32800	3834
3.32867	3834
3.32933	3834
3.33000	3834
3.33067	3835
3.33133	3835
3.33200	3835
3.33267	3836
3.33333	3836
3.33400	3836
3.33467	3836
3.33533	3837
3.33600	3837
3.33667	3837
3.33733	3837
3.33800	3837
3.33867	3838
3.33933	3838
3.34000	3838
3.34067	3838
3.34133	3838
3.34200	3839
3.34267	3839
3.34333	3839
3.34400	3839
3.34467	3839
3.34533	3840
3.34600	3840
3.34667	3840
3.34733	3840
3.34800	3840
3.34867	3841
3.34933	3841
3.35000	3841
3.35067	3841
3.35133	3841
3.35200	3842
3.35267	3842
3.35333	3842
3.35400	3842
3.35467	3843
3.35533	3843
3.35600	3843
3.35667	3843
3.35733	3844
3.35800	3844
3.35867	3844
3.35933	3845
3.36000	3845
3.36067	3845
3.36133	3846
3.36200	3846
3.36267	3846
3.36333	3847
3.36400	3847
3.36467	3847
3.36533	3848
3.36600	3848
3.36667	3848
3.36733	3849
3.36800	3849
3.36867	3849
3.36933	3850
3.37000	3850
3.37067	3850
3.37133	3850
3.37200	3851
3.37267	3851
3.37333	3851
3.37400	3851
3.37467	3852
3.37533	3852
3.37600	3852
3.37667	3852
3.37733	3853
3.37800	3853
3.37867	3853
3.37933	3853
3.38000	3854
3.38067	3854
3.38133	3854
3.38200	3854
3.38267	3854
3.38333	3854
3.38400	3855
3.38467	3855
3.38533	3855
3.38600	3855
3.38667	3855
3.38733	3855
3.38800	3855
3.38867	3855
3.38933	3855
3.39000	3856
3.39067	3856
3.39133	3856
3.39200	3856
3.39267	3856
3.39333	3857
3.39400	3857
3.39467	3857
3.39533	3857
3.39600	3858
3.39667	3858
3.39733	3858
3.39800	3858
3.39867	3858
3.39933	3859
3.40000	3859
3.40067	3859
3.40133	3859
3.40200	3859
3.40267	3859
3.40333	3860
3.40400	3860
3.40467	3860
3.40533	3860
3.40600	3860
3.40667	3860
3.40733	3860
3.40800	3860
3.40867	3861
3.40933	3861
3.41000	3861
3.41067	3861
3.41133	3861
3.41200	3861
3.41267	3861
3.41333	3861
3.41400	3861
3.41467	3861
3.41533	3861
3.41600	3861
3.41667	3861
3.41733	3862
3.41800	3862
3.41867	3862
3.41933	3862
3.42000	3862
3.42067	3862
3.42133	3862
3.42200	3862
3.42267	3862
3.42333	3862
3.42400	3862
3.42467	3862
3.42533	3862
3.42600	3861
3.42667	3861
3.42733	3861
3.42800	3861
3.42867	3861
3.42933	3860
3.43000	3860
3.43067	3860
3.43133	3860
3.43200	3860
3.43267	3860
3.43333	3860
3.43400	3859
3.43467	3859
3.43533	3859
3.43600	3859
3.43667	3859
3.43733	3859
3.43800	3859
3.43867	3859
3.43933	3859
3.44000	3858
3.44067	3858
3.44133	3858
3.44200	3858
3.44267	3858
3.44333	3858
3.44400	3858
3.44467	3858
3.44533	3858
3.44600	3858
3.44667	3858
3.44733	3859
3.44800	3859
3.44867	3859
3.44933	3859
3.45000	3860
3.45067	3860
3.45133	3861
3.45200	3861
3.45267	3862
3.45333	3862
3.45400	3863
3.45467	3864
3.45533	3864
3.45600	3865
3.45667	3866
3.45733	3866
3.45800	3867
3.45867	3868
3.45933	3869
3.46000	3870
3.46067	3871
3.46133	3872
3.46200	3873
3.46267	3874
3.46333	3875
3.46400	3876
3.46467	3877
3.46533	3878
3.46600	3880
3.46667	3881
3.46733	3882
3.46800	3883
3.46867	3884
3.46933	3885
3.47000	3887
3.47067	3888
3.47133	3889
3.47200	3890
3.47267	3892
3.47333	3893
3.47400	3895
3.47467	3896
3.47533	3898
3.47600	3899
3.47667	3901
3.47733	3903
3.47800	3904
3.47867	3906
3.47933	3908
3.48000	3910
3.48067	3912
3.48133	3914
3.48200	3916
3.48267	3918
3.48333	3920
3.48400	3923
3.48467	3925
3.48533	3928
3.48600	3930
3.48667	3933
3.48733	3935
3.48800	3938
3.48867	3941
3.48933	3944
3.49000	3947
3.49067	3950
3.49133	3954
3.49200	3957
3.49267	3961
3.49333	3964
3.49400	3968
3.49467	3972
3.49533	3976
3.49600	3981
3.49667	3985
3.49733	3990
3.49800	3995
3.49867	4001
3.49933	4006
3.50000	4012
3.50067	4018
3.50133	4025
3.50200	4032
3.50267	4039
3.50333	4046
3.50400	4054
3.50467	4062
3.50533	4071
3.50600	4080
3.50667	4089
3.50733	4099
3.50800	4109
3.50867	4120
3.50933	4131
3.51000	4143
3.51067	4156
3.51133	4168
3.51200	4182
3.51267	4196
3.51333	4210
3.51400	4226
3.51467	4241
3.51533	4258
3.51600	4274
3.51667	4292
3.51733	4310
3.51800	4329
3.51867	4349
3.51933	4369
3.52000	4390
3.52067	4411
3.52133	4434
3.52200	4457
3.52267	4480
3.52333	4505
3.52400	4530
3.52467	4556
3.52533	4583
3.52600	4610
3.52667	4639
3.52733	4668
3.52800	4697
3.52867	4728
3.52933	4759
3.53000	4792
3.53067	4825
3.53133	4858
3.53200	4893
3.53267	4928
3.53333	4963
3.53400	5000
3.53467	5037
3.53533	5075
3.53600	5113
3.53667	5152
3.53733	5191
3.53800	5232
3.53867	5272
3.53933	5313
3.54000	5354
3.54067	5396
3.54133	5439
3.54200	5481
3.54267	5524
3.54333	5567
3.54400	5611
3.54467	5655
3.54533	5698
3.54600	5742
3.54667	5787
3.54733	5831
3.54800	5875
3.54867	5920
3.54933	5964
3.55000	6009
3.55067	6053
3.55133	6097
3.55200	6142
3.55267	6186
3.55333	6230
3.55400	6274
3.55467	6317
3.55533	6361
3.55600	6403
3.55667	6446
3.55733	6488
3.55800	6530
3.55867	6571
3.55933	6612
3.56000	6652
3.56067	6692
3.56133	6731
3.56200	6769
3.56267	6807
3.56333	6844
3.56400	6881
3.56467	6917
3.56533	6952
3.56600	6986
3.56667	7020
3.56733	7053
3.56800	7085
3.56867	7117
3.56933	7147
3.57000	7177
3.57067	7206
3.57133	7235
3.57200	7262
3.57267	7288
3.57333	7314
3.57400	7339
3.57467	7363
3.57533	7386
3.57600	7408
3.57667	7429
3.57733	7450
3.57800	7469
3.57867	7488
3.57933	7507
3.58000	7524
3.58067	7541
3.58133	7557
3.58200	7572
3.58267	7586
3.58333	7600
3.58400	7613
3.58467	7625
3.58533	7637
3.58600	7648
3.58667	7658
3.58733	7668
3.58800	7677
3.58867	7685
3.58933	7693
3.59000	7700
3.59067	7707
3.59133	7713
3.59200	7719
3.59267	7723
3.59333	7728
3.59400	7732
3.59467	7735
3.59533	7738
3.59600	7741
3.59667	7743
3.59733	7744
3.59800	7746
3.59867	7746
3.59933	7746
3.60000	7746
3.60067	7745
3.60133	7744
3.60200	7742
3.60267	7740
3.60333	7737
3.60400	7734
3.60467	7730
3.60533	7726
3.60600	7722
3.60667	7717
3.60733	7711
3.60800	7706
3.60867	7699
3.60933	7693
3.61000	7685
3.61067	7678
3.61133	7669
3.61200	7661
3.61267	7651
3.61333	7642
3.61400	7632
3.61467	7621
3.61533	7610
3.61600	7598
3.61667	7585
3.61733	7572
3.61800	7559
3.61867	7545
3.61933	7530
3.62000	7514
3.62067	7499
3.62133	7482
3.62200	7465
3.62267	7447
3.62333	7429
3.62400	7410
3.62467	7391
3.62533	7371
3.62600	7351
3.62667	7330
3.62733	7308
3.62800	7286
3.62867	7264
3.62933	7241
3.63000	7217
3.63067	7193
3.63133	7168
3.63200	7143
3.63267	7118
3.63333	7092
3.63400	7065
3.63467	7038
3.63533	7011
3.63600	6983
3.63667	6955
3.63733	6926
3.63800	6897
3.63867	6867
3.63933	6837
3.64000	6807
3.64067	6776
3.64133	6745
3.64200	6714
3.64267	6682
3.64333	6650
3.64400	6618
3.64467	6586
3.64533	6553
3.64600	6520
3.64667	6488
3.64733	6455
3.64800	6421
3.64867	6388
3.64933	6355
3.65000	6321
3.65067	6288
3.65133	6254
3.65200	6220
3.65267	6187
3.65333	6153
3.65400	6119
3.65467	6086
3.65533	6052
3.65600	6019
3.65667	5986
3.65733	5953
3.65800	5919
3.65867	5887
3.65933	5854
3.66000	5821
3.66067	5788
3.66133	5756
3.66200	5724
3.66267	5692
3.66333	5661
3.66400	5629
3.66467	5598
3.66533	5567
3.66600	5536
3.66667	5506
3.66733	5476
3.66800	5446
3.66867	5416
3.66933	5387
3.67000	5358
3.67067	5329
3.67133	5301
3.67200	5272
3.67267	5245
3.67333	5217
3.67400	5190
3.67467	5163
3.67533	5137
3.67600	5110
3.67667	5085
3.67733	5059
3.67800	5034
3.67867	5009
3.67933	4985
3.68000	4960
3.68067	4936
3.68133	4913
3.68200	4890
3.68267	4867
3.68333	4844
3.68400	4822
3.68467	4800
3.68533	4779
3.68600	4758
3.68667	4737
3.68733	4716
3.68800	4696
3.68867	4676
3.68933	4657
3.69000	4638
3.69067	4619
3.69133	4600
3.69200	4582
3.69267	4564
3.69333	4546
3.69400	4529
3.69467	4512
3.69533	4495
3.69600	4479
3.69667	4462
3.69733	4447
3.69800	4431
3.69867	4415
3.69933	4400
3.70000	4385
3.70067	4371
3.70133	4356
3.70200	4342
3.70267	4328
3.70333	4315
3.70400	4301
3.70467	4288
3.70533	4275
3.70600	4262
3.70667	4249
3.70733	4237
3.70800	4225
3.70867	4213
3.70933	4201
3.71000	4189
3.71067	4178
3.71133	4167
3.71200	4156
3.71267	4145
3.71333	4134
3.71400	4124
3.71467	4114
3.71533	4104
3.71600	4094
3.71667	4084
3.71733	4075
3.71800	4065
3.71867	4056
3.71933	4047
3.72000	4038
3.72067	4030
3.72133	4021
3.72200	4013
3.72267	4004
3.72333	3996
3.72400	3988
3.72467	3981
3.72533	3973
3.72600	3965
3.72667	3958
3.72733	3951
3.72800	3944
3.72867	3937
3.72933	3930
3.73000	3923
3.73067	3917
3.73133	3910
3.73200	3904
3.73267	3897
3.73333	3891
3.73400	3885
3.73467	3879
3.73533	3874
3.73600	3868
3.73667	3862
3.73733	3856
3.73800	3851
3.73867	3845
3.73933	3840
3.74000	3835
3.74067	3830
3.74133	3824
3.74200	3819
3.74267	3814
3.74333	3810
3.74400	3805
3.74467	3800
3.74533	3795
3.74600	3791
3.74667	3786
3.74733	3781
3.74800	3777
3.74867	3772
3.74933	3768
3.75000	3764
3.75067	3760
3.75133	3755
3.75200	3751
3.75267	3747
3.75333	3743
3.75400	3739
3.75467	3735
3.75533	3732
3.75600	3728
3.75667	3724
3.75733	3721
3.75800	3717
3.75867	3713
3.75933	3710
3.76000	3706
3.76067	3703
3.76133	3700
3.76200	3696
3.76267	3693
3.76333	3690
3.76400	3687
3.76467	3684
3.76533	3681
3.76600	3678
3.76667	3675
3.76733	3672
3.76800	3669
3.76867	3666
3.76933	3663
3.77000	3660
3.77067	3657
3.77133	3654
3.77200	3651
3.77267	3648
3.77333	3645
3.77400	3643
3.77467	3640
3.77533	3637
3.77600	3635
3.77667	3632
3.77733	3629
3.77800	3627
3.77867	3624
3.77933	3622
3.78000	3619
3.78067	3617
3.78133	3614
3.78200	3612
3.78267	3609
3.78333	3607
3.78400	3605
3.78467	3603
3.78533	3600
3.78600	3598
3.78667	3596
3.78733	3594
3.78800	3591
3.78867	3589
3.78933	3587
3.79000	3585
3.79067	3583
3.79133	3581
3.79200	3579
3.79267	3577
3.79333	3575
3.79400	3573
3.79467	3571
3.79533	3569
3.79600	3568
3.79667	3566
3.79733	3564
3.79800	3562
3.79867	3560
3.79933	3558
3.80000	3557
3.80067	3555
3.80133	3553
3.80200	3551
3.80267	3550
3.80333	3548
3.80400	3546
3.80467	3544
3.80533	3543
3.80600	3541
3.80667	3539
3.80733	3537
3.80800	3536
3.80867	3534
3.80933	3532
3.81000	3530
3.81067	3529
3.81133	3527
3.81200	3525
3.81267	3524
3.81333	3522
3.81400	3520
3.81467	3519
3.81533	3517
3.81600	3516
3.81667	3514
3.81733	3512
3.81800	3511
3.81867	3509
3.81933	3508
3.82000	3506
3.82067	3504
3.82133	3503
3.82200	3501
3.82267	3500
3.82333	3498
3.82400	3497
3.82467	3495
3.82533	3494
3.82600	3492
3.82667	3491
3.82733	3489
3.82800	3488
3.82867	3486
3.82933	3485
3.83000	3484
3.83067	3482
3.83133	3481
3.83200	3480
3.83267	3478
3.83333	3477
3.83400	3476
3.83467	3475
3.83533	3473
3.83600	3472
3.83667	3471
3.83733	3470
3.83800	3469
3.83867	3468
3.83933	3466
3.84000	3465
3.84067	3464
3.84133	3463
3.84200	3462
3.84267	3461
3.84333	3460
3.84400	3459
3.84467	3458
3.84533	3457
3.84600	3456
3.84667	3455
3.84733	3454
3.84800	3453
3.84867	3452
3.84933	3450
3.85000	3449
3.85067	3448
3.85133	3447
3.85200	3446
3.85267	3445
3.85333	3444
3.85400	3443
3.85467	3442
3.85533	3441
3.85600	3440
3.85667	3439
3.85733	3439
3.85800	3438
3.85867	3437
3.85933	3436
3.86000	3435
3.86067	3434
3.86133	3434
3.86200	3433
3.86267	3432
3.86333	3431
3.86400	3430
3.86467	3429
3.86533	3429
3.86600	3428
3.86667	3427
3.86733	3426
3.86800	3425
3.86867	3424
3.86933	3424
3.87000	3423
3.87067	3422
3.87133	3421
3.87200	3420
3.87267	3420
3.87333	3419
3.87400	3418
3.87467	3418
3.87533	3417
3.87600	3416
3.87667	3415
3.87733	3415
3.87800	3414
3.87867	3413
3.87933	3413
3.88000	3412
3.88067	3411
3.88133	3410
3.88200	3410
3.88267	3409
3.88333	3408
3.88400	3407
3.88467	3407
3.88533	3406
3.88600	3405
3.88667	3404
3.88733	3404
3.88800	3403
3.88867	3402
3.88933	3402
3.89000	3401
3.89067	3401
3.89133	3400
3.89200	3399
3.89267	3399
3.89333	3398
3.89400	3397
3.89467	3397
3.89533	3396
3.89600	3395
3.89667	3395
3.89733	3394
3.89800	3394
3.89867	3393
3.89933	3392
3.90000	3392
3.90067	3391
3.90133	3390
3.90200	3390
3.90267	3389
3.90333	3389
3.90400	3388
3.90467	3387
3.90533	3387
3.90600	3386
3.90667	3386
3.90733	3385
3.90800	3385
3.90867	3384
3.90933	3384
3.91000	3383
3.91067	3383
3.91133	3382
3.91200	3382
3.91267	3381
3.91333	3381
3.91400	3380
3.91467	3380
3.91533	3379
3.91600	3379
3.91667	3379
3.91733	3378
3.91800	3378
3.91867	3377
3.91933	3377
3.92000	3376
3.92067	3376
3.92133	3375
3.92200	3375
3.92267	3375
3.92333	3374
3.92400	3374
3.92467	3374
3.92533	3373
3.92600	3373
3.92667	3373
3.92733	3372
3.92800	3372
3.92867	3372
3.92933	3372
3.93000	3371
3.93067	3371
3.93133	3371
3.93200	3371
3.93267	3371
3.93333	3370
3.93400	3370
3.93467	3370
3.93533	3370
3.93600	3369
3.93667	3369
3.93733	3369
3.93800	3368
3.93867	3368
3.93933	3367
3.94000	3367
3.94067	3367
3.94133	3366
3.94200	3366
3.94267	3366
3.94333	3365
3.94400	3365
3.94467	3365
3.94533	3364
3.94600	3364
3.94667	3363
3.94733	3363
3.94800	3363
3.94867	3362
3.94933	3362
3.95000	3362
3.95067	3361
3.95133	3361
3.95200	3361
3.95267	3360
3.95333	3360
3.95400	3360
3.95467	3360
3.95533	3359
3.95600	3359
3.95667	3359
3.95733	3358
3.95800	3358
3.95867	3358
3.95933	3358
3.96000	3357
3.96067	3357
3.96133	3357
3.96200	3357
3.96267	3357
3.96333	3357
3.96400	3356
3.96467	3356
3.96533	3356
3.96600	3356
3.96667	3356
3.96733	3356
3.96800	3356
3.96867	3356
3.96933	3356
3.97000	3356
3.97067	3356
3.97133	3356
3.97200	3356
3.97267	3356
3.97333	3356
3.97400	3356
3.97467	3356
3.97533	3356
3.97600	3356
3.97667	3356
3.97733	3356
3.97800	3356
3.97867	3356
3.97933	3356
3.98000	3356
3.98067	3356
3.98133	3356
3.98200	3356
3.98267	3356
3.98333	3357
3.98400	3357
3.98467	3357
3.98533	3357
3.98600	3357
3.98667	3357
3.98733	3357
3.98800	3358
3.98867	3358
3.98933	3358
3.99000	3358
3.99067	3358
3.99133	3359
3.99200	3359
3.99267	3359
3.99333	3360
3.99400	3360
3.99467	3360
3.99533	3361
3.99600	3361
3.99667	3362
3.99733	3362
3.99800	3362
3.99867	3363
3.99933	3363
4.00000	3364
4.00067	3364
4.00133	3365
4.00200	3365
4.00267	3366
4.00333	3367
4.00400	3367
4.00467	3368
4.00533	3369
4.00600	3369
4.00667	3370
4.00733	3371
4.00800	3371
4.00867	3372
4.00933	3373
4.01000	3374
4.01067	3375
4.01133	3376
4.01200	3377
4.01267	3378
4.01333	3378
4.01400	3379
4.01467	3380
4.01533	3381
4.01600	3382
4.01667	3383
4.01733	3385
4.01800	3386
4.01867	3387
4.01933	3388
4.02000	3389
4.02067	3390
4.02133	3391
4.02200	3392
4.02267	3393
4.02333	3394
4.02400	3396
4.02467	3397
4.02533	3398
4.02600	3399
4.02667	3401
4.02733	3402
4.02800	3403
4.02867	3405
4.02933	3406
4.03000	3408
4.03067	3409
4.03133	3411
4.03200	3413
4.03267	3414
4.03333	3416
4.03400	3418
4.03467	3420
4.03533	3422
4.03600	3424
4.03667	3425
4.03733	3427
4.03800	3429
4.03867	3431
4.03933	3433
4.04000	3435
4.04067	3437
4.04133	3439
4.04200	3441
4.04267	3444
4.04333	3446
4.04400	3448
4.04467	3450
4.04533	3453
4.04600	3455
4.04667	3457
4.04733	3460
4.04800	3462
4.04867	3465
4.04933	3467
4.05000	3470
4.05067	3472
4.05133	3475
4.05200	3478
4.05267	3480
4.05333	3483
4.05400	3486
4.05467	3489
4.05533	3492
4.05600	3495
4.05667	3498
4.05733	3501
4.05800	3504
4.05867	3507
4.05933	3511
4.06000	3514
4.06067	3517
4.06133	3520
4.06200	3524
4.06267	3527
4.06333	3530
4.06400	3534
4.06467	3537
4.06533	3540
4.06600	3544
4.06667	3547
4.06733	3551
4.06800	3554
4.06867	3558
4.06933	3562
4.07000	3565
4.07067	3569
4.07133	3572
4.07200	3576
4.07267	3580
4.07333	3583
4.07400	3587
4.07467	3591
4.07533	3595
4.07600	3598
4.07667	3602
4.07733	3606
4.07800	3610
4.07867	3614
4.07933	3618
4.08000	3622
4.08067	3626
4.08133	3630
4.08200	3634
4.08267	3638
4.08333	3642
4.08400	3646
4.08467	3650
4.08533	3654
4.08600	3658
4.08667	3663
4.08733	3667
4.08800	3671
4.08867	3675
4.08933	3680
4.09000	3684
4.09067	3688
4.09133	3692
4.09200	3697
4.09267	3701
4.09333	3705
4.09400	3709
4.09467	3713
4.09533	3718
4.09600	3722
4.09667	3726
4.09733	3730
4.09800	3734
4.09867	3739
4.09933	3743
4.10000	3747
4.10067	3751
4.10133	3755
4.10200	3759
4.10267	3762
4.10333	3766
4.10400	3770
4.10467	3773
4.10533	3777
4.10600	3781
4.10667	3784
4.10733	3787
4.10800	3791
4.10867	3794
4.10933	3797
4.11000	3800
4.11067	3804
4.11133	3807
4.11200	3810
4.11267	3813
4.11333	3816
4.11400	3819
4.11467	3821
4.11533	3824
4.11600	3827
4.11667	3830
4.11733	3832
4.11800	3835
4.11867	3837
4.11933	3840
4.12000	3842
4.12067	3844
4.12133	3846
4.12200	3848
4.12267	3850
4.12333	3852
4.12400	3854
4.12467	3856
4.12533	3858
4.12600	3860
4.12667	3861
4.12733	3863
4.12800	3864
4.12867	3866
4.12933	3867
4.13000	3868
4.13067	3870
4.13133	3871
4.13200	3872
4.13267	3873
4.13333	3873
4.13400	3874
4.13467	3875
4.13533	3875
4.13600	3876
4.13667	3876
4.13733	3876
4.13800	3877
4.13867	3877
4.13933	3877
4.14000	3877
4.14067	3877
4.14133	3877
4.14200	3877
4.14267	3877
4.14333	3876
4.14400	3876
4.14467	3876
4.14533	3875
4.14600	3875
4.14667	3874
4.14733	3874
4.14800	3873
4.14867	3873
4.14933	3872
4.15000	3872
4.15067	3871
4.15133	3870
4.15200	3870
4.15267	3869
4.15333	3868
4.15400	3868
4.15467	3867
4.15533	3866
4.15600	3865
4.15667	3864
4.15733	3863
4.15800	3863
4.15867	3862
4.15933	3861
4.16000	3860
4.16067	3859
4.16133	3858
4.16200	3857
4.16267	3856
4.16333	3856
4.16400	3855
4.16467	3854
4.16533	3853
4.16600	3853
4.16667	3852
4.16733	3852
4.16800	3851
4.16867	3851
4.16933	3850
4.17000	3850
4.17067	3850
4.17133	3850
4.17200	3850
4.17267	3850
4.17333	3851
4.17400	3851
4.17467	3851
4.17533	3852
4.17600	3852
4.17667	3853
4.17733	3854
4.17800	3855
4.17867	3856
4.17933	3857
4.18000	3858
4.18067	3860
4.18133	3861
4.18200	3863
4.18267	3865
4.18333	3867
4.18400	3869
4.18467	3871
4.18533	3873
4.18600	3876
4.18667	3878
4.18733	3881
4.18800	3884
4.18867	3887
4.18933	3890
4.19000	3893
4.19067	3897
4.19133	3900
4.19200	3904
4.19267	3908
4.19333	3912
4.19400	3916
4.19467	3921
4.19533	3926
4.19600	3930
4.19667	3936
4.19733	3941
4.19800	3946
4.19867	3952
4.19933	3958
4.20000	3964
4.20067	3970
4.20133	3977
4.20200	3983
4.20267	3990
4.20333	3998
4.20400	4005
4.20467	4013
4.20533	4021
4.20600	4029
4.20667	4037
4.20733	4046
4.20800	4055
4.20867	4064
4.20933	4074
4.21000	4084
4.21067	4094
4.21133	4105
4.21200	4115
4.21267	4127
4.21333	4138
4.21400	4150
4.21467	4162
4.21533	4175
4.21600	4187
4.21667	4201
4.21733	4214
4.21800	4228
4.21867	4243
4.21933	4258
4.22000	4273
4.22067	4289
4.22133	4306
4.22200	4322
4.22267	4340
4.22333	4357
4.22400	4375
4.22467	4394
4.22533	4413
4.22600	4433
4.22667	4453
4.22733	4473
4.22800	4494
4.22867	4516
4.22933	4538
4.23000	4560
4.23067	4583
4.23133	4607
4.23200	4631
4.23267	4656
4.23333	4682
4.23400	4708
4.23467	4734
4.23533	4762
4.23600	4790
4.23667	4818
4.23733	4847
4.23800	4877
4.23867	4907
4.23933	4938
4.24000	4970
4.24067	5002
4.24133	5035
4.24200	5068
4.24267	5103
4.24333	5138
4.24400	5173
4.24467	5210
4.24533	5247
4.24600	5285
4.24667	5323
4.24733	5362
4.24800	5402
4.24867	5443
4.24933	5484
4.25000	5526
4.25067	5569
4.25133	5612
4.25200	5656
4.25267	5701
4.25333	5746
4.25400	5792
4.25467	5839
4.25533	5886
4.25600	5934
4.25667	5983
4.25733	6032
4.25800	6082
4.25867	6133
4.25933	6184
4.26000	6236
4.26067	6288
4.26133	6341
4.26200	6394
4.26267	6448
4.26333	6503
4.26400	6557
4.26467	6613
4.26533	6669
4.26600	6725
4.26667	6781
4.26733	6838
4.26800	6896
4.26867	6954
4.26933	7012
4.27000	7071
4.27067	7130
4.27133	7189
4.27200	7249
4.27267	7309
4.27333	7370
4.27400	7430
4.27467	7491
4.27533	7552
4.27600	7613
4.27667	7675
4.27733	7736
4.27800	7798
4.27867	7860
4.27933	7922
4.28000	7984
4.28067	8046
4.28133	8108
4.28200	8170
4.28267	8233
4.28333	8295
4.28400	8357
4.28467	8419
4.28533	8482
4.28600	8544
4.28667	8606
4.28733	8668
4.28800	8729
4.28867	8791
4.28933	8853
4.29000	8914
4.29067	8976
4.29133	9037
4.29200	9098
4.29267	9158
4.29333	9219
4.29400	9279
4.29467	9339
4.29533	9399
4.29600	9459
4.29667	9518
4.29733	9577
4.29800	9635
4.29867	9693
4.29933	9750
4.30000	9807
4.30067	9864
4.30133	9920
4.30200	9976
4.30267	10031
4.30333	10085
4.30400	10139
4.30467	10193
4.30533	10245
4.30600	10297
4.30667	10348
4.30733	10399
4.30800	10449
4.30867	10498
4.30933	10546
4.31000	10594
4.31067	10641
4.31133	10687
4.31200	10732
4.31267	10776
4.31333	10820
4.31400	10863
4.31467	10905
4.31533	10945
4.31600	10986
4.31667	11025
4.31733	11063
4.31800	11100
4.31867	11137
4.31933	11172
4.32000	11206
4.32067	11240
4.32133	11272
4.32200	11303
4.32267	11334
4.32333	11363
4.32400	11391
4.32467	11418
4.32533	11444
4.32600	11469
4.32667	11493
4.32733	11516
4.32800	11537
4.32867	11558
4.32933	11577
4.33000	11596
4.33067	11613
4.33133	11629
4.33200	11644
4.33267	11658
4.33333	11671
4.33400	11683
4.33467	11693
4.33533	11703
4.33600	11711
4.33667	11718
4.33733	11724
4.33800	11729
4.33867	11733
4.33933	11736
4.34000	11737
4.34067	11737
4.34133	11736
4.34200	11734
4.34267	11731
4.34333	11726
4.34400	11721
4.34467	11714
4.34533	11706
4.34600	11696
4.34667	11686
4.34733	11674
4.34800	11661
4.34867	11647
4.34933	11632
4.35000	11616
4.35067	11598
4.35133	11579
4.35200	11559
4.35267	11538
4.35333	11516
4.35400	11493
4.35467	11468
4.35533	11443
4.35600	11416
4.35667	11389
4.35733	11360
4.35800	11331
4.35867	11301
4.35933	11269
4.36000	11237
4.36067	11204
4.36133	11170
4.36200	11136
4.36267	11100
4.36333	11064
4.36400	11028
4.36467	10990
4.36533	10952
4.36600	10913
4.36667	10874
4.36733	10834
4.36800	10794
4.36867	10753
4.36933	10712
4.37000	10670
4.37067	10628
4.37133	10585
4.37200	10542
4.37267	10499
4.37333	10455
4.37400	10411
4.37467	10367
4.37533	10323
4.37600	10278
4.37667	10233
4.37733	10189
4.37800	10143
4.37867	10098
4.37933	10053
4.38000	10007
4.38067	9962
4.38133	9916
4.38200	9870
4.38267	9824
4.38333	9778
4.38400	9733
4.38467	9687
4.38533	9641
4.38600	9595
4.38667	9549
4.38733	9503
4.38800	9457
4.38867	9412
4.38933	9366
4.39000	9321
4.39067	9275
4.39133	9230
4.39200	9185
4.39267	9140
4.39333	9095
4.39400	9051
4.39467	9007
4.39533	8962
4.39600	8919
4.39667	8875
4.39733	8832
4.39800	8789
4.39867	8746
4.39933	8703
4.40000	8661
4.40067	8619
4.40133	8578
4.40200	8537
4.40267	8496
4.40333	8455
4.40400	8415
4.40467	8376
4.40533	8336
4.40600	8298
4.40667	8259
4.40733	8221
4.40800	8184
4.40867	8147
4.40933	8110
4.41000	8074
4.41067	8038
4.41133	8003
4.41200	7969
4.41267	7935
4.41333	7901
4.41400	7868
4.41467	7835
4.41533	7803
4.41600	7771
4.41667	7740
4.41733	7709
4.41800	7679
4.41867	7649
4.41933	7620
4.42000	7591
4.42067	7562
4.42133	7534
4.42200	7507
4.42267	7480
4.42333	7454
4.42400	7428
4.42467	7402
4.42533	7377
4.42600	7352
4.42667	7328
4.42733	7304
4.42800	7281
4.42867	7258
4.42933	7235
4.43000	7213
4.43067	7191
4.43133	7170
4.43200	7149
4.43267	7129
4.43333	7108
4.43400	7089
4.43467	7069
4.43533	7050
4.43600	7032
4.43667	7014
4.43733	6996
4.43800	6979
4.43867	6962
4.43933	6945
4.44000	6929
4.44067	6914
4.44133	6899
4.44200	6884
4.44267	6870
4.44333	6856
4.44400	6842
4.44467	6829
4.44533	6816
4.44600	6803
4.44667	6791
4.44733	6780
4.44800	6768
4.44867	6757
4.44933	6747
4.45000	6736
4.45067	6726
4.45133	6717
4.45200	6707
4.45267	6698
4.45333	6690
4.45400	6681
4.45467	6673
4.45533	6666
4.45600	6658
4.45667	6651
4.45733	6645
4.45800	6638
4.45867	6632
4.45933	6627
4.46000	6621
4.46067	6616
4.46133	6612
4.46200	6607
4.46267	6603
4.46333	6599
4.46400	6595
4.46467	6592
4.46533	6589
4.46600	6586
4.46667	6583
4.46733	6581
4.46800	6578
4.46867	6577
4.46933	6575
4.47000	6574
4.47067	6572
4.47133	6571
4.47200	6571
4.47267	6570
4.47333	6570
4.47400	6570
4.47467	6570
4.47533	6570
4.47600	6570
4.47667	6571
4.47733	6571
4.47800	6572
4.47867	6573
4.47933	6574
4.48000	6576
4.48067	6577
4.48133	6579
4.48200	6580
4.48267	6582
4.48333	6584
4.48400	6586
4.48467	6588
4.48533	6590
4.48600	6592
4.48667	6595
4.48733	6597
4.48800	6600
4.48867	6602
4.48933	6605
4.49000	6607
4.49067	6610
4.49133	6613
4.49200	6616
4.49267	6619
4.49333	6621
4.49400	6624
4.49467	6627
4.49533	6630
4.49600	6633
4.49667	6636
4.49733	6639
4.49800	6642
4.49867	6645
4.49933	6648
4.50000	6651
4.50067	6654
4.50133	6657
4.50200	6660
4.50267	6662
4.50333	6665
4.50400	6668
4.50467	6671
4.50533	6674
4.50600	6677
4.50667	6680
4.50733	6683
4.50800	6686
4.50867	6689
4.50933	6692
4.51000	6695
4.51067	6698
4.51133	6701
4.51200	6704
4.51267	6707
4.51333	6711
4.51400	6714
4.51467	6717
4.51533	6720
4.51600	6724
4.51667	6727
4.51733	6731
4.51800	6735
4.51867	6739
4.51933	6743
4.52000	6747
4.52067	6751
4.52133	6755
4.52200	6760
4.52267	6765
4.52333	6770
4.52400	6775
4.52467	6780
4.52533	6785
4.52600	6791
4.52667	6797
4.52733	6803
4.52800	6810
4.52867	6816
4.52933	6823
4.53000	6830
4.53067	6838
4.53133	6845
4.53200	6853
4.53267	6861
4.53333	6870
4.53400	6879
4.53467	6888
4.53533	6897
4.53600	6907
4.53667	6917
4.53733	6927
4.53800	6938
4.53867	6949
4.53933	6960
4.54000	6972
4.54067	6984
4.54133	6996
4.54200	7009
4.54267	7023
4.54333	7036
4.54400	7051
4.54467	7066
4.54533	7081
4.54600	7096
4.54667	7113
4.54733	7129
4.54800	7146
4.54867	7164
4.54933	7182
4.55000	7200
4.55067	7219
4.55133	7239
4.55200	7259
4.55267	7279
4.55333	7301
4.55400	7322
4.55467	7344
4.55533	7367
4.55600	7390
4.55667	7413
4.55733	7438
4.55800	7462
4.55867	7487
4.55933	7513
4.56000	7538
4.56067	7565
4.56133	7591
4.56200	7618
4.56267	7646
4.56333	7674
4.56400	7702
4.56467	7731
4.56533	7760
4.56600	7789
4.56667	7819
4.56733	7849
4.56800	7879
4.56867	7910
4.56933	7941
4.57000	7972
4.57067	8003
4.57133	8035
4.57200	8067
4.57267	8099
4.57333	8132
4.57400	8165
4.57467	8198
4.57533	8231
4.57600	8264
4.57667	8298
4.57733	8331
4.57800	8365
4.57867	8399
4.57933	8433
4.58000	8467
4.58067	8501
4.58133	8535
4.58200	8569
4.58267	8603
4.58333	8637
4.58400	8671
4.58467	8705
4.58533	8739
4.58600	8773
4.58667	8807
4.58733	8840
4.58800	8874
4.58867	8907
4.58933	8940
4.59000	8973
4.59067	9006
4.59133	9039
4.59200	9071
4.59267	9103
4.59333	9135
4.59400	9166
4.59467	9197
4.59533	9228
4.59600	9258
4.59667	9288
4.59733	9318
4.59800	9347
4.59867	9376
4.59933	9405
4.60000	9433
4.60067	9460
4.60133	9487
4.60200	9514
4.60267	9540
4.60333	9565
4.60400	9590
4.60467	9615
4.60533	9639
4.60600	9662
4.60667	9685
4.60733	9707
4.60800	9728
4.60867	9749
4.60933	9770
4.61000	9790
4.61067	9809
4.61133	9828
4.61200	9846
4.61267	9864
4.61333	9880
4.61400	9897
4.61467	9912
4.61533	9928
4.61600	9942
4.61667	9956
4.61733	9969
4.61800	9982
4.61867	9994
4.61933	10005
4.62000	10016
4.62067	10027
4.62133	10036
4.62200	10045
4.62267	10054
4.62333	10062
4.62400	10069
4.62467	10075
4.62533	10081
4.62600	10087
4.62667	10092
4.62733	10096
4.62800	10100
4.62867	10103
4.62933	10106
4.63000	10108
4.63067	10110
4.63133	10111
4.63200	10111
4.63267	10111
4.63333	10111
4.63400	10110
4.63467	10108
4.63533	10106
4.63600	10104
4.63667	10102
4.63733	10098
4.63800	10095
4.63867	10091
4.63933	10087
4.64000	10082
4.64067	10076
4.64133	10071
4.64200	10065
4.64267	10058
4.64333	10051
4.64400	10044
4.64467	10036
4.64533	10028
4.64600	10020
4.64667	10011
4.64733	10002
4.64800	9993
4.64867	9983
4.64933	9973
4.65000	9963
4.65067	9952
4.65133	9941
4.65200	9930
4.65267	9918
4.65333	9907
4.65400	9895
4.65467	9883
4.65533	9871
4.65600	9858
4.65667	9845
4.65733	9833
4.65800	9820
4.65867	9806
4.65933	9793
4.66000	9779
4.66067	9766
4.66133	9752
4.66200	9738
4.66267	9724
4.66333	9710
4.66400	9696
4.66467	9681
4.66533	9667
4.66600	9652
4.66667	9638
4.66733	9623
4.66800	9609
4.66867	9594
4.66933	9579
4.67000	9564
4.67067	9549
4.67133	9535
4.67200	9520
4.67267	9505
4.67333	9489
4.67400	9474
4.67467	9459
4.67533	9444
4.67600	9428
4.67667	9413
4.67733	9398
4.67800	9382
4.67867	9367
4.67933	9352
4.68000	9336
4.68067	9321
4.68133	9305
4.68200	9290
4.68267	9274
4.68333	9259
4.68400	9243
4.68467	9228
4.68533	9212
4.68600	9197
4.68667	9181
4.68733	9166
4.68800	9151
4.68867	9135
4.68933	9120
4.69000	9104
4.69067	9089
4.69133	9074
4.69200	9058
4.69267	9043
4.69333	9028
4.69400	9013
4.69467	8998
4.69533	8983
4.69600	8968
4.69667	8953
4.69733	8938
4.69800	8923
4.69867	8909
4.69933	8894
4.70000	8879
4.70067	8865
4.70133	8850
4.70200	8836
4.70267	8821
4.70333	8807
4.70400	8793
4.70467	8778
4.70533	8764
4.70600	8750
4.70667	8735
4.70733	8721
4.70800	8707
4.70867	8693
4.70933	8679
4.71000	8665
4.71067	8651
4.71133	8637
4.71200	8623
4.71267	8609
4.71333	8595
4.71400	8582
4.71467	8568
4.71533	8555
4.71600	8541
4.71667	8528
4.71733	8515
4.71800	8502
4.71867	8489
4.71933	8476
4.72000	8463
4.72067	8451
4.72133	8438
4.72200	8426
4.72267	8414
4.72333	8402
4.72400	8390
4.72467	8378
4.72533	8366
4.72600	8355
4.72667	8343
4.72733	8332
4.72800	8321
4.72867	8310
4.72933	8299
4.73000	8288
4.73067	8277
4.73133	8267
4.73200	8256
4.73267	8246
4.73333	8236
4.73400	8226
4.73467	8216
4.73533	8207
4.73600	8197
4.73667	8188
4.73733	8179
4.73800	8169
4.73867	8161
4.73933	8152
4.74000	8143
4.74067	8135
4.74133	8126
4.74200	8118
4.74267	8109
4.74333	8101
4.74400	8093
4.74467	8085
4.74533	8077
4.74600	8069
4.74667	8062
4.74733	8054
4.74800	8047
4.74867	8039
4.74933	8032
4.75000	8024
4.75067	8017
4.75133	8010
4.75200	8002
4.75267	7995
4.75333	7988
4.75400	7981
4.75467	7974
4.75533	7966
4.75600	7959
4.75667	7952
4.75733	7945
4.75800	7938
4.75867	7931
4.75933	7924
4.76000	7917
4.76067	7910
4.76133	7903
4.76200	7896
4.76267	7889
4.76333	7882
4.76400	7876
4.76467	7869
4.76533	7862
4.76600	7856
4.76667	7849
4.76733	7843
4.76800	7836
4.76867	7830
4.76933	7823
4.77000	7817
4.77067	7810
4.77133	7804
4.77200	7798
4.77267	7791
4.77333	7785
4.77400	7779
4.77467	7773
4.77533	7767
4.77600	7761
4.77667	7755
4.77733	7749
4.77800	7743
4.77867	7737
4.77933	7731
4.78000	7726
4.78067	7720
4.78133	7714
4.78200	7708
4.78267	7703
4.78333	7697
4.78400	7692
4.78467	7686
4.78533	7680
4.78600	7675
4.78667	7669
4.78733	7664
4.78800	7658
4.78867	7653
4.78933	7647
4.79000	7642
4.79067	7636
4.79133	7631
4.79200	7625
4.79267	7620
4.79333	7614
4.79400	7609
4.79467	7604
4.79533	7598
4.79600	7593
4.79667	7588
4.79733	7583
4.79800	7578
4.79867	7573
4.79933	7567
4.80000	7562
4.80067	7557
4.80133	7552
4.80200	7547
4.80267	7542
4.80333	7537
4.80400	7532
4.80467	7527
4.80533	7522
4.80600	7517
4.80667	7512
4.80733	7507
4.80800	7502
4.80867	7496
4.80933	7491
4.81000	7486
4.81067	7481
4.81133	7476
4.81200	7471
4.81267	7465
4.81333	7460
4.81400	7455
4.81467	7450
4.81533	7445
4.81600	7439
4.81667	7434
4.81733	7429
4.81800	7424
4.81867	7419
4.81933	7414
4.82000	7409
4.82067	7404
4.82133	7399
4.82200	7394
4.82267	7389
4.82333	7384
4.82400	7379
4.82467	7374
4.82533	7369
4.82600	7364
4.82667	7359
4.82733	7354
4.82800	7349
4.82867	7344
4.82933	7339
4.83000	7334
4.83067	7329
4.83133	7324
4.83200	7319
4.83267	7314
4.83333	7310
4.83400	7305
4.83467	7300
4.83533	7295
4.83600	7290
4.83667	7285
4.83733	7280
4.83800	7275
4.83867	7270
4.83933	7265
4.84000	7260
4.84067	7255
4.84133	7250
4.84200	7245
4.84267	7240
4.84333	7236
4.84400	7231
4.84467	7226
4.84533	7221
4.84600	7216
4.84667	7211
4.84733	7206
4.84800	7201
4.84867	7196
4.84933	7192
4.85000	7187
4.85067	7182
4.85133	7177
4.85200	7172
4.85267	7167
4.85333	7162
4.85400	7157
4.85467	7153
4.85533	7148
4.85600	7143
4.85667	7138
4.85733	7133
4.85800	7129
4.85867	7124
4.85933	7119
4.86000	7115
4.86067	7110
4.86133	7105
4.86200	7101
4.86267	7096
4.86333	7091
4.86400	7087
4.86467	7082
4.86533	7078
4.86600	7073
4.86667	7069
4.86733	7065
4.86800	7061
4.86867	7056
4.86933	7052
4.87000	7048
4.87067	7043
4.87133	7039
4.87200	7035
4.87267	7031
4.87333	7027
4.87400	7023
4.87467	7019
4.87533	7015
4.87600	7011
4.87667	7007
4.87733	7003
4.87800	6999
4.87867	6995
4.87933	6991
4.88000	6987
4.88067	6984
4.88133	6980
4.88200	6976
4.88267	6972
4.88333	6968
4.88400	6964
4.88467	6960
4.88533	6957
4.88600	6953
4.88667	6949
4.88733	6945
4.88800	6941
4.88867	6937
4.88933	6933
4.89000	6929
4.89067	6925
4.89133	6920
4.89200	6916
4.89267	6912
4.89333	6908
4.89400	6904
4.89467	6900
4.89533	6896
4.89600	6891
4.89667	6887
4.89733	6883
4.89800	6879
4.89867	6875
4.89933	6871
4.90000	6866
4.90067	6862
4.90133	6858
4.90200	6854
4.90267	6850
4.90333	6846
4.90400	6842
4.90467	6838
4.90533	6834
4.90600	6830
4.90667	6826
4.90733	6822
4.90800	6818
4.90867	6814
4.90933	6810
4.91000	6806
4.91067	6802
4.91133	6799
4.91200	6795
4.91267	6791
4.91333	6787
4.91400	6783
4.91467	6779
4.91533	6776
4.91600	6772
4.91667	6768
4.91733	6764
4.91800	6760
4.91867	6756
4.91933	6753
4.92000	6749
4.92067	6745
4.92133	6741
4.92200	6737
4.92267	6733
4.92333	6730
4.92400	6726
4.92467	6722
4.92533	6719
4.92600	6715
4.92667	6711
4.92733	6708
4.92800	6704
4.92867	6701
4.92933	6697
4.93000	6694
4.93067	6691
4.93133	6688
4.93200	6685
4.93267	6681
4.93333	6678
4.93400	6675
4.93467	6672
4.93533	6669
4.93600	6666
4.93667	6663
4.93733	6660
4.93800	6657
4.93867	6654
4.93933	6651
4.94000	6648
4.94067	6645
4.94133	6643
4.94200	6640
4.94267	6637
4.94333	6634
4.94400	6632
4.94467	6629
4.94533	6626
4.94600	6623
4.94667	6621
4.94733	6618
4.94800	6615
4.94867	6613
4.94933	6610
4.95000	6607
4.95067	6605
4.95133	6602
4.95200	6599
4.95267	6597
4.95333	6594
4.95400	6591
4.95467	6589
4.95533	6586
4.95600	6584
4.95667	6581
4.95733	6579
4.95800	6576
4.95867	6574
4.95933	6571
4.96000	6569
4.96067	6566
4.96133	6564
4.96200	6561
4.96267	6558
4.96333	6556
4.96400	6553
4.96467	6551
4.96533	6548
4.96600	6546
4.96667	6543
4.96733	6541
4.96800	6538
4.96867	6536
4.96933	6533
4.97000	6530
4.97067	6528
4.97133	6525
4.97200	6523
4.97267	6520
4.97333	6517
4.97400	6515
4.97467	6512
4.97533	6509
4.97600	6507
4.97667	6504
4.97733	6501
4.97800	6498
4.97867	6495
4.97933	6493
4.98000	6490
4.98067	6487
4.98133	6484
4.98200	6481
4.98267	6478
4.98333	6476
4.98400	6473
4.98467	6470
4.98533	6467
4.98600	6464
4.98667	6462
4.98733	6459
4.98800	6456
4.98867	6453
4.98933	6451
4.99000	6448
4.99067	6445
4.99133	6443
4.99200	6440
4.99267	6437
4.99333	6435
4.99400	6432
4.99467	6430
4.99533	6427
4.99600	6424
4.99667	6421
4.99733	6419
4.99800	6416
4.99867	6413
4.99933	6410
5.00000	6408
5.00067	6405
5.00133	6402
5.00200	6400
5.00267	6397
5.00333	6394
5.00400	6392
5.00467	6389
5.00533	6386
5.00600	6383
5.00667	6381
5.00733	6378
5.00800	6375
5.00867	6373
5.00933	6370
5.01000	6367
5.01067	6364
5.01133	6362
5.01200	6359
5.01267	6356
5.01333	6354
5.01400	6351
5.01467	6348
5.01533	6346
5.01600	6343
5.01667	6341
5.01733	6338
5.01800	6336
5.01867	6333
5.01933	6331
5.02000	6328
5.02067	6326
5.02133	6323
5.02200	6321
5.02267	6319
5.02333	6316
5.02400	6314
5.02467	6312
5.02533	6309
5.02600	6307
5.02667	6305
5.02733	6303
5.02800	6300
5.02867	6298
5.02933	6296
5.03000	6294
5.03067	6291
5.03133	6289
5.03200	6287
5.03267	6285
5.03333	6282
5.03400	6280
5.03467	6278
5.03533	6276
5.03600	6274
5.03667	6271
5.03733	6269
5.03800	6267
5.03867	6264
5.03933	6262
5.04000	6260
5.04067	6258
5.04133	6255
5.04200	6253
5.04267	6251
5.04333	6248
5.04400	6246
5.04467	6244
5.04533	6241
5.04600	6239
5.04667	6237
5.04733	6234
5.04800	6232
5.04867	6229
5.04933	6227
5.05000	6225
5.05067	6222
5.05133	6220
5.05200	6217
5.05267	6215
5.05333	6212
5.05400	6210
5.05467	6207
5.05533	6205
5.05600	6202
5.05667	6200
5.05733	6197
5.05800	6195
5.05867	6192
5.05933	6190
5.06000	6187
5.06067	6185
5.06133	6182
5.06200	6180
5.06267	6177
5.06333	6175
5.06400	6172
5.06467	6169
5.06533	6167
5.06600	6164
5.06667	6162
5.06733	6159
5.06800	6157
5.06867	6154
5.06933	6152
5.07000	6150
5.07067	6147
5.07133	6145
5.07200	6143
5.07267	6141
5.07333	6138
5.07400	6136
5.07467	6134
5.07533	6132
5.07600	6130
5.07667	6128
5.07733	6126
5.07800	6124
5.07867	6123
5.07933	6121
5.08000	6119
5.08067	6117
5.08133	6115
5.08200	6114
5.08267	6112
5.08333	6110
5.08400	6108
5.08467	6107
5.08533	6105
5.08600	6103
5.08667	6101
5.08733	6100
5.08800	6098
5.08867	6096
5.08933	6095
5.09000	6093
5.09067	6092
5.09133	6090
5.09200	6088
5.09267	6087
5.09333	6085
5.09400	6083
5.09467	6082
5.09533	6080
5.09600	6078
5.09667	6077
5.09733	6075
5.09800	6073
5.09867	6072
5.09933	6070
5.10000	6068
5.10067	6067
5.10133	6065
5.10200	6064
5.10267	6062
5.10333	6061
5.10400	6059
5.10467	6058
5.10533	6056
5.10600	6055
5.10667	6053
5.10733	6052
5.10800	6051
5.10867	6050
5.10933	6048
5.11000	6047
5.11067	6046
5.11133	6045
5.11200	6043
5.11267	6042
5.11333	6041
5.11400	6040
5.11467	6038
5.11533	6037
5.11600	6036
5.11667	6035
5.11733	6034
5.11800	6032
5.11867	6031
5.11933	6030
5.12000	6029
5.12067	6028
5.12133	6027
5.12200	6026
5.12267	6025
5.12333	6024
5.12400	6023
5.12467	6022
5.12533	6021
5.12600	6020
5.12667	6019
5.12733	6018
5.12800	6018
5.12867	6017
5.12933	6016
5.13000	6016
5.13067	6015
5.13133	6014
5.13200	6014
5.13267	6013
5.13333	6013
5.13400	6013
5.13467	6012
5.13533	6012
5.13600	6012
5.13667	6011
5.13733	6011
5.13800	6011
5.13867	6011
5.13933	6011
5.14000	6011
5.14067	6011
5.14133	6011
5.14200	6011
5.14267	6011
5.14333	6011
5.14400	6012
5.14467	6012
5.14533	6013
5.14600	6013
5.14667	6014
5.14733	6014
5.14800	6015
5.14867	6016
5.14933	6017
5.15000	6018
5.15067	6018
5.15133	6019
5.15200	6021
5.15267	6022
5.15333	6023
5.15400	6024
5.15467	6026
5.15533	6027
5.15600	6029
5.15667	6030
5.15733	6032
5.15800	6034
5.15867	6036
5.15933	6038
5.16000	6040
5.16067	6042
5.16133	6044
5.16200	6046
5.16267	6049
5.16333	6051
5.16400	6053
5.16467	6056
5.16533	6059
5.16600	6061
5.16667	6064
5.16733	6067
5.16800	6070
5.16867	6073
5.16933	6076
5.17000	6079
5.17067	6082
5.17133	6085
5.17200	6089
5.17267	6092
5.17333	6096
5.17400	6100
5.17467	6103
5.17533	6107
5.17600	6111
5.17667	6115
5.17733	6119
5.17800	6123
5.17867	6127
5.17933	6131
5.18000	6136
5.18067	6140
5.18133	6144
5.18200	6149
5.18267	6153
5.18333	6158
5.18400	6162
5.18467	6167
5.18533	6171
5.18600	6176
5.18667	6181
5.18733	6186
5.18800	6190
5.18867	6195
5.18933	6200
5.19000	6204
5.19067	6209
5.19133	6214
5.19200	6218
5.19267	6223
5.19333	6228
5.19400	6233
5.19467	6237
5.19533	6242
5.19600	6247
5.19667	6252
5.19733	6256
5.19800	6261
5.19867	6266
5.19933	6271
5.20000	6275
5.20067	6280
5.20133	6285
5.20200	6290
5.20267	6295
5.20333	6299
5.20400	6304
5.20467	6309
5.20533	6314
5.20600	6319
5.20667	6323
5.20733	6328
5.20800	6333
5.20867	6337
5.20933	6342
5.21000	6346
5.21067	6351
5.21133	6355
5.21200	6360
5.21267	6364
5.21333	6368
5.21400	6372
5.21467	6376
5.21533	6380
5.21600	6384
5.21667	6387
5.21733	6391
5.21800	6395
5.21867	6398
5.21933	6402
5.22000	6405
5.22067	6408
5.22133	6411
5.22200	6414
5.22267	6417
5.22333	6420
5.22400	6423
5.22467	6426
5.22533	6428
5.22600	6430
5.22667	6433
5.22733	6435
5.22800	6437
5.22867	6438
5.22933	6440
5.23000	6442
5.23067	6443
5.23133	6445
5.23200	6446
5.23267	6447
5.23333	6448
5.23400	6449
5.23467	6450
5.23533	6451
5.23600	6451
5.23667	6452
5.23733	6452
5.23800	6453
5.23867	6453
5.23933	6453
5.24000	6453
5.24067	6453
5.24133	6453
5.24200	6453
5.24267	6453
5.24333	6452
5.24400	6452
5.24467	6451
5.24533	6451
5.24600	6450
5.24667	6450
5.24733	6449
5.24800	6448
5.24867	6447
5.24933	6446
5.25000	6445
5.25067	6444
5.25133	6443
5.25200	6441
5.25267	6440
5.25333	6439
5.25400	6437
5.25467	6435
5.25533	6434
5.25600	6432
5.25667	6430
5.25733	6428
5.25800	6426
5.25867	6424
5.25933	6421
5.26000	6419
5.26067	6417
5.26133	6414
5.26200	6412
5.26267	6409
5.26333	6407
5.26400	6404
5.26467	6402
5.26533	6399
5.26600	6396
5.26667	6393
5.26733	6390
5.26800	6387
5.26867	6384
5.26933	6381
5.27000	6377
5.27067	6374
5.27133	6370
5.27200	6367
5.27267	6363
5.27333	6360
5.27400	6356
5.27467	6352
5.27533	6348
5.27600	6345
5.27667	6341
5.27733	6337
5.27800	6333
5.27867	6329
5.27933	6326
5.28000	6322
5.28067	6318
5.28133	6314
5.28200	6310
5.28267	6306
5.28333	6302
5.28400	6298
5.28467	6294
5.28533	6290
5.28600	6286
5.28667	6282
5.28733	6278
5.28800	6274
5.28867	6270
5.28933	6266
5.29000	6261
5.29067	6257
5.29133	6253
5.29200	6249
5.29267	6245
5.29333	6241
5.29400	6237
5.29467	6232
5.29533	6228
5.29600	6224
5.29667	6220
5.29733	6216
5.29800	6212
5.29867	6207
5.29933	6203
5.30000	6199
5.30067	6195
5.30133	6191
5.30200	6187
5.30267	6183
5.30333	6179
5.30400	6175
5.30467	6171
5.30533	6167
5.30600	6163
5.30667	6159
5.30733	6155
5.30800	6151
5.30867	6147
5.30933	6144
5.31000	6140
5.31067	6136
5.31133	6132
5.31200	6128
5.31267	6125
5.31333	6121
5.31400	6117
5.31467	6113
5.31533	6110
5.31600	6106
5.31667	6102
5.31733	6098
5.31800	6095
5.31867	6091
5.31933	6087
5.32000	6084
5.32067	6080
5.32133	6076
5.32200	6073
5.32267	6069
5.32333	6066
5.32400	6062
5.32467	6059
5.32533	6055
5.32600	6052
5.32667	6048
5.32733	6045
5.32800	6041
5.32867	6038
5.32933	6035
5.33000	6031
5.33067	6028
5.33133	6025
5.33200	6022
5.33267	6018
5.33333	6015
5.33400	6012
5.33467	6009
5.33533	6006
5.33600	6002
5.33667	5999
5.33733	5996
5.33800	5993
5.33867	5990
5.33933	5988
5.34000	5985
5.34067	5982
5.34133	5979
5.34200	5976
5.34267	5973
5.34333	5970
5.34400	5968
5.34467	5965
5.34533	5962
5.34600	5959
5.34667	5957
5.34733	5954
5.34800	5951
5.34867	5948
5.34933	5946
5.35000	5943
5.35067	5941
5.35133	5938
5.35200	5935
5.35267	5933
5.35333	5931
5.35400	5928
5.35467	5926
5.35533	5923
5.35600	5921
5.35667	5919
5.35733	5916
5.35800	5914
5.35867	5912
5.35933	5909
5.36000	5907
5.36067	5904
5.36133	5902
5.36200	5900
5.36267	5897
5.36333	5895
5.36400	5893
5.36467	5891
5.36533	5889
5.36600	5886
5.36667	5884
5.36733	5882
5.36800	5880
5.36867	5878
5.36933	5876
5.37000	5874
5.37067	5872
5.37133	5870
5.37200	5868
5.37267	5867
5.37333	5865
5.37400	5863
5.37467	5861
5.37533	5859
5.37600	5858
5.37667	5856
5.37733	5854
5.37800	5852
5.37867	5851
5.37933	5849
5.38000	5848
5.38067	5846
5.38133	5845
5.38200	5843
5.38267	5842
5.38333	5840
5.38400	5839
5.38467	5837
5.38533	5836
5.38600	5834
5.38667	5833
5.38733	5832
5.38800	5830
5.38867	5829
5.38933	5828
5.39000	5826
5.39067	5825
5.39133	5824
5.39200	5822
5.39267	5821
5.39333	5819
5.39400	5818
5.39467	5817
5.39533	5815
5.39600	5814
5.39667	5813
5.39733	5811
5.39800	5810
5.39867	5809
5.39933	5807
5.40000	5806
5.40067	5805
5.40133	5804
5.40200	5802
5.40267	5801
5.40333	5800
5.40400	5799
5.40467	5797
5.40533	5796
5.40600	5795
5.40667	5793
5.40733	5792
5.40800	5791
5.40867	5789
5.40933	5788
5.41000	5786
5.41067	5785
5.41133	5783
5.41200	5782
5.41267	5780
5.41333	5779
5.41400	5777
5.41467	5776
5.41533	5774
5.41600	5773
5.41667	5771
5.41733	5770
5.41800	5768
5.41867	5767
5.41933	5765
5.42000	5763
5.42067	5762
5.42133	5760
5.42200	5759
5.42267	5758
5.42333	5756
5.42400	5754
5.42467	5753
5.42533	5751
5.42600	5750
5.42667	5748
5.42733	5747
5.42800	5745
5.42867	5743
5.42933	5742
5.43000	5740
5.43067	5738
5.43133	5736
5.43200	5734
5.43267	5733
5.43333	5731
5.43400	5729
5.43467	5727
5.43533	5725
5.43600	5724
5.43667	5722
5.43733	5720
5.43800	5718
5.43867	5716
5.43933	5714
5.44000	5712
5.44067	5711
5.44133	5709
5.44200	5707
5.44267	5705
5.44333	5703
5.44400	5701
5.44467	5699
5.44533	5697
5.44600	5695
5.44667	5692
5.44733	5690
5.44800	5688
5.44867	5686
5.44933	5684
5.45000	5682
5.45067	5680
5.45133	5678
5.45200	5676
5.45267	5674
5.45333	5671
5.45400	5669
5.45467	5667
5.45533	5665
5.45600	5663
5.45667	5660
5.45733	5658
5.45800	5656
5.45867	5654
5.45933	5651
5.46000	5649
5.46067	5647
5.46133	5645
5.46200	5642
5.46267	5640
5.46333	5638
5.46400	5636
5.46467	5634
5.46533	5631
5.46600	5629
5.46667	5627
5.46733	5625
5.46800	5623
5.46867	5621
5.46933	5619
5.47000	5616
5.47067	5614
5.47133	5612
5.47200	5610
5.47267	5608
5.47333	5606
5.47400	5604
5.47467	5602
5.47533	5600
5.47600	5598
5.47667	5596
5.47733	5594
5.47800	5592
5.47867	5590
5.47933	5588
5.48000	5586
5.48067	5584
5.48133	5583
5.48200	5581
5.48267	5579
5.48333	5577
5.48400	5575
5.48467	5574
5.48533	5572
5.48600	5570
5.48667	5568
5.48733	5567
5.48800	5565
5.48867	5563
5.48933	5562
5.49000	5560
5.49067	5558
5.49133	5557
5.49200	5555
5.49267	5553
5.49333	5552
5.49400	5550
5.49467	5548
5.49533	5547
5.49600	5545
5.49667	5544
5.49733	5542
5.49800	5540
5.49867	5539
5.49933	5537
5.50000	5536
5.50067	5534
5.50133	5533
5.50200	5531
5.50267	5530
5.50333	5528
5.50400	5527
5.50467	5525
5.50533	5524
5.50600	5522
5.50667	5521
5.50733	5519
5.50800	5518
5.50867	5516
5.50933	5515
5.51000	5514
5.51067	5512
5.51133	5511
5.51200	5509
5.51267	5508
5.51333	5506
5.51400	5505
5.51467	5504
5.51533	5502
5.51600	5501
5.51667	5499
5.51733	5498
5.51800	5496
5.51867	5495
5.51933	5494
5.52000	5492
5.52067	5491
5.52133	5489
5.52200	5488
5.52267	5487
5.52333	5485
5.52400	5484
5.52467	5483
5.52533	5482
5.52600	5480
5.52667	5479
5.52733	5478
5.52800	5477
5.52867	5475
5.52933	5474
5.53000	5473
5.53067	5472
5.53133	5470
5.53200	5469
5.53267	5468
5.53333	5467
5.53400	5466
5.53467	5465
5.53533	5464
5.53600	5462
5.53667	5461
5.53733	5460
5.53800	5459
5.53867	5458
5.53933	5457
5.54000	5456
5.54067	5455
5.54133	5454
5.54200	5453
5.54267	5452
5.54333	5451
5.54400	5450
5.54467	5449
5.54533	5448
5.54600	5447
5.54667	5446
5.54733	5445
5.54800	5444
5.54867	5443
5.54933	5442
5.55000	5441
5.55067	5440
5.55133	5439
5.55200	5438
5.55267	5438
5.55333	5437
5.55400	5436
5.55467	5435
5.55533	5434
5.55600	5433
5.55667	5432
5.55733	5431
5.55800	5430
5.55867	5429
5.55933	5428
5.56000	5428
5.56067	5427
5.56133	5426
5.56200	5425
5.56267	5424
5.56333	5423
5.56400	5422
5.56467	5421
5.56533	5420
5.56600	5420
5.56667	5419
5.56733	5418
5.56800	5417
5.56867	5417
5.56933	5416
5.57000	5415
5.57067	5414
5.57133	5414
5.57200	5413
5.57267	5412
5.57333	5412
5.57400	5411
5.57467	5410
5.57533	5410
5.57600	5409
5.57667	5408
5.57733	5408
5.57800	5407
5.57867	5407
5.57933	5406
5.58000	5406
5.58067	5405
5.58133	5405
5.58200	5404
5.58267	5404
5.58333	5404
5.58400	5403
5.58467	5403
5.58533	5403
5.58600	5403
5.58667	5402
5.58733	5402
5.58800	5402
5.58867	5402
5.58933	5402
5.59000	5401
5.59067	5401
5.59133	5401
5.59200	5401
5.59267	5401
5.59333	5400
5.59400	5400
5.59467	5400
5.59533	5400
5.59600	5399
5.59667	5399
5.59733	5399
5.59800	5399
5.59867	5398
5.59933	5398
5.60000	5398
5.60067	5397
5.60133	5397
5.60200	5397
5.60267	5396
5.60333	5396
5.60400	5395
5.60467	5395
5.60533	5394
5.60600	5394
5.60667	5393
5.60733	5393
5.60800	5392
5.60867	5391
5.60933	5391
5.61000	5390
5.61067	5390
5.61133	5389
5.61200	5389
5.61267	5388
5.61333	5387
5.61400	5387
5.61467	5386
5.61533	5385
5.61600	5385
5.61667	5384
5.61733	5383
5.61800	5382
5.61867	5381
5.61933	5380
5.62000	5379
5.62067	5379
5.62133	5378
5.62200	5377
5.62267	5376
5.62333	5375
5.62400	5374
5.62467	5373
5.62533	5372
5.62600	5371
5.62667	5370
5.62733	5369
5.62800	5368
5.62867	5367
5.62933	5366
5.63000	5365
5.63067	5363
5.63133	5362
5.63200	5361
5.63267	5360
5.63333	5359
5.63400	5358
5.63467	5357
5.63533	5356
5.63600	5354
5.63667	5353
5.63733	5352
5.63800	5351
5.63867	5350
5.63933	5348
5.64000	5347
5.64067	5346
5.64133	5345
5.64200	5344
5.64267	5343
5.64333	5342
5.64400	5341
5.64467	5340
5.64533	5339
5.64600	5338
5.64667	5336
5.64733	5335
5.64800	5334
5.64867	5333
5.64933	5332
5.65000	5331
5.65067	5330
5.65133	5329
5.65200	5328
5.65267	5327
5.65333	5326
5.65400	5325
5.65467	5324
5.65533	5322
5.65600	5321
5.65667	5320
5.65733	5319
5.65800	5318
5.65867	5317
5.65933	5316
5.66000	5314
5.66067	5313
5.66133	5312
5.66200	5311
5.66267	5310
5.66333	5308
5.66400	5307
5.66467	5306
5.66533	5305
5.66600	5304
5.66667	5302
5.66733	5301
5.66800	5300
5.66867	5299
5.66933	5297
5.67000	5296
5.67067	5295
5.67133	5294
5.67200	5293
5.67267	5291
5.67333	5290
5.67400	5289
5.67467	5288
5.67533	5287
5.67600	5285
5.67667	5284
5.67733	5283
5.67800	5282
5.67867	5281
5.67933	5279
5.68000	5278
5.68067	5277
5.68133	5276
5.68200	5275
5.68267	5273
5.68333	5272
5.68400	5271
5.68467	5270
5.68533	5269
5.68600	5268
5.68667	5266
5.68733	5265
5.68800	5264
5.68867	5263
5.68933	5262
5.69000	5261
5.69067	5260
5.69133	5258
5.69200	5257
5.69267	5256
5.69333	5255
5.69400	5254
5.69467	5253
5.69533	5252
5.69600	5251
5.69667	5250
5.69733	5248
5.69800	5247
5.69867	5246
5.69933	5245
5.70000	5244
5.70067	5243
5.70133	5242
5.70200	5241
5.70267	5241
5.70333	5240
5.70400	5239
5.70467	5238
5.70533	5237
5.70600	5236
5.70667	5235
5.70733	5234
5.70800	5233
5.70867	5233
5.70933	5232
5.71000	5231
5.71067	5230
5.71133	5229
5.71200	5229
5.71267	5228
5.71333	5227
5.71400	5226
5.71467	5226
5.71533	5225
5.71600	5224
5.71667	5223
5.71733	5223
5.71800	5222
5.71867	5221
5.71933	5220
5.72000	5220
5.72067	5219
5.72133	5218
5.72200	5217
5.72267	5217
5.72333	5216
5.72400	5215
5.72467	5215
5.72533	5214
5.72600	5213
5.72667	5212
5.72733	5211
5.72800	5211
5.72867	5210
5.72933	5209
5.73000	5208
5.73067	5208
5.73133	5207
5.73200	5206
5.73267	5205
5.73333	5205
5.73400	5204
5.73467	5203
5.73533	5203
5.73600	5202
5.73667	5201
5.73733	5201
5.73800	5200
5.73867	5199
5.73933	5199
5.74000	5198
5.74067	5198
5.74133	5197
5.74200	5196
5.74267	5196
5.74333	5195
5.74400	5195
5.74467	5194
5.74533	5194
5.74600	5193
5.74667	5192
5.74733	5192
5.74800	5191
5.74867	5191
5.74933	5190
5.75000	5190
5.75067	5189
5.75133	5189
5.75200	5188
5.75267	5188
5.75333	5187
5.75400	5187
5.75467	5187
5.75533	5187
5.75600	5186
5.75667	5186
5.75733	5186
5.75800	5186
5.75867	5185
5.75933	5185
5.76000	5185
5.76067	5185
5.76133	5185
5.76200	5184
5.76267	5184
5.76333	5184
5.76400	5184
5.76467	5184
5.76533	5184
5.76600	5184
5.76667	5184
5.76733	5183
5.76800	5183
5.76867	5183
5.76933	5183
5.77000	5183
5.77067	5183
5.77133	5183
5.77200	5183
5.77267	5183
5.77333	5182
5.77400	5182
5.77467	5182
5.77533	5182
5.77600	5182
5.77667	5182
5.77733	5182
5.77800	5182
5.77867	5182
5.77933	5182
5.78000	5182
5.78067	5182
5.78133	5182
5.78200	5182
5.78267	5183
5.78333	5183
5.78400	5183
5.78467	5183
5.78533	5183
5.78600	5183
5.78667	5184
5.78733	5184
5.78800	5184
5.78867	5184
5.78933	5185
5.79000	5185
5.79067	5185
5.79133	5185
5.79200	5186
5.79267	5186
5.79333	5186
5.79400	5187
5.79467	5187
5.79533	5187
5.79600	5188
5.79667	5188
5.79733	5188
5.79800	5189
5.79867	5189
5.79933	5189
5.80000	5190
5.80067	5190
5.80133	5190
5.80200	5190
5.80267	5191
5.80333	5191
5.80400	5191
5.80467	5192
5.80533	5192
5.80600	5192
5.80667	5192
5.80733	5193
5.80800	5193
5.80867	5193
5.80933	5193
5.81000	5193
5.81067	5194
5.81133	5194
5.81200	5194
5.81267	5194
5.81333	5194
5.81400	5194
5.81467	5195
5.81533	5195
5.81600	5195
5.81667	5195
5.81733	5195
5.81800	5195
5.81867	5195
5.81933	5195
5.82000	5195
5.82067	5195
5.82133	5196
5.82200	5196
5.82267	5196
5.82333	5196
5.82400	5196
5.82467	5196
5.82533	5196
5.82600	5196
5.82667	5196
5.82733	5196
5.82800	5196
5.82867	5196
5.82933	5197
5.83000	5197
5.83067	5197
5.83133	5197
5.83200	5197
5.83267	5197
5.83333	5197
5.83400	5197
5.83467	5197
5.83533	5197
5.83600	5197
5.83667	5197
5.83733	5197
5.83800	5197
5.83867	5197
5.83933	5198
5.84000	5198
5.84067	5198
5.84133	5198
5.84200	5198
5.84267	5198
5.84333	5198
5.84400	5198
5.84467	5199
5.84533	5199
5.84600	5199
5.84667	5199
5.84733	5199
5.84800	5199
5.84867	5199
5.84933	5199
5.85000	5198
5.85067	5198
5.85133	5198
5.85200	5198
5.85267	5198
5.85333	5198
5.85400	5198
5.85467	5198
5.85533	5198
5.85600	5198
5.85667	5198
5.85733	5198
5.85800	5198
5.85867	5198
5.85933	5198
5.86000	5198
5.86067	5198
5.86133	5198
5.86200	5198
5.86267	5197
5.86333	5197
5.86400	5197
5.86467	5197
5.86533	5197
5.86600	5197
5.86667	5196
5.86733	5196
5.86800	5196
5.86867	5196
5.86933	5195
5.87000	5195
5.87067	5195
5.87133	5194
5.87200	5194
5.87267	5193
5.87333	5193
5.87400	5192
5.87467	5192
5.87533	5191
5.87600	5191
5.87667	5190
5.87733	5190
5.87800	5189
5.87867	5188
5.87933	5188
5.88000	5187
5.88067	5186
5.88133	5185
5.88200	5185
5.88267	5184
5.88333	5183
5.88400	5183
5.88467	5182
5.88533	5181
5.88600	5181
5.88667	5180
5.88733	5180
5.88800	5179
5.88867	5178
5.88933	5178
5.89000	5177
5.89067	5177
5.89133	5176
5.89200	5175
5.89267	5175
5.89333	5174
5.89400	5174
5.89467	5173
5.89533	5173
5.89600	5172
5.89667	5171
5.89733	5171
5.89800	5170
5.89867	5170
5.89933	5169
5.90000	5169
5.90067	5168
5.90133	5168
5.90200	5167
5.90267	5167
5.90333	5167
5.90400	5166
5.90467	5166
5.90533	5165
5.90600	5165
5.90667	5165
5.90733	5164
5.90800	5164
5.90867	5163
5.90933	5163
5.91000	5163
5.91067	5162
5.91133	5162
5.91200	5161
5.91267	5161
5.91333	5160
5.91400	5160
5.91467	5160
5.91533	5159
5.91600	5159
5.91667	5159
5.91733	5159
5.91800	5159
5.91867	5159
5.91933	5159
5.92000	5159
5.92067	5159
5.92133	5159
5.92200	5159
5.92267	5159
5.92333	5159
5.92400	5159
5.92467	5159
5.92533	5159
5.92600	5159
5.92667	5159
5.92733	5159
5.92800	5159
5.92867	5159
5.92933	5159
5.93000	5159
5.93067	5159
5.93133	5160
5.93200	5160
5.93267	5160
5.93333	5160
5.93400	5161
5.93467	5161
5.93533	5161
5.93600	5161
5.93667	5162
5.93733	5162
5.93800	5162
5.93867	5163
5.93933	5163
5.94000	5163
5.94067	5164
5.94133	5164
5.94200	5164
5.94267	5164
5.94333	5165
5.94400	5165
5.94467	5165
5.94533	5166
5.94600	5166
5.94667	5166
5.94733	5166
5.94800	5167
5.94867	5167
5.94933	5167
5.95000	5167
5.95067	5168
5.95133	5168
5.95200	5168
5.95267	5168
5.95333	5169
5.95400	5169
5.95467	5169
5.95533	5170
5.95600	5170
5.95667	5170
5.95733	5171
5.95800	5171
5.95867	5171
5.95933	5172
5.96000	5172
5.96067	5172
5.96133	5173
5.96200	5173
5.96267	5174
5.96333	5174
5.96400	5174
5.96467	5175
5.96533	5175
5.96600	5175
5.96667	5176
5.96733	5176
5.96800	5176
5.96867	5177
5.96933	5177
5.97000	5178
5.97067	5178
5.97133	5179
5.97200	5179
5.97267	5179
5.97333	5180
5.97400	5180
5.97467	5181
5.97533	5181
5.97600	5181
5.97667	5182
5.97733	5182
5.97800	5183
5.97867	5183
5.97933	5183
5.98000	5183
5.98067	5184
5.98133	5184
5.98200	5184
5.98267	5184
5.98333	5185
5.98400	5185
5.98467	5185
5.98533	5185
5.98600	5185
5.98667	5185
5.98733	5186
5.98800	5186
5.98867	5186
5.98933	5186
5.99000	5186
5.99067	5186
5.99133	5186
5.99200	5187
5.99267	5187
5.99333	5187
5.99400	5187
5.99467	5187
5.99533	5188
5.99600	5188
5.99667	5188
5.99733	5188
5.99800	5189
5.99867	5189
5.99933	5189
6.00000	5189
6.00067	5189
6.00133	5190
6.00200	5190
6.00267	5190
6.00333	5190
6.00400	5190
6.00467	5191
6.00533	5191
6.00600	5191
6.00667	5191
6.00733	5191
6.00800	5191
6.00867	5191
6.00933	5192
6.01000	5192
6.01067	5192
6.01133	5192
6.01200	5192
6.01267	5191
6.01333	5191
6.01400	5191
6.01467	5191
6.01533	5191
6.01600	5191
6.01667	5191
6.01733	5191
6.01800	5191
6.01867	5191
6.01933	5190
6.02000	5190
6.02067	5190
6.02133	5190
6.02200	5190
6.02267	5190
6.02333	5190
6.02400	5190
6.02467	5190
6.02533	5190
6.02600	5190
6.02667	5190
6.02733	5190
6.02800	5190
6.02867	5190
6.02933	5190
6.03000	5190
6.03067	5190
6.03133	5190
6.03200	5190
6.03267	5189
6.03333	5189
6.03400	5189
6.03467	5189
6.03533	5189
6.03600	5188
6.03667	5188
6.03733	5188
6.03800	5188
6.03867	5187
6.03933	5187
6.04000	5187
6.04067	5187
6.04133	5187
6.04200	5186
6.04267	5186
6.04333	5186
6.04400	5186
6.04467	5185
6.04533	5185
6.04600	5185
6.04667	5185
6.04733	5185
6.04800	5184
6.04867	5184
6.04933	5184
6.05000	5184
6.05067	5184
6.05133	5183
6.05200	5183
6.05267	5183
6.05333	5183
6.05400	5182
6.05467	5182
6.05533	5182
6.05600	5181
6.05667	5181
6.05733	5180
6.05800	5180
6.05867	5180
6.05933	5179
6.06000	5179
6.06067	5179
6.06133	5178
6.06200	5178
6.06267	5178
6.06333	5177
6.06400	5177
6.06467	5176
6.06533	5176
6.06600	5176
6.06667	5175
6.06733	5175
6.06800	5174
6.06867	5174
6.06933	5173
6.07000	5173
6.07067	5172
6.07133	5172
6.07200	5171
6.07267	5171
6.07333	5170
6.07400	5169
6.07467	5169
6.07533	5168
6.07600	5168
6.07667	5167
6.07733	5167
6.07800	5166
6.07867	5166
6.07933	5165
6.08000	5165
6.08067	5165
6.08133	5164
6.08200	5164
6.08267	5163
6.08333	5163
6.08400	5163
6.08467	5162
6.08533	5162
6.08600	5162
6.08667	5161
6.08733	5161
6.08800	5161
6.08867	5161
6.08933	5160
6.09000	5160
6.09067	5160
6.09133	5159
6.09200	5159
6.09267	5159
6.09333	5158
6.09400	5158
6.09467	5158
6.09533	5157
6.09600	5157
6.09667	5156
6.09733	5156
6.09800	5156
6.09867	5155
6.09933	5155
6.10000	5154
6.10067	5154
6.10133	5153
6.10200	5153
6.10267	5152
6.10333	5152
6.10400	5151
6.10467	5151
6.10533	5150
6.10600	5150
6.10667	5149
6.10733	5149
6.10800	5148
6.10867	5148
6.10933	5147
6.11000	5147
6.11067	5146
6.11133	5146
6.11200	5145
6.11267	5145
6.11333	5144
6.11400	5144
6.11467	5143
6.11533	5142
6.11600	5142
6.11667	5141
6.11733	5141
6.11800	5140
6.11867	5139
6.11933	5139
6.12000	5138
6.12067	5138
6.12133	5137
6.12200	5136
6.12267	5135
6.12333	5135
6.12400	5134
6.12467	5133
6.12533	5132
6.12600	5132
6.12667	5131
6.12733	5130
6.12800	5129
6.12867	5129
6.12933	5128
6.13000	5127
6.13067	5126
6.13133	5126
6.13200	5125
6.13267	5124
6.13333	5124
6.13400	5123
6.13467	5123
6.13533	5122
6.13600	5121
6.13667	5121
6.13733	5120
6.13800	5120
6.13867	5119
6.13933	5119
6.14000	5118
6.14067	5118
6.14133	5117
6.14200	5117
6.14267	5116
6.14333	5116
6.14400	5115
6.14467	5115
6.14533	5114
6.14600	5114
6.14667	5113
6.14733	5113
6.14800	5112
6.14867	5112
6.14933	5111
6.15000	5111
6.15067	5110
6.15133	5110
6.15200	5109
6.15267	5109
6.15333	5108
6.15400	5107
6.15467	5107
6.15533	5106
6.15600	5106
6.15667	5105
6.15733	5104
6.15800	5104
6.15867	5103
6.15933	5103
6.16000	5102
6.16067	5102
6.16133	5101
6.16200	5101
6.16267	5100
6.16333	5099
6.16400	5099
6.16467	5098
6.16533	5098
6.16600	5097
6.16667	5097
6.16733	5097
6.16800	5096
6.16867	5096
6.16933	5095
6.17000	5095
6.17067	5094
6.17133	5094
6.17200	5093
6.17267	5093
6.17333	5093
6.17400	5092
6.17467	5092
6.17533	5091
6.17600	5091
6.17667	5090
6.17733	5090
6.17800	5090
6.17867	5089
6.17933	5089
6.18000	5088
6.18067	5088
6.18133	5088
6.18200	5087
6.18267	5087
6.18333	5086
6.18400	5086
6.18467	5085
6.18533	5085
6.18600	5085
6.18667	5084
6.18733	5084
6.18800	5084
6.18867	5083
6.18933	5083
6.19000	5083
6.19067	5082
6.19133	5082
6.19200	5082
6.19267	5081
6.19333	5081
6.19400	5081
6.19467	5081
6.19533	5081
6.19600	5080
6.19667	5080
6.19733	5080
6.19800	5080
6.19867	5079
6.19933	5079
6.20000	5079
6.20067	5079
6.20133	5079
6.20200	5079
6.20267	5079
6.20333	5079
6.20400	5079
6.20467	5079
6.20533	5079
6.20600	5079
6.20667	5079
6.20733	5079
6.20800	5079
6.20867	5079
6.20933	5079
6.21000	5079
6.21067	5079
6.21133	5079
6.21200	5079
6.21267	5079
6.21333	5080
6.21400	5080
6.21467	5080
6.21533	5080
6.21600	5080
6.21667	5080
6.21733	5080
6.21800	5080
6.21867	5080
6.21933	5080
6.22000	5080
6.22067	5080
6.22133	5080
6.22200	5080
6.22267	5080
6.22333	5080
6.22400	5080
6.22467	5080
6.22533	5080
6.22600	5080
6.22667	5080
6.22733	5081
6.22800	5081
6.22867	5081
6.22933	5081
6.23000	5081
6.23067	5081
6.23133	5081
6.23200	5081
6.23267	5081
6.23333	5082
6.23400	5082
6.23467	5082
6.23533	5082
6.23600	5082
6.23667	5082
6.23733	5082
6.23800	5082
6.23867	5082
6.23933	5082
6.24000	5082
6.24067	5082
6.24133	5082
6.24200	5083
6.24267	5083
6.24333	5083
6.24400	5083
6.24467	5083
6.24533	5083
6.24600	5083
6.24667	5084
6.24733	5084
6.24800	5084
6.24867	5084
6.24933	5084
6.25000	5085
6.25067	5085
6.25133	5085
6.25200	5086
6.25267	5086
6.25333	5086
6.25400	5087
6.25467	5087
6.25533	5087
6.25600	5087
6.25667	5088
6.25733	5088
6.25800	5088
6.25867	5089
6.25933	5089
6.26000	5089
6.26067	5090
6.26133	5090
6.26200	5090
6.26267	5091
6.26333	5091
6.26400	5092
6.26467	5092
6.26533	5092
6.26600	5093
6.26667	5093
6.26733	5093
6.26800	5094
6.26867	5094
6.26933	5095
6.27000	5095
6.27067	5095
6.27133	5096
6.27200	5096
6.27267	5097
6.27333	5097
6.27400	5098
6.27467	5098
6.27533	5099
6.27600	5099
6.27667	5099
6.27733	5100
6.27800	5100
6.27867	5101
6.27933	5101
6.28000	5101
6.28067	5101
6.28133	5102
6.28200	5102
6.28267	5102
6.28333	5103
6.28400	5103
6.28467	5103
6.28533	5103
6.28600	5103
6.28667	5104
6.28733	5104
6.28800	5104
6.28867	5104
6.28933	5104
6.29000	5104
6.29067	5104
6.29133	5104
6.29200	5104
6.29267	5104
6.29333	5104
6.29400	5105
6.29467	5105
6.29533	5105
6.29600	5105
6.29667	5105
6.29733	5105
6.29800	5105
6.29867	5105
6.29933	5105
6.30000	5105
6.30067	5105
6.30133	5105
6.30200	5105
6.30267	5105
6.30333	5105
6.30400	5105
6.30467	5105
6.30533	5105
6.30600	5105
6.30667	5105
6.30733	5105
6.30800	5105
6.30867	5105
6.30933	5105
6.31000	5105
6.31067	5105
6.31133	5105
6.31200	5105
6.31267	5105
6.31333	5105
6.31400	5105
6.31467	5105
6.31533	5104
6.31600	5104
6.31667	5104
6.31733	5104
6.31800	5104
6.31867	5104
6.31933	5104
6.32000	5104
6.32067	5104
6.32133	5103
6.32200	5103
6.32267	5103
6.32333	5103
6.32400	5103
6.32467	5102
6.32533	5102
6.32600	5102
6.32667	5102
6.32733	5102
6.32800	5101
6.32867	5101
6.32933	5101
6.33000	5101
6.33067	5101
6.33133	5100
6.33200	5100
6.33267	5100
6.33333	5100
6.33400	5099
6.33467	5099
6.33533	5099
6.33600	5099
6.33667	5098
6.33733	5098
6.33800	5098
6.33867	5098
6.33933	5097
6.34000	5097
6.34067	5097
6.34133	5096
6.34200	5096
6.34267	5095
6.34333	5095
6.34400	5094
6.34467	5094
6.34533	5094
6.34600	5093
6.34667	5093
6.34733	5092
6.34800	5092
6.34867	5092
6.34933	5091
6.35000	5091
6.35067	5091
6.35133	5090
6.35200	5090
6.35267	5090
6.35333	5089
6.35400	5089
6.35467	5089
6.35533	5089
6.35600	5089
6.35667	5088
6.35733	5088
6.35800	5088
6.35867	5088
6.35933	5088
6.36000	5088
6.36067	5087
6.36133	5087
6.36200	5087
6.36267	5087
6.36333	5087
6.36400	5087
6.36467	5087
6.36533	5087
6.36600	5086
6.36667	5086
6.36733	5086
6.36800	5086
6.36867	5086
6.36933	5086
6.37000	5085
6.37067	5085
6.37133	5085
6.37200	5085
6.37267	5085
6.37333	5084
6.37400	5084
6.37467	5084
6.37533	5084
6.37600	5084
6.37667	5084
6.37733	5083
6.37800	5083
6.37867	5083
6.37933	5083
6.38000	5082
6.38067	5082
6.38133	5082
6.38200	5082
6.38267	5082
6.38333	5081
6.38400	5081
6.38467	5081
6.38533	5081
6.38600	5081
6.38667	5080
6.38733	5080
6.38800	5080
6.38867	5080
6.38933	5080
6.39000	5079
6.39067	5079
6.39133	5079
6.39200	5079
6.39267	5078
6.39333	5078
6.39400	5078
6.39467	5078
6.39533	5077
6.39600	5077
6.39667	5077
6.39733	5077
6.39800	5076
6.39867	5076
6.39933	5076

