[Header]
Application Name	LabSolutions
Version	5.73
Data File Name	C:\LabSolutions\Data\Project1\stephen\2016-01-06\63.gcd
Output Date	1/11/2016
Output Time	1:19:52 PM

[Configuration]
Instrument Name	WEISSTA-PC-Instrument1
Instrument #	1
Line #	1
# of Detectors	1
Detector ID	DET#2
Detector Name	DFID1
# of Channels	1

[Chromatogram (Ch1)]
Interval(msec)	40
# of Points	9600
Start Time(min)	0.000
End Time(min)	6.400
R.Time (min)	Intensity
0.00033	19
0.00100	19
0.00167	19
0.00233	19
0.00300	18
0.00367	18
0.00433	18
0.00500	18
0.00567	18
0.00633	18
0.00700	18
0.00767	18
0.00833	17
0.00900	17
0.00967	16
0.01033	15
0.01100	13
0.01167	11
0.01233	9
0.01300	7
0.01367	4
0.01433	1
0.01500	-3
0.01567	-7
0.01633	-11
0.01700	-15
0.01767	-20
0.01833	-24
0.01900	-29
0.01967	-34
0.02033	-39
0.02100	-44
0.02167	-49
0.02233	-54
0.02300	-59
0.02367	-63
0.02433	-68
0.02500	-72
0.02567	-77
0.02633	-81
0.02700	-85
0.02767	-88
0.02833	-92
0.02900	-96
0.02967	-99
0.03033	-102
0.03100	-105
0.03167	-107
0.03233	-110
0.03300	-112
0.03367	-114
0.03433	-116
0.03500	-118
0.03567	-120
0.03633	-121
0.03700	-123
0.03767	-124
0.03833	-125
0.03900	-126
0.03967	-127
0.04033	-128
0.04100	-128
0.04167	-129
0.04233	-129
0.04300	-129
0.04367	-130
0.04433	-130
0.04500	-130
0.04567	-130
0.04633	-130
0.04700	-130
0.04767	-130
0.04833	-130
0.04900	-130
0.04967	-130
0.05033	-130
0.05100	-130
0.05167	-129
0.05233	-129
0.05300	-129
0.05367	-129
0.05433	-128
0.05500	-128
0.05567	-128
0.05633	-128
0.05700	-127
0.05767	-127
0.05833	-126
0.05900	-126
0.05967	-126
0.06033	-125
0.06100	-125
0.06167	-124
0.06233	-124
0.06300	-123
0.06367	-123
0.06433	-122
0.06500	-122
0.06567	-122
0.06633	-121
0.06700	-121
0.06767	-120
0.06833	-120
0.06900	-119
0.06967	-118
0.07033	-118
0.07100	-117
0.07167	-117
0.07233	-116
0.07300	-116
0.07367	-115
0.07433	-115
0.07500	-114
0.07567	-114
0.07633	-113
0.07700	-112
0.07767	-112
0.07833	-111
0.07900	-111
0.07967	-110
0.08033	-110
0.08100	-109
0.08167	-108
0.08233	-108
0.08300	-107
0.08367	-107
0.08433	-106
0.08500	-106
0.08567	-105
0.08633	-104
0.08700	-100
0.08767	-86
0.08833	-48
0.08900	19
0.08967	113
0.09033	256
0.09100	512
0.09167	865
0.09233	1285
0.09300	1814
0.09367	2438
0.09433	3146
0.09500	3961
0.09567	4946
0.09633	6089
0.09700	7331
0.09767	8749
0.09833	10419
0.09900	12246
0.09967	14156
0.10033	16128
0.10100	18174
0.10167	20317
0.10233	22535
0.10300	24826
0.10367	27143
0.10433	29458
0.10500	31794
0.10567	34119
0.10633	36484
0.10700	39056
0.10767	41703
0.10833	44398
0.10900	47173
0.10967	49912
0.11033	52612
0.11100	55335
0.11167	58088
0.11233	60801
0.11300	63488
0.11367	66173
0.11433	68944
0.11500	71610
0.11567	74051
0.11633	76288
0.11700	78390
0.11767	80420
0.11833	82286
0.11900	84058
0.11967	85715
0.12033	87266
0.12100	88743
0.12167	90109
0.12233	91337
0.12300	92460
0.12367	93468
0.12433	94323
0.12500	95030
0.12567	95613
0.12633	96061
0.12700	96385
0.12767	96604
0.12833	96713
0.12900	96741
0.12967	96668
0.13033	96532
0.13100	96353
0.13167	96092
0.13233	95745
0.13300	95301
0.13367	94767
0.13433	94172
0.13500	93614
0.13567	93529
0.13633	95174
0.13700	101499
0.13767	118525
0.13833	157510
0.13900	236129
0.13967	379782
0.14033	617784
0.14100	980399
0.14167	1494322
0.14233	2182868
0.14300	3064752
0.14367	4153959
0.14433	5459054
0.14500	6985937
0.14567	8737474
0.14633	10713745
0.14700	12905266
0.14767	15293421
0.14833	17888128
0.14900	20728447
0.14967	23840448
0.15033	27225177
0.15100	30868580
0.15167	34747617
0.15233	38834923
0.15300	43102425
0.15367	47522496
0.15433	52069299
0.15500	56718018
0.15567	61445042
0.15633	66227768
0.15700	71044732
0.15767	75876035
0.15833	80702222
0.15900	85505236
0.15967	90267955
0.16033	94973850
0.16100	99607379
0.16167	104154055
0.16233	108600576
0.16300	112935221
0.16367	117147002
0.16433	121226415
0.16500	125165242
0.16567	128956517
0.16633	132594378
0.16700	136074391
0.16767	139392474
0.16833	142545383
0.16900	145530546
0.16967	148346582
0.17033	150992407
0.17100	153467778
0.17167	155772750
0.17233	157908759
0.17300	159878432
0.17367	161684863
0.17433	163330309
0.17500	164816189
0.17567	166143725
0.17633	167314144
0.17700	168329309
0.17767	169191577
0.17833	169903853
0.17900	170469399
0.17967	170891734
0.18033	171174565
0.18100	171321953
0.18167	171338031
0.18233	171227271
0.18300	170994115
0.18367	170643129
0.18433	170178656
0.18500	169605121
0.18567	168926896
0.18633	168148468
0.18700	167274161
0.18767	166308320
0.18833	165255180
0.18900	164119047
0.18967	162904152
0.19033	161614609
0.19100	160254499
0.19167	158827954
0.19233	157339110
0.19300	155792012
0.19367	154190563
0.19433	152538540
0.19500	150839681
0.19567	149097598
0.19633	147315825
0.19700	145497773
0.19767	143646858
0.19833	141766451
0.19900	139860035
0.19967	137931308
0.20033	135984133
0.20100	134022013
0.20167	132047710
0.20233	130063249
0.20300	128070253
0.20367	126070146
0.20433	124064383
0.20500	122054483
0.20567	120042045
0.20633	118028714
0.20700	116016159
0.20767	114006032
0.20833	111999966
0.20900	109999570
0.20967	108006407
0.21033	106021963
0.21100	104047654
0.21167	102084842
0.21233	100134799
0.21300	98198750
0.21367	96277818
0.21433	94373068
0.21500	92485494
0.21567	90616033
0.21633	88765549
0.21700	86934848
0.21767	85124658
0.21833	83335654
0.21900	81568445
0.21967	79823580
0.22033	78101551
0.22100	76402798
0.22167	74727714
0.22233	73076648
0.22300	71449911
0.22367	69847772
0.22433	68270458
0.22500	66718161
0.22567	65191033
0.22633	63689194
0.22700	62212729
0.22767	60761688
0.22833	59336094
0.22900	57935940
0.22967	56561194
0.23033	55211792
0.23100	53887649
0.23167	52588654
0.23233	51314679
0.23300	50065570
0.23367	48841151
0.23433	47641228
0.23500	46465590
0.23567	45314011
0.23633	44186250
0.23700	43082054
0.23767	42001158
0.23833	40943289
0.23900	39908161
0.23967	38895487
0.24033	37904965
0.24100	36936293
0.24167	35989161
0.24233	35063255
0.24300	34158255
0.24367	33273841
0.24433	32409685
0.24500	31565463
0.24567	30740846
0.24633	29935506
0.24700	29149115
0.24767	28381348
0.24833	27631876
0.24900	26900377
0.24967	26186523
0.25033	25489991
0.25100	24810456
0.25167	24147600
0.25233	23501103
0.25300	22870647
0.25367	22255918
0.25433	21656606
0.25500	21072403
0.25567	20503003
0.25633	19948106
0.25700	19407413
0.25767	18880627
0.25833	18367456
0.25900	17867608
0.25967	17380793
0.26033	16906728
0.26100	16445130
0.26167	15995725
0.26233	15558250
0.26300	15132466
0.26367	14718147
0.26433	14315072
0.26500	13923011
0.26567	13541722
0.26633	13170960
0.26700	12810486
0.26767	12460065
0.26833	12119454
0.26900	11788396
0.26967	11466624
0.27033	11153863
0.27100	10849846
0.27167	10554310
0.27233	10267003
0.27300	9987688
0.27367	9716132
0.27433	9452119
0.27500	9195437
0.27567	8945884
0.27633	8703262
0.27700	8467382
0.27767	8238057
0.27833	8015110
0.27900	7798367
0.27967	7587658
0.28033	7382817
0.28100	7183685
0.28167	6990105
0.28233	6801927
0.28300	6619001
0.28367	6441186
0.28433	6268340
0.28500	6100328
0.28567	5937019
0.28633	5778283
0.28700	5623996
0.28767	5474035
0.28833	5328282
0.28900	5186622
0.28967	5048944
0.29033	4915139
0.29100	4785101
0.29167	4658728
0.29233	4535918
0.29300	4416573
0.29367	4300598
0.29433	4187902
0.29500	4078392
0.29567	3971982
0.29633	3868584
0.29700	3768117
0.29767	3670498
0.29833	3575650
0.29900	3483494
0.29967	3393956
0.30033	3306964
0.30100	3222447
0.30167	3140336
0.30233	3060563
0.30300	2983063
0.30367	2907773
0.30433	2834630
0.30500	2763575
0.30567	2694548
0.30633	2627493
0.30700	2562355
0.30767	2499079
0.30833	2437612
0.30900	2377903
0.30967	2319903
0.31033	2263563
0.31100	2208837
0.31167	2155680
0.31233	2104048
0.31300	2053898
0.31367	2005188
0.31433	1957879
0.31500	1911932
0.31567	1867308
0.31633	1823970
0.31700	1781883
0.31767	1741014
0.31833	1701329
0.31900	1662797
0.31967	1625391
0.32033	1589080
0.32100	1553841
0.32167	1519648
0.32233	1486482
0.32300	1454320
0.32367	1423145
0.32433	1392941
0.32500	1363690
0.32567	1335380
0.32633	1307997
0.32700	1281529
0.32767	1255965
0.32833	1231297
0.32900	1207514
0.32967	1184609
0.33033	1162575
0.33100	1141404
0.33167	1121089
0.33233	1101622
0.33300	1082997
0.33367	1065208
0.33433	1048246
0.33500	1032101
0.33567	1016764
0.33633	1002225
0.33700	988473
0.33767	975493
0.33833	963273
0.33900	951797
0.33967	941053
0.34033	931027
0.34100	921705
0.34167	913076
0.34233	905127
0.34300	897847
0.34367	891223
0.34433	885243
0.34500	879889
0.34567	875144
0.34633	870989
0.34700	867402
0.34767	864363
0.34833	861851
0.34900	859844
0.34967	858320
0.35033	857260
0.35100	856644
0.35167	856452
0.35233	856664
0.35300	857260
0.35367	858217
0.35433	859513
0.35500	861123
0.35567	863023
0.35633	865190
0.35700	867597
0.35767	870222
0.35833	873040
0.35900	876030
0.35967	879173
0.36033	882450
0.36100	885845
0.36167	889342
0.36233	892926
0.36300	896583
0.36367	900299
0.36433	904061
0.36500	907856
0.36567	911674
0.36633	915504
0.36700	919340
0.36767	923174
0.36833	927004
0.36900	930824
0.36967	934631
0.37033	938424
0.37100	942203
0.37167	945967
0.37233	949718
0.37300	953460
0.37367	957196
0.37433	960929
0.37500	964663
0.37567	968401
0.37633	972146
0.37700	975899
0.37767	979659
0.37833	983427
0.37900	987203
0.37967	990989
0.38033	994786
0.38100	998596
0.38167	1002426
0.38233	1006278
0.38300	1010160
0.38367	1014079
0.38433	1018040
0.38500	1022050
0.38567	1026112
0.38633	1030225
0.38700	1034387
0.38767	1038593
0.38833	1042835
0.38900	1047107
0.38967	1051399
0.39033	1055702
0.39100	1060003
0.39167	1064291
0.39233	1068553
0.39300	1072780
0.39367	1076963
0.39433	1081094
0.39500	1085168
0.39567	1089182
0.39633	1093131
0.39700	1097011
0.39767	1100819
0.39833	1104551
0.39900	1108200
0.39967	1111763
0.40033	1115229
0.40100	1118591
0.40167	1121834
0.40233	1124942
0.40300	1127899
0.40367	1130684
0.40433	1133276
0.40500	1135653
0.40567	1137792
0.40633	1139671
0.40700	1141269
0.40767	1142561
0.40833	1143523
0.40900	1144131
0.40967	1144357
0.41033	1144175
0.41100	1143557
0.41167	1142475
0.41233	1140901
0.41300	1138805
0.41367	1136161
0.41433	1132942
0.41500	1129123
0.41567	1124684
0.41633	1119610
0.41700	1113888
0.41767	1107514
0.41833	1100491
0.41900	1092827
0.41967	1084538
0.42033	1075647
0.42100	1066179
0.42167	1056164
0.42233	1045637
0.42300	1034631
0.42367	1023184
0.42433	1011330
0.42500	999107
0.42567	986549
0.42633	973693
0.42700	960570
0.42767	947215
0.42833	933659
0.42900	919932
0.42967	906063
0.43033	892078
0.43100	878003
0.43167	863863
0.43233	849680
0.43300	835475
0.43367	821268
0.43433	807077
0.43500	792919
0.43567	778811
0.43633	764768
0.43700	750802
0.43767	736929
0.43833	723159
0.43900	709503
0.43967	695971
0.44033	682573
0.44100	669316
0.44167	656207
0.44233	643253
0.44300	630460
0.44367	617832
0.44433	605375
0.44500	593091
0.44567	580985
0.44633	569060
0.44700	557319
0.44767	545766
0.44833	534401
0.44900	523228
0.44967	512248
0.45033	501463
0.45100	490873
0.45167	480480
0.45233	470283
0.45300	460283
0.45367	450478
0.45433	440870
0.45500	431456
0.45567	422236
0.45633	413209
0.45700	404374
0.45767	395728
0.45833	387272
0.45900	379003
0.45967	370920
0.46033	363021
0.46100	355305
0.46167	347770
0.46233	340415
0.46300	333239
0.46367	326241
0.46433	319418
0.46500	312770
0.46567	306296
0.46633	299994
0.46700	293863
0.46767	287900
0.46833	282102
0.46900	276465
0.46967	270984
0.47033	265656
0.47100	260476
0.47167	255443
0.47233	250551
0.47300	245796
0.47367	241176
0.47433	236687
0.47500	232324
0.47567	228085
0.47633	223965
0.47700	219962
0.47767	216072
0.47833	212291
0.47900	208617
0.47967	205047
0.48033	201576
0.48100	198203
0.48167	194924
0.48233	191737
0.48300	188639
0.48367	185627
0.48433	182699
0.48500	179852
0.48567	177084
0.48633	174392
0.48700	171773
0.48767	169227
0.48833	166750
0.48900	164341
0.48967	161996
0.49033	159714
0.49100	157494
0.49167	155331
0.49233	153226
0.49300	151175
0.49367	149177
0.49433	147231
0.49500	145333
0.49567	143484
0.49633	141681
0.49700	139923
0.49767	138207
0.49833	136533
0.49900	134899
0.49967	133305
0.50033	131748
0.50100	130228
0.50167	128742
0.50233	127291
0.50300	125873
0.50367	124487
0.50433	123132
0.50500	121806
0.50567	120510
0.50633	119242
0.50700	118001
0.50767	116786
0.50833	115597
0.50900	114432
0.50967	113292
0.51033	112174
0.51100	111079
0.51167	110005
0.51233	108952
0.51300	107920
0.51367	106907
0.51433	105913
0.51500	104938
0.51567	103981
0.51633	103041
0.51700	102118
0.51767	101211
0.51833	100320
0.51900	99445
0.51967	98584
0.52033	97738
0.52100	96905
0.52167	96087
0.52233	95282
0.52300	94489
0.52367	93710
0.52433	92942
0.52500	92186
0.52567	91442
0.52633	90709
0.52700	89987
0.52767	89275
0.52833	88574
0.52900	87882
0.52967	87201
0.53033	86529
0.53100	85866
0.53167	85212
0.53233	84567
0.53300	83931
0.53367	83303
0.53433	82683
0.53500	82072
0.53567	81468
0.53633	80872
0.53700	80283
0.53767	79702
0.53833	79128
0.53900	78562
0.53967	78002
0.54033	77448
0.54100	76902
0.54167	76362
0.54233	75828
0.54300	75301
0.54367	74780
0.54433	74266
0.54500	73758
0.54567	73256
0.54633	72761
0.54700	72271
0.54767	71788
0.54833	71312
0.54900	70842
0.54967	70378
0.55033	69921
0.55100	69471
0.55167	69028
0.55233	68591
0.55300	68161
0.55367	67738
0.55433	67322
0.55500	66913
0.55567	66510
0.55633	66115
0.55700	65725
0.55767	65342
0.55833	64964
0.55900	64593
0.55967	64227
0.56033	63866
0.56100	63511
0.56167	63160
0.56233	62813
0.56300	62471
0.56367	62132
0.56433	61796
0.56500	61464
0.56567	61134
0.56633	60807
0.56700	60482
0.56767	60160
0.56833	59839
0.56900	59521
0.56967	59204
0.57033	58889
0.57100	58576
0.57167	58264
0.57233	57953
0.57300	57644
0.57367	57336
0.57433	57030
0.57500	56725
0.57567	56420
0.57633	56118
0.57700	55816
0.57767	55516
0.57833	55216
0.57900	54918
0.57967	54621
0.58033	54325
0.58100	54031
0.58167	53737
0.58233	53445
0.58300	53154
0.58367	52864
0.58433	52575
0.58500	52288
0.58567	52002
0.58633	51717
0.58700	51433
0.58767	51151
0.58833	50871
0.58900	50591
0.58967	50314
0.59033	50038
0.59100	49763
0.59167	49490
0.59233	49219
0.59300	48950
0.59367	48682
0.59433	48416
0.59500	48151
0.59567	47889
0.59633	47628
0.59700	47369
0.59767	47112
0.59833	46857
0.59900	46603
0.59967	46351
0.60033	46102
0.60100	45854
0.60167	45608
0.60233	45364
0.60300	45122
0.60367	44881
0.60433	44643
0.60500	44406
0.60567	44172
0.60633	43939
0.60700	43709
0.60767	43480
0.60833	43253
0.60900	43029
0.60967	42806
0.61033	42586
0.61100	42367
0.61167	42150
0.61233	41936
0.61300	41723
0.61367	41513
0.61433	41304
0.61500	41098
0.61567	40894
0.61633	40691
0.61700	40491
0.61767	40292
0.61833	40096
0.61900	39901
0.61967	39708
0.62033	39517
0.62100	39328
0.62167	39141
0.62233	38956
0.62300	38772
0.62367	38590
0.62433	38410
0.62500	38231
0.62567	38053
0.62633	37878
0.62700	37703
0.62767	37530
0.62833	37359
0.62900	37189
0.62967	37021
0.63033	36853
0.63100	36687
0.63167	36523
0.63233	36360
0.63300	36198
0.63367	36037
0.63433	35878
0.63500	35720
0.63567	35564
0.63633	35408
0.63700	35255
0.63767	35102
0.63833	34951
0.63900	34801
0.63967	34653
0.64033	34506
0.64100	34360
0.64167	34215
0.64233	34072
0.64300	33931
0.64367	33790
0.64433	33651
0.64500	33514
0.64567	33377
0.64633	33242
0.64700	33107
0.64767	32974
0.64833	32842
0.64900	32711
0.64967	32582
0.65033	32453
0.65100	32325
0.65167	32198
0.65233	32072
0.65300	31946
0.65367	31822
0.65433	31698
0.65500	31575
0.65567	31453
0.65633	31331
0.65700	31210
0.65767	31090
0.65833	30971
0.65900	30852
0.65967	30734
0.66033	30616
0.66100	30499
0.66167	30383
0.66233	30267
0.66300	30151
0.66367	30037
0.66433	29922
0.66500	29809
0.66567	29696
0.66633	29583
0.66700	29471
0.66767	29360
0.66833	29249
0.66900	29139
0.66967	29029
0.67033	28920
0.67100	28812
0.67167	28704
0.67233	28596
0.67300	28490
0.67367	28384
0.67433	28279
0.67500	28175
0.67567	28071
0.67633	27969
0.67700	27868
0.67767	27767
0.67833	27668
0.67900	27571
0.67967	27475
0.68033	27380
0.68100	27288
0.68167	27198
0.68233	27110
0.68300	27024
0.68367	26942
0.68433	26863
0.68500	26787
0.68567	26715
0.68633	26648
0.68700	26584
0.68767	26526
0.68833	26472
0.68900	26424
0.68967	26382
0.69033	26345
0.69100	26315
0.69167	26291
0.69233	26273
0.69300	26262
0.69367	26257
0.69433	26259
0.69500	26267
0.69567	26282
0.69633	26302
0.69700	26328
0.69767	26359
0.69833	26395
0.69900	26436
0.69967	26480
0.70033	26527
0.70100	26577
0.70167	26629
0.70233	26683
0.70300	26737
0.70367	26791
0.70433	26844
0.70500	26896
0.70567	26945
0.70633	26992
0.70700	27035
0.70767	27075
0.70833	27110
0.70900	27140
0.70967	27166
0.71033	27185
0.71100	27200
0.71167	27208
0.71233	27211
0.71300	27207
0.71367	27198
0.71433	27183
0.71500	27162
0.71567	27135
0.71633	27103
0.71700	27066
0.71767	27023
0.71833	26975
0.71900	26923
0.71967	26865
0.72033	26804
0.72100	26738
0.72167	26668
0.72233	26595
0.72300	26518
0.72367	26437
0.72433	26354
0.72500	26268
0.72567	26179
0.72633	26088
0.72700	25995
0.72767	25900
0.72833	25802
0.72900	25704
0.72967	25603
0.73033	25502
0.73100	25399
0.73167	25295
0.73233	25190
0.73300	25084
0.73367	24978
0.73433	24870
0.73500	24763
0.73567	24655
0.73633	24547
0.73700	24438
0.73767	24329
0.73833	24220
0.73900	24112
0.73967	24003
0.74033	23895
0.74100	23786
0.74167	23678
0.74233	23571
0.74300	23463
0.74367	23356
0.74433	23250
0.74500	23144
0.74567	23038
0.74633	22934
0.74700	22829
0.74767	22726
0.74833	22623
0.74900	22521
0.74967	22419
0.75033	22318
0.75100	22218
0.75167	22119
0.75233	22021
0.75300	21923
0.75367	21827
0.75433	21731
0.75500	21636
0.75567	21542
0.75633	21448
0.75700	21356
0.75767	21264
0.75833	21174
0.75900	21084
0.75967	20995
0.76033	20907
0.76100	20820
0.76167	20734
0.76233	20649
0.76300	20565
0.76367	20481
0.76433	20399
0.76500	20317
0.76567	20236
0.76633	20156
0.76700	20077
0.76767	19999
0.76833	19922
0.76900	19845
0.76967	19770
0.77033	19695
0.77100	19621
0.77167	19548
0.77233	19476
0.77300	19405
0.77367	19334
0.77433	19264
0.77500	19196
0.77567	19127
0.77633	19060
0.77700	18993
0.77767	18928
0.77833	18862
0.77900	18798
0.77967	18734
0.78033	18671
0.78100	18609
0.78167	18547
0.78233	18487
0.78300	18426
0.78367	18367
0.78433	18308
0.78500	18250
0.78567	18192
0.78633	18135
0.78700	18079
0.78767	18024
0.78833	17969
0.78900	17914
0.78967	17860
0.79033	17807
0.79100	17755
0.79167	17703
0.79233	17651
0.79300	17600
0.79367	17550
0.79433	17500
0.79500	17451
0.79567	17402
0.79633	17354
0.79700	17306
0.79767	17259
0.79833	17212
0.79900	17166
0.79967	17120
0.80033	17074
0.80100	17030
0.80167	16985
0.80233	16941
0.80300	16898
0.80367	16855
0.80433	16812
0.80500	16770
0.80567	16728
0.80633	16687
0.80700	16646
0.80767	16606
0.80833	16566
0.80900	16526
0.80967	16487
0.81033	16449
0.81100	16410
0.81167	16373
0.81233	16335
0.81300	16298
0.81367	16262
0.81433	16226
0.81500	16190
0.81567	16155
0.81633	16121
0.81700	16086
0.81767	16052
0.81833	16019
0.81900	15986
0.81967	15953
0.82033	15921
0.82100	15889
0.82167	15858
0.82233	15827
0.82300	15796
0.82367	15765
0.82433	15735
0.82500	15705
0.82567	15675
0.82633	15646
0.82700	15617
0.82767	15588
0.82833	15559
0.82900	15531
0.82967	15502
0.83033	15474
0.83100	15446
0.83167	15419
0.83233	15391
0.83300	15364
0.83367	15337
0.83433	15310
0.83500	15283
0.83567	15256
0.83633	15230
0.83700	15203
0.83767	15177
0.83833	15151
0.83900	15125
0.83967	15099
0.84033	15073
0.84100	15047
0.84167	15021
0.84233	14995
0.84300	14970
0.84367	14944
0.84433	14919
0.84500	14893
0.84567	14868
0.84633	14842
0.84700	14817
0.84767	14792
0.84833	14766
0.84900	14741
0.84967	14716
0.85033	14690
0.85100	14665
0.85167	14640
0.85233	14614
0.85300	14589
0.85367	14563
0.85433	14538
0.85500	14513
0.85567	14487
0.85633	14462
0.85700	14436
0.85767	14411
0.85833	14385
0.85900	14360
0.85967	14335
0.86033	14309
0.86100	14284
0.86167	14259
0.86233	14234
0.86300	14208
0.86367	14183
0.86433	14158
0.86500	14133
0.86567	14108
0.86633	14084
0.86700	14059
0.86767	14034
0.86833	14010
0.86900	13985
0.86967	13961
0.87033	13937
0.87100	13912
0.87167	13888
0.87233	13864
0.87300	13840
0.87367	13817
0.87433	13793
0.87500	13769
0.87567	13746
0.87633	13722
0.87700	13699
0.87767	13676
0.87833	13653
0.87900	13630
0.87967	13608
0.88033	13585
0.88100	13563
0.88167	13541
0.88233	13518
0.88300	13496
0.88367	13474
0.88433	13452
0.88500	13431
0.88567	13409
0.88633	13387
0.88700	13366
0.88767	13345
0.88833	13324
0.88900	13303
0.88967	13282
0.89033	13261
0.89100	13240
0.89167	13220
0.89233	13200
0.89300	13179
0.89367	13159
0.89433	13139
0.89500	13119
0.89567	13099
0.89633	13080
0.89700	13060
0.89767	13041
0.89833	13021
0.89900	13002
0.89967	12983
0.90033	12964
0.90100	12945
0.90167	12926
0.90233	12908
0.90300	12889
0.90367	12871
0.90433	12853
0.90500	12834
0.90567	12816
0.90633	12798
0.90700	12780
0.90767	12763
0.90833	12745
0.90900	12727
0.90967	12710
0.91033	12692
0.91100	12675
0.91167	12657
0.91233	12640
0.91300	12623
0.91367	12606
0.91433	12589
0.91500	12572
0.91567	12555
0.91633	12538
0.91700	12521
0.91767	12505
0.91833	12488
0.91900	12472
0.91967	12455
0.92033	12439
0.92100	12423
0.92167	12407
0.92233	12391
0.92300	12374
0.92367	12358
0.92433	12343
0.92500	12327
0.92567	12311
0.92633	12295
0.92700	12280
0.92767	12264
0.92833	12249
0.92900	12234
0.92967	12219
0.93033	12204
0.93100	12189
0.93167	12174
0.93233	12159
0.93300	12144
0.93367	12129
0.93433	12115
0.93500	12100
0.93567	12085
0.93633	12071
0.93700	12056
0.93767	12042
0.93833	12027
0.93900	12013
0.93967	11999
0.94033	11984
0.94100	11970
0.94167	11956
0.94233	11941
0.94300	11927
0.94367	11913
0.94433	11899
0.94500	11885
0.94567	11871
0.94633	11856
0.94700	11842
0.94767	11828
0.94833	11814
0.94900	11800
0.94967	11786
0.95033	11773
0.95100	11759
0.95167	11745
0.95233	11731
0.95300	11718
0.95367	11704
0.95433	11691
0.95500	11677
0.95567	11664
0.95633	11651
0.95700	11637
0.95767	11624
0.95833	11611
0.95900	11598
0.95967	11586
0.96033	11573
0.96100	11560
0.96167	11548
0.96233	11535
0.96300	11523
0.96367	11511
0.96433	11499
0.96500	11486
0.96567	11474
0.96633	11462
0.96700	11451
0.96767	11439
0.96833	11427
0.96900	11415
0.96967	11403
0.97033	11392
0.97100	11380
0.97167	11368
0.97233	11356
0.97300	11344
0.97367	11333
0.97433	11321
0.97500	11309
0.97567	11297
0.97633	11285
0.97700	11273
0.97767	11260
0.97833	11248
0.97900	11236
0.97967	11224
0.98033	11211
0.98100	11199
0.98167	11186
0.98233	11174
0.98300	11161
0.98367	11148
0.98433	11136
0.98500	11123
0.98567	11110
0.98633	11097
0.98700	11084
0.98767	11072
0.98833	11059
0.98900	11046
0.98967	11033
0.99033	11020
0.99100	11007
0.99167	10995
0.99233	10982
0.99300	10969
0.99367	10956
0.99433	10943
0.99500	10930
0.99567	10918
0.99633	10905
0.99700	10892
0.99767	10879
0.99833	10867
0.99900	10854
0.99967	10841
1.00033	10829
1.00100	10816
1.00167	10804
1.00233	10791
1.00300	10779
1.00367	10766
1.00433	10754
1.00500	10742
1.00567	10730
1.00633	10718
1.00700	10706
1.00767	10694
1.00833	10682
1.00900	10670
1.00967	10659
1.01033	10647
1.01100	10636
1.01167	10625
1.01233	10614
1.01300	10603
1.01367	10593
1.01433	10583
1.01500	10573
1.01567	10563
1.01633	10554
1.01700	10545
1.01767	10536
1.01833	10527
1.01900	10519
1.01967	10511
1.02033	10504
1.02100	10496
1.02167	10489
1.02233	10483
1.02300	10476
1.02367	10470
1.02433	10464
1.02500	10459
1.02567	10453
1.02633	10448
1.02700	10443
1.02767	10438
1.02833	10434
1.02900	10429
1.02967	10425
1.03033	10420
1.03100	10416
1.03167	10411
1.03233	10407
1.03300	10402
1.03367	10398
1.03433	10393
1.03500	10388
1.03567	10383
1.03633	10378
1.03700	10372
1.03767	10367
1.03833	10361
1.03900	10356
1.03967	10350
1.04033	10343
1.04100	10337
1.04167	10330
1.04233	10323
1.04300	10316
1.04367	10308
1.04433	10301
1.04500	10293
1.04567	10285
1.04633	10277
1.04700	10268
1.04767	10260
1.04833	10251
1.04900	10242
1.04967	10233
1.05033	10224
1.05100	10214
1.05167	10205
1.05233	10195
1.05300	10186
1.05367	10176
1.05433	10166
1.05500	10156
1.05567	10146
1.05633	10135
1.05700	10125
1.05767	10115
1.05833	10104
1.05900	10094
1.05967	10083
1.06033	10072
1.06100	10062
1.06167	10051
1.06233	10040
1.06300	10030
1.06367	10019
1.06433	10008
1.06500	9997
1.06567	9987
1.06633	9976
1.06700	9965
1.06767	9954
1.06833	9943
1.06900	9932
1.06967	9921
1.07033	9911
1.07100	9900
1.07167	9889
1.07233	9878
1.07300	9867
1.07367	9857
1.07433	9846
1.07500	9835
1.07567	9824
1.07633	9814
1.07700	9803
1.07767	9792
1.07833	9782
1.07900	9771
1.07967	9761
1.08033	9750
1.08100	9740
1.08167	9729
1.08233	9719
1.08300	9709
1.08367	9698
1.08433	9688
1.08500	9678
1.08567	9668
1.08633	9658
1.08700	9648
1.08767	9638
1.08833	9628
1.08900	9618
1.08967	9608
1.09033	9598
1.09100	9589
1.09167	9579
1.09233	9570
1.09300	9560
1.09367	9551
1.09433	9541
1.09500	9532
1.09567	9522
1.09633	9513
1.09700	9503
1.09767	9494
1.09833	9484
1.09900	9475
1.09967	9466
1.10033	9457
1.10100	9448
1.10167	9438
1.10233	9429
1.10300	9420
1.10367	9411
1.10433	9402
1.10500	9393
1.10567	9384
1.10633	9376
1.10700	9367
1.10767	9358
1.10833	9349
1.10900	9341
1.10967	9332
1.11033	9324
1.11100	9316
1.11167	9307
1.11233	9299
1.11300	9291
1.11367	9283
1.11433	9275
1.11500	9267
1.11567	9259
1.11633	9251
1.11700	9244
1.11767	9236
1.11833	9228
1.11900	9221
1.11967	9214
1.12033	9206
1.12100	9199
1.12167	9192
1.12233	9185
1.12300	9178
1.12367	9171
1.12433	9165
1.12500	9158
1.12567	9152
1.12633	9146
1.12700	9140
1.12767	9134
1.12833	9128
1.12900	9123
1.12967	9118
1.13033	9113
1.13100	9108
1.13167	9104
1.13233	9100
1.13300	9096
1.13367	9093
1.13433	9089
1.13500	9087
1.13567	9084
1.13633	9081
1.13700	9079
1.13767	9077
1.13833	9075
1.13900	9073
1.13967	9072
1.14033	9070
1.14100	9069
1.14167	9068
1.14233	9067
1.14300	9065
1.14367	9064
1.14433	9063
1.14500	9062
1.14567	9061
1.14633	9059
1.14700	9058
1.14767	9056
1.14833	9055
1.14900	9053
1.14967	9051
1.15033	9049
1.15100	9047
1.15167	9044
1.15233	9042
1.15300	9039
1.15367	9036
1.15433	9032
1.15500	9029
1.15567	9025
1.15633	9022
1.15700	9018
1.15767	9014
1.15833	9009
1.15900	9005
1.15967	9000
1.16033	8995
1.16100	8990
1.16167	8985
1.16233	8980
1.16300	8974
1.16367	8969
1.16433	8963
1.16500	8957
1.16567	8951
1.16633	8945
1.16700	8938
1.16767	8932
1.16833	8925
1.16900	8919
1.16967	8912
1.17033	8905
1.17100	8898
1.17167	8891
1.17233	8884
1.17300	8877
1.17367	8870
1.17433	8863
1.17500	8855
1.17567	8848
1.17633	8841
1.17700	8833
1.17767	8826
1.17833	8819
1.17900	8811
1.17967	8804
1.18033	8797
1.18100	8789
1.18167	8782
1.18233	8775
1.18300	8767
1.18367	8760
1.18433	8753
1.18500	8746
1.18567	8739
1.18633	8732
1.18700	8725
1.18767	8718
1.18833	8711
1.18900	8705
1.18967	8698
1.19033	8691
1.19100	8685
1.19167	8678
1.19233	8672
1.19300	8665
1.19367	8659
1.19433	8653
1.19500	8646
1.19567	8640
1.19633	8634
1.19700	8628
1.19767	8622
1.19833	8616
1.19900	8610
1.19967	8605
1.20033	8599
1.20100	8593
1.20167	8588
1.20233	8583
1.20300	8577
1.20367	8572
1.20433	8567
1.20500	8562
1.20567	8557
1.20633	8552
1.20700	8548
1.20767	8543
1.20833	8538
1.20900	8534
1.20967	8530
1.21033	8525
1.21100	8521
1.21167	8517
1.21233	8513
1.21300	8509
1.21367	8505
1.21433	8501
1.21500	8497
1.21567	8494
1.21633	8490
1.21700	8486
1.21767	8483
1.21833	8480
1.21900	8476
1.21967	8473
1.22033	8470
1.22100	8467
1.22167	8464
1.22233	8461
1.22300	8458
1.22367	8455
1.22433	8452
1.22500	8449
1.22567	8446
1.22633	8443
1.22700	8441
1.22767	8438
1.22833	8435
1.22900	8432
1.22967	8429
1.23033	8427
1.23100	8424
1.23167	8421
1.23233	8419
1.23300	8416
1.23367	8413
1.23433	8411
1.23500	8408
1.23567	8406
1.23633	8403
1.23700	8401
1.23767	8398
1.23833	8396
1.23900	8393
1.23967	8391
1.24033	8388
1.24100	8386
1.24167	8383
1.24233	8381
1.24300	8379
1.24367	8376
1.24433	8374
1.24500	8372
1.24567	8369
1.24633	8367
1.24700	8365
1.24767	8362
1.24833	8360
1.24900	8358
1.24967	8356
1.25033	8354
1.25100	8352
1.25167	8350
1.25233	8348
1.25300	8346
1.25367	8344
1.25433	8342
1.25500	8340
1.25567	8339
1.25633	8337
1.25700	8335
1.25767	8334
1.25833	8332
1.25900	8331
1.25967	8329
1.26033	8328
1.26100	8326
1.26167	8325
1.26233	8324
1.26300	8323
1.26367	8321
1.26433	8320
1.26500	8319
1.26567	8318
1.26633	8318
1.26700	8317
1.26767	8316
1.26833	8315
1.26900	8315
1.26967	8314
1.27033	8314
1.27100	8313
1.27167	8313
1.27233	8313
1.27300	8313
1.27367	8313
1.27433	8313
1.27500	8314
1.27567	8315
1.27633	8315
1.27700	8316
1.27767	8317
1.27833	8318
1.27900	8320
1.27967	8321
1.28033	8323
1.28100	8325
1.28167	8327
1.28233	8330
1.28300	8332
1.28367	8335
1.28433	8338
1.28500	8340
1.28567	8343
1.28633	8346
1.28700	8349
1.28767	8352
1.28833	8355
1.28900	8358
1.28967	8360
1.29033	8363
1.29100	8366
1.29167	8368
1.29233	8370
1.29300	8372
1.29367	8374
1.29433	8376
1.29500	8377
1.29567	8379
1.29633	8380
1.29700	8381
1.29767	8381
1.29833	8382
1.29900	8382
1.29967	8382
1.30033	8382
1.30100	8381
1.30167	8381
1.30233	8380
1.30300	8379
1.30367	8377
1.30433	8376
1.30500	8374
1.30567	8373
1.30633	8371
1.30700	8368
1.30767	8366
1.30833	8364
1.30900	8361
1.30967	8358
1.31033	8355
1.31100	8352
1.31167	8348
1.31233	8345
1.31300	8341
1.31367	8337
1.31433	8333
1.31500	8329
1.31567	8325
1.31633	8321
1.31700	8316
1.31767	8312
1.31833	8307
1.31900	8302
1.31967	8297
1.32033	8292
1.32100	8287
1.32167	8282
1.32233	8277
1.32300	8271
1.32367	8266
1.32433	8260
1.32500	8255
1.32567	8249
1.32633	8243
1.32700	8237
1.32767	8232
1.32833	8226
1.32900	8220
1.32967	8214
1.33033	8208
1.33100	8202
1.33167	8196
1.33233	8190
1.33300	8184
1.33367	8178
1.33433	8172
1.33500	8165
1.33567	8159
1.33633	8153
1.33700	8147
1.33767	8140
1.33833	8134
1.33900	8128
1.33967	8121
1.34033	8115
1.34100	8109
1.34167	8102
1.34233	8096
1.34300	8089
1.34367	8082
1.34433	8076
1.34500	8069
1.34567	8062
1.34633	8056
1.34700	8049
1.34767	8042
1.34833	8035
1.34900	8029
1.34967	8022
1.35033	8015
1.35100	8008
1.35167	8001
1.35233	7995
1.35300	7988
1.35367	7981
1.35433	7974
1.35500	7968
1.35567	7961
1.35633	7954
1.35700	7948
1.35767	7941
1.35833	7935
1.35900	7928
1.35967	7922
1.36033	7916
1.36100	7910
1.36167	7903
1.36233	7897
1.36300	7891
1.36367	7885
1.36433	7880
1.36500	7874
1.36567	7868
1.36633	7862
1.36700	7857
1.36767	7851
1.36833	7846
1.36900	7840
1.36967	7835
1.37033	7830
1.37100	7825
1.37167	7819
1.37233	7814
1.37300	7809
1.37367	7804
1.37433	7799
1.37500	7795
1.37567	7790
1.37633	7785
1.37700	7780
1.37767	7776
1.37833	7771
1.37900	7766
1.37967	7762
1.38033	7758
1.38100	7753
1.38167	7749
1.38233	7745
1.38300	7741
1.38367	7737
1.38433	7733
1.38500	7729
1.38567	7725
1.38633	7721
1.38700	7717
1.38767	7713
1.38833	7710
1.38900	7706
1.38967	7702
1.39033	7698
1.39100	7694
1.39167	7691
1.39233	7687
1.39300	7683
1.39367	7679
1.39433	7675
1.39500	7672
1.39567	7668
1.39633	7664
1.39700	7660
1.39767	7656
1.39833	7652
1.39900	7648
1.39967	7644
1.40033	7640
1.40100	7636
1.40167	7632
1.40233	7628
1.40300	7624
1.40367	7620
1.40433	7616
1.40500	7612
1.40567	7608
1.40633	7604
1.40700	7600
1.40767	7596
1.40833	7592
1.40900	7587
1.40967	7583
1.41033	7579
1.41100	7575
1.41167	7571
1.41233	7567
1.41300	7563
1.41367	7559
1.41433	7555
1.41500	7550
1.41567	7546
1.41633	7542
1.41700	7538
1.41767	7534
1.41833	7530
1.41900	7526
1.41967	7522
1.42033	7518
1.42100	7514
1.42167	7511
1.42233	7507
1.42300	7503
1.42367	7500
1.42433	7496
1.42500	7493
1.42567	7489
1.42633	7486
1.42700	7483
1.42767	7480
1.42833	7477
1.42900	7474
1.42967	7471
1.43033	7468
1.43100	7465
1.43167	7463
1.43233	7460
1.43300	7458
1.43367	7455
1.43433	7453
1.43500	7451
1.43567	7449
1.43633	7446
1.43700	7444
1.43767	7442
1.43833	7440
1.43900	7438
1.43967	7436
1.44033	7434
1.44100	7433
1.44167	7431
1.44233	7429
1.44300	7428
1.44367	7426
1.44433	7424
1.44500	7423
1.44567	7421
1.44633	7420
1.44700	7418
1.44767	7417
1.44833	7416
1.44900	7414
1.44967	7413
1.45033	7412
1.45100	7410
1.45167	7409
1.45233	7407
1.45300	7406
1.45367	7404
1.45433	7403
1.45500	7401
1.45567	7399
1.45633	7397
1.45700	7396
1.45767	7394
1.45833	7392
1.45900	7390
1.45967	7388
1.46033	7386
1.46100	7383
1.46167	7381
1.46233	7379
1.46300	7377
1.46367	7374
1.46433	7372
1.46500	7369
1.46567	7367
1.46633	7364
1.46700	7361
1.46767	7359
1.46833	7356
1.46900	7353
1.46967	7350
1.47033	7348
1.47100	7345
1.47167	7342
1.47233	7339
1.47300	7337
1.47367	7334
1.47433	7331
1.47500	7328
1.47567	7325
1.47633	7323
1.47700	7320
1.47767	7317
1.47833	7314
1.47900	7311
1.47967	7308
1.48033	7305
1.48100	7302
1.48167	7299
1.48233	7296
1.48300	7293
1.48367	7290
1.48433	7287
1.48500	7284
1.48567	7281
1.48633	7278
1.48700	7275
1.48767	7272
1.48833	7269
1.48900	7266
1.48967	7263
1.49033	7260
1.49100	7256
1.49167	7253
1.49233	7250
1.49300	7247
1.49367	7243
1.49433	7240
1.49500	7237
1.49567	7233
1.49633	7230
1.49700	7227
1.49767	7223
1.49833	7220
1.49900	7216
1.49967	7213
1.50033	7209
1.50100	7206
1.50167	7202
1.50233	7199
1.50300	7195
1.50367	7192
1.50433	7188
1.50500	7185
1.50567	7181
1.50633	7178
1.50700	7174
1.50767	7171
1.50833	7167
1.50900	7164
1.50967	7160
1.51033	7157
1.51100	7153
1.51167	7150
1.51233	7146
1.51300	7143
1.51367	7139
1.51433	7136
1.51500	7133
1.51567	7129
1.51633	7126
1.51700	7122
1.51767	7119
1.51833	7116
1.51900	7112
1.51967	7109
1.52033	7106
1.52100	7102
1.52167	7099
1.52233	7096
1.52300	7093
1.52367	7090
1.52433	7086
1.52500	7083
1.52567	7080
1.52633	7077
1.52700	7075
1.52767	7072
1.52833	7069
1.52900	7066
1.52967	7064
1.53033	7061
1.53100	7059
1.53167	7056
1.53233	7054
1.53300	7051
1.53367	7049
1.53433	7047
1.53500	7045
1.53567	7042
1.53633	7040
1.53700	7038
1.53767	7036
1.53833	7033
1.53900	7031
1.53967	7029
1.54033	7027
1.54100	7025
1.54167	7023
1.54233	7021
1.54300	7019
1.54367	7016
1.54433	7014
1.54500	7012
1.54567	7010
1.54633	7008
1.54700	7006
1.54767	7004
1.54833	7001
1.54900	6999
1.54967	6997
1.55033	6995
1.55100	6993
1.55167	6990
1.55233	6988
1.55300	6986
1.55367	6984
1.55433	6981
1.55500	6979
1.55567	6977
1.55633	6974
1.55700	6972
1.55767	6969
1.55833	6967
1.55900	6965
1.55967	6962
1.56033	6960
1.56100	6958
1.56167	6955
1.56233	6953
1.56300	6951
1.56367	6948
1.56433	6946
1.56500	6944
1.56567	6942
1.56633	6939
1.56700	6937
1.56767	6935
1.56833	6933
1.56900	6931
1.56967	6929
1.57033	6927
1.57100	6925
1.57167	6923
1.57233	6921
1.57300	6919
1.57367	6916
1.57433	6915
1.57500	6913
1.57567	6911
1.57633	6909
1.57700	6907
1.57767	6905
1.57833	6903
1.57900	6902
1.57967	6900
1.58033	6898
1.58100	6897
1.58167	6895
1.58233	6893
1.58300	6892
1.58367	6890
1.58433	6889
1.58500	6887
1.58567	6886
1.58633	6884
1.58700	6883
1.58767	6881
1.58833	6880
1.58900	6878
1.58967	6877
1.59033	6875
1.59100	6874
1.59167	6873
1.59233	6871
1.59300	6870
1.59367	6869
1.59433	6867
1.59500	6866
1.59567	6864
1.59633	6863
1.59700	6862
1.59767	6860
1.59833	6859
1.59900	6858
1.59967	6856
1.60033	6855
1.60100	6853
1.60167	6852
1.60233	6850
1.60300	6849
1.60367	6847
1.60433	6846
1.60500	6844
1.60567	6842
1.60633	6841
1.60700	6839
1.60767	6838
1.60833	6836
1.60900	6835
1.60967	6833
1.61033	6832
1.61100	6830
1.61167	6829
1.61233	6827
1.61300	6826
1.61367	6824
1.61433	6822
1.61500	6821
1.61567	6819
1.61633	6818
1.61700	6816
1.61767	6814
1.61833	6813
1.61900	6811
1.61967	6810
1.62033	6808
1.62100	6807
1.62167	6805
1.62233	6804
1.62300	6802
1.62367	6801
1.62433	6800
1.62500	6798
1.62567	6797
1.62633	6796
1.62700	6794
1.62767	6793
1.62833	6792
1.62900	6791
1.62967	6789
1.63033	6788
1.63100	6787
1.63167	6786
1.63233	6785
1.63300	6783
1.63367	6782
1.63433	6781
1.63500	6780
1.63567	6779
1.63633	6778
1.63700	6777
1.63767	6776
1.63833	6775
1.63900	6774
1.63967	6773
1.64033	6772
1.64100	6771
1.64167	6770
1.64233	6769
1.64300	6768
1.64367	6767
1.64433	6766
1.64500	6765
1.64567	6764
1.64633	6763
1.64700	6762
1.64767	6761
1.64833	6760
1.64900	6760
1.64967	6759
1.65033	6758
1.65100	6757
1.65167	6756
1.65233	6755
1.65300	6754
1.65367	6753
1.65433	6752
1.65500	6751
1.65567	6750
1.65633	6749
1.65700	6748
1.65767	6747
1.65833	6747
1.65900	6746
1.65967	6745
1.66033	6744
1.66100	6743
1.66167	6742
1.66233	6741
1.66300	6740
1.66367	6739
1.66433	6738
1.66500	6737
1.66567	6736
1.66633	6735
1.66700	6734
1.66767	6733
1.66833	6732
1.66900	6730
1.66967	6729
1.67033	6728
1.67100	6727
1.67167	6726
1.67233	6724
1.67300	6723
1.67367	6722
1.67433	6720
1.67500	6719
1.67567	6717
1.67633	6716
1.67700	6714
1.67767	6712
1.67833	6711
1.67900	6709
1.67967	6707
1.68033	6706
1.68100	6704
1.68167	6702
1.68233	6700
1.68300	6699
1.68367	6697
1.68433	6695
1.68500	6693
1.68567	6691
1.68633	6690
1.68700	6688
1.68767	6686
1.68833	6685
1.68900	6683
1.68967	6681
1.69033	6680
1.69100	6678
1.69167	6677
1.69233	6675
1.69300	6674
1.69367	6672
1.69433	6671
1.69500	6669
1.69567	6668
1.69633	6666
1.69700	6665
1.69767	6663
1.69833	6662
1.69900	6660
1.69967	6659
1.70033	6657
1.70100	6656
1.70167	6655
1.70233	6653
1.70300	6652
1.70367	6651
1.70433	6649
1.70500	6648
1.70567	6647
1.70633	6645
1.70700	6644
1.70767	6642
1.70833	6641
1.70900	6639
1.70967	6638
1.71033	6636
1.71100	6635
1.71167	6634
1.71233	6632
1.71300	6631
1.71367	6630
1.71433	6629
1.71500	6629
1.71567	6629
1.71633	6629
1.71700	6629
1.71767	6631
1.71833	6633
1.71900	6636
1.71967	6640
1.72033	6645
1.72100	6653
1.72167	6662
1.72233	6674
1.72300	6690
1.72367	6709
1.72433	6733
1.72500	6762
1.72567	6799
1.72633	6843
1.72700	6897
1.72767	6962
1.72833	7040
1.72900	7134
1.72967	7247
1.73033	7380
1.73100	7539
1.73167	7725
1.73233	7944
1.73300	8199
1.73367	8497
1.73433	8842
1.73500	9240
1.73567	9698
1.73633	10222
1.73700	10820
1.73767	11500
1.73833	12269
1.73900	13137
1.73967	14110
1.74033	15199
1.74100	16410
1.74167	17754
1.74233	19239
1.74300	20874
1.74367	22670
1.74433	24637
1.74500	26784
1.74567	29122
1.74633	31660
1.74700	34406
1.74767	37368
1.74833	40555
1.74900	43971
1.74967	47621
1.75033	51510
1.75100	55638
1.75167	60003
1.75233	64606
1.75300	69445
1.75367	74521
1.75433	79831
1.75500	85373
1.75567	91142
1.75633	97129
1.75700	103323
1.75767	109706
1.75833	116259
1.75900	122962
1.75967	129794
1.76033	136734
1.76100	143761
1.76167	150853
1.76233	157984
1.76300	165126
1.76367	172248
1.76433	179318
1.76500	186303
1.76567	193172
1.76633	199896
1.76700	206447
1.76767	212799
1.76833	218926
1.76900	224806
1.76967	230414
1.77033	235733
1.77100	240742
1.77167	245428
1.77233	249777
1.77300	253780
1.77367	257430
1.77433	260721
1.77500	263652
1.77567	266221
1.77633	268432
1.77700	270289
1.77767	271797
1.77833	272964
1.77900	273799
1.77967	274312
1.78033	274512
1.78100	274413
1.78167	274026
1.78233	273365
1.78300	272442
1.78367	271271
1.78433	269867
1.78500	268243
1.78567	266413
1.78633	264390
1.78700	262187
1.78767	259819
1.78833	257298
1.78900	254635
1.78967	251843
1.79033	248934
1.79100	245919
1.79167	242808
1.79233	239610
1.79300	236337
1.79367	232997
1.79433	229599
1.79500	226151
1.79567	222660
1.79633	219135
1.79700	215581
1.79767	212006
1.79833	208415
1.79900	204815
1.79967	201210
1.80033	197606
1.80100	194007
1.80167	190417
1.80233	186841
1.80300	183281
1.80367	179742
1.80433	176227
1.80500	172738
1.80567	169279
1.80633	165851
1.80700	162457
1.80767	159098
1.80833	155778
1.80900	152496
1.80967	149256
1.81033	146058
1.81100	142903
1.81167	139793
1.81233	136728
1.81300	133710
1.81367	130738
1.81433	127814
1.81500	124937
1.81567	122110
1.81633	119330
1.81700	116600
1.81767	113918
1.81833	111285
1.81900	108702
1.81967	106167
1.82033	103681
1.82100	101243
1.82167	98854
1.82233	96513
1.82300	94220
1.82367	91974
1.82433	89775
1.82500	87622
1.82567	85516
1.82633	83456
1.82700	81440
1.82767	79469
1.82833	77542
1.82900	75658
1.82967	73817
1.83033	72018
1.83100	70261
1.83167	68545
1.83233	66870
1.83300	65234
1.83367	63637
1.83433	62078
1.83500	60558
1.83567	59074
1.83633	57627
1.83700	56215
1.83767	54839
1.83833	53497
1.83900	52189
1.83967	50914
1.84033	49671
1.84100	48460
1.84167	47281
1.84233	46131
1.84300	45012
1.84367	43922
1.84433	42860
1.84500	41827
1.84567	40820
1.84633	39840
1.84700	38887
1.84767	37959
1.84833	37055
1.84900	36176
1.84967	35321
1.85033	34489
1.85100	33680
1.85167	32893
1.85233	32127
1.85300	31383
1.85367	30658
1.85433	29954
1.85500	29270
1.85567	28604
1.85633	27957
1.85700	27328
1.85767	26717
1.85833	26123
1.85900	25546
1.85967	24984
1.86033	24439
1.86100	23909
1.86167	23394
1.86233	22894
1.86300	22408
1.86367	21936
1.86433	21477
1.86500	21031
1.86567	20598
1.86633	20178
1.86700	19769
1.86767	19373
1.86833	18987
1.86900	18613
1.86967	18250
1.87033	17897
1.87100	17554
1.87167	17221
1.87233	16898
1.87300	16584
1.87367	16279
1.87433	15983
1.87500	15696
1.87567	15417
1.87633	15146
1.87700	14883
1.87767	14627
1.87833	14379
1.87900	14138
1.87967	13905
1.88033	13678
1.88100	13458
1.88167	13244
1.88233	13036
1.88300	12835
1.88367	12639
1.88433	12450
1.88500	12266
1.88567	12087
1.88633	11914
1.88700	11745
1.88767	11582
1.88833	11423
1.88900	11270
1.88967	11120
1.89033	10976
1.89100	10835
1.89167	10699
1.89233	10567
1.89300	10438
1.89367	10314
1.89433	10193
1.89500	10075
1.89567	9962
1.89633	9851
1.89700	9744
1.89767	9640
1.89833	9539
1.89900	9441
1.89967	9346
1.90033	9254
1.90100	9164
1.90167	9077
1.90233	8993
1.90300	8911
1.90367	8831
1.90433	8754
1.90500	8678
1.90567	8605
1.90633	8534
1.90700	8465
1.90767	8398
1.90833	8333
1.90900	8270
1.90967	8208
1.91033	8148
1.91100	8090
1.91167	8034
1.91233	7979
1.91300	7925
1.91367	7873
1.91433	7822
1.91500	7773
1.91567	7725
1.91633	7678
1.91700	7633
1.91767	7588
1.91833	7545
1.91900	7503
1.91967	7462
1.92033	7422
1.92100	7383
1.92167	7345
1.92233	7308
1.92300	7272
1.92367	7237
1.92433	7202
1.92500	7169
1.92567	7136
1.92633	7104
1.92700	7073
1.92767	7043
1.92833	7013
1.92900	6984
1.92967	6955
1.93033	6928
1.93100	6901
1.93167	6874
1.93233	6848
1.93300	6823
1.93367	6799
1.93433	6775
1.93500	6751
1.93567	6729
1.93633	6706
1.93700	6685
1.93767	6663
1.93833	6643
1.93900	6622
1.93967	6603
1.94033	6583
1.94100	6565
1.94167	6546
1.94233	6528
1.94300	6511
1.94367	6494
1.94433	6477
1.94500	6461
1.94567	6445
1.94633	6430
1.94700	6415
1.94767	6400
1.94833	6386
1.94900	6372
1.94967	6358
1.95033	6345
1.95100	6332
1.95167	6320
1.95233	6307
1.95300	6296
1.95367	6284
1.95433	6273
1.95500	6262
1.95567	6251
1.95633	6240
1.95700	6230
1.95767	6220
1.95833	6210
1.95900	6201
1.95967	6191
1.96033	6182
1.96100	6173
1.96167	6165
1.96233	6156
1.96300	6148
1.96367	6140
1.96433	6132
1.96500	6124
1.96567	6116
1.96633	6108
1.96700	6101
1.96767	6094
1.96833	6086
1.96900	6079
1.96967	6072
1.97033	6065
1.97100	6059
1.97167	6052
1.97233	6045
1.97300	6039
1.97367	6032
1.97433	6026
1.97500	6020
1.97567	6014
1.97633	6008
1.97700	6002
1.97767	5996
1.97833	5990
1.97900	5985
1.97967	5979
1.98033	5974
1.98100	5968
1.98167	5963
1.98233	5958
1.98300	5953
1.98367	5948
1.98433	5943
1.98500	5938
1.98567	5933
1.98633	5928
1.98700	5923
1.98767	5918
1.98833	5914
1.98900	5909
1.98967	5905
1.99033	5900
1.99100	5896
1.99167	5892
1.99233	5887
1.99300	5883
1.99367	5879
1.99433	5875
1.99500	5871
1.99567	5867
1.99633	5863
1.99700	5858
1.99767	5854
1.99833	5851
1.99900	5847
1.99967	5843
2.00033	5839
2.00100	5835
2.00167	5831
2.00233	5827
2.00300	5823
2.00367	5819
2.00433	5815
2.00500	5812
2.00567	5808
2.00633	5804
2.00700	5800
2.00767	5796
2.00833	5793
2.00900	5789
2.00967	5785
2.01033	5781
2.01100	5777
2.01167	5773
2.01233	5770
2.01300	5766
2.01367	5762
2.01433	5758
2.01500	5754
2.01567	5750
2.01633	5746
2.01700	5743
2.01767	5739
2.01833	5735
2.01900	5731
2.01967	5727
2.02033	5723
2.02100	5720
2.02167	5716
2.02233	5712
2.02300	5709
2.02367	5705
2.02433	5701
2.02500	5697
2.02567	5694
2.02633	5690
2.02700	5687
2.02767	5683
2.02833	5679
2.02900	5676
2.02967	5672
2.03033	5669
2.03100	5666
2.03167	5662
2.03233	5659
2.03300	5655
2.03367	5652
2.03433	5649
2.03500	5645
2.03567	5642
2.03633	5639
2.03700	5635
2.03767	5632
2.03833	5629
2.03900	5626
2.03967	5623
2.04033	5619
2.04100	5616
2.04167	5613
2.04233	5610
2.04300	5607
2.04367	5604
2.04433	5601
2.04500	5599
2.04567	5596
2.04633	5593
2.04700	5590
2.04767	5587
2.04833	5585
2.04900	5582
2.04967	5579
2.05033	5577
2.05100	5574
2.05167	5572
2.05233	5569
2.05300	5567
2.05367	5564
2.05433	5562
2.05500	5560
2.05567	5557
2.05633	5555
2.05700	5553
2.05767	5550
2.05833	5548
2.05900	5546
2.05967	5544
2.06033	5542
2.06100	5540
2.06167	5537
2.06233	5535
2.06300	5533
2.06367	5531
2.06433	5529
2.06500	5526
2.06567	5524
2.06633	5522
2.06700	5520
2.06767	5517
2.06833	5515
2.06900	5513
2.06967	5511
2.07033	5508
2.07100	5506
2.07167	5504
2.07233	5502
2.07300	5499
2.07367	5497
2.07433	5495
2.07500	5493
2.07567	5490
2.07633	5488
2.07700	5486
2.07767	5484
2.07833	5481
2.07900	5479
2.07967	5477
2.08033	5474
2.08100	5472
2.08167	5470
2.08233	5468
2.08300	5465
2.08367	5463
2.08433	5461
2.08500	5458
2.08567	5456
2.08633	5454
2.08700	5451
2.08767	5449
2.08833	5447
2.08900	5444
2.08967	5442
2.09033	5440
2.09100	5437
2.09167	5435
2.09233	5433
2.09300	5431
2.09367	5428
2.09433	5426
2.09500	5424
2.09567	5422
2.09633	5420
2.09700	5418
2.09767	5416
2.09833	5414
2.09900	5412
2.09967	5410
2.10033	5408
2.10100	5406
2.10167	5404
2.10233	5401
2.10300	5399
2.10367	5397
2.10433	5395
2.10500	5393
2.10567	5391
2.10633	5389
2.10700	5387
2.10767	5385
2.10833	5383
2.10900	5381
2.10967	5378
2.11033	5376
2.11100	5374
2.11167	5372
2.11233	5370
2.11300	5368
2.11367	5366
2.11433	5364
2.11500	5362
2.11567	5360
2.11633	5358
2.11700	5356
2.11767	5354
2.11833	5351
2.11900	5349
2.11967	5347
2.12033	5345
2.12100	5343
2.12167	5341
2.12233	5339
2.12300	5336
2.12367	5334
2.12433	5332
2.12500	5330
2.12567	5328
2.12633	5326
2.12700	5323
2.12767	5321
2.12833	5319
2.12900	5317
2.12967	5315
2.13033	5313
2.13100	5311
2.13167	5308
2.13233	5306
2.13300	5304
2.13367	5302
2.13433	5300
2.13500	5298
2.13567	5296
2.13633	5294
2.13700	5291
2.13767	5289
2.13833	5287
2.13900	5285
2.13967	5283
2.14033	5281
2.14100	5279
2.14167	5276
2.14233	5274
2.14300	5272
2.14367	5270
2.14433	5268
2.14500	5266
2.14567	5264
2.14633	5262
2.14700	5260
2.14767	5258
2.14833	5256
2.14900	5253
2.14967	5251
2.15033	5249
2.15100	5248
2.15167	5246
2.15233	5244
2.15300	5242
2.15367	5240
2.15433	5238
2.15500	5237
2.15567	5235
2.15633	5233
2.15700	5231
2.15767	5230
2.15833	5228
2.15900	5226
2.15967	5225
2.16033	5223
2.16100	5221
2.16167	5219
2.16233	5218
2.16300	5216
2.16367	5214
2.16433	5212
2.16500	5211
2.16567	5209
2.16633	5207
2.16700	5206
2.16767	5204
2.16833	5202
2.16900	5200
2.16967	5199
2.17033	5197
2.17100	5195
2.17167	5193
2.17233	5192
2.17300	5190
2.17367	5188
2.17433	5186
2.17500	5185
2.17567	5183
2.17633	5181
2.17700	5179
2.17767	5178
2.17833	5176
2.17900	5174
2.17967	5173
2.18033	5171
2.18100	5169
2.18167	5167
2.18233	5166
2.18300	5164
2.18367	5162
2.18433	5161
2.18500	5159
2.18567	5157
2.18633	5156
2.18700	5154
2.18767	5152
2.18833	5151
2.18900	5149
2.18967	5148
2.19033	5146
2.19100	5145
2.19167	5143
2.19233	5142
2.19300	5140
2.19367	5139
2.19433	5137
2.19500	5136
2.19567	5135
2.19633	5133
2.19700	5132
2.19767	5130
2.19833	5129
2.19900	5128
2.19967	5126
2.20033	5125
2.20100	5124
2.20167	5122
2.20233	5121
2.20300	5120
2.20367	5119
2.20433	5118
2.20500	5117
2.20567	5116
2.20633	5115
2.20700	5114
2.20767	5113
2.20833	5113
2.20900	5112
2.20967	5111
2.21033	5111
2.21100	5111
2.21167	5110
2.21233	5110
2.21300	5110
2.21367	5109
2.21433	5109
2.21500	5109
2.21567	5109
2.21633	5109
2.21700	5109
2.21767	5109
2.21833	5109
2.21900	5109
2.21967	5109
2.22033	5109
2.22100	5109
2.22167	5109
2.22233	5110
2.22300	5110
2.22367	5110
2.22433	5110
2.22500	5110
2.22567	5110
2.22633	5110
2.22700	5110
2.22767	5109
2.22833	5109
2.22900	5109
2.22967	5109
2.23033	5109
2.23100	5108
2.23167	5108
2.23233	5108
2.23300	5108
2.23367	5107
2.23433	5107
2.23500	5106
2.23567	5106
2.23633	5105
2.23700	5105
2.23767	5104
2.23833	5104
2.23900	5103
2.23967	5102
2.24033	5102
2.24100	5101
2.24167	5100
2.24233	5100
2.24300	5099
2.24367	5098
2.24433	5097
2.24500	5096
2.24567	5095
2.24633	5095
2.24700	5094
2.24767	5093
2.24833	5092
2.24900	5091
2.24967	5090
2.25033	5088
2.25100	5087
2.25167	5086
2.25233	5085
2.25300	5084
2.25367	5083
2.25433	5082
2.25500	5081
2.25567	5080
2.25633	5079
2.25700	5078
2.25767	5077
2.25833	5076
2.25900	5074
2.25967	5073
2.26033	5072
2.26100	5071
2.26167	5070
2.26233	5069
2.26300	5068
2.26367	5067
2.26433	5066
2.26500	5065
2.26567	5064
2.26633	5062
2.26700	5061
2.26767	5060
2.26833	5059
2.26900	5058
2.26967	5056
2.27033	5055
2.27100	5053
2.27167	5052
2.27233	5051
2.27300	5049
2.27367	5048
2.27433	5046
2.27500	5045
2.27567	5043
2.27633	5042
2.27700	5040
2.27767	5039
2.27833	5037
2.27900	5036
2.27967	5034
2.28033	5033
2.28100	5031
2.28167	5030
2.28233	5028
2.28300	5027
2.28367	5025
2.28433	5024
2.28500	5022
2.28567	5021
2.28633	5019
2.28700	5018
2.28767	5016
2.28833	5015
2.28900	5013
2.28967	5012
2.29033	5010
2.29100	5009
2.29167	5007
2.29233	5006
2.29300	5005
2.29367	5003
2.29433	5002
2.29500	5001
2.29567	4999
2.29633	4998
2.29700	4996
2.29767	4995
2.29833	4994
2.29900	4992
2.29967	4991
2.30033	4990
2.30100	4989
2.30167	4987
2.30233	4986
2.30300	4985
2.30367	4984
2.30433	4983
2.30500	4982
2.30567	4980
2.30633	4979
2.30700	4978
2.30767	4977
2.30833	4976
2.30900	4975
2.30967	4974
2.31033	4973
2.31100	4972
2.31167	4971
2.31233	4970
2.31300	4969
2.31367	4968
2.31433	4968
2.31500	4967
2.31567	4966
2.31633	4965
2.31700	4965
2.31767	4964
2.31833	4963
2.31900	4962
2.31967	4962
2.32033	4961
2.32100	4961
2.32167	4960
2.32233	4960
2.32300	4959
2.32367	4959
2.32433	4958
2.32500	4958
2.32567	4957
2.32633	4957
2.32700	4957
2.32767	4956
2.32833	4956
2.32900	4956
2.32967	4956
2.33033	4955
2.33100	4955
2.33167	4955
2.33233	4955
2.33300	4955
2.33367	4955
2.33433	4955
2.33500	4955
2.33567	4954
2.33633	4954
2.33700	4954
2.33767	4954
2.33833	4954
2.33900	4954
2.33967	4955
2.34033	4955
2.34100	4955
2.34167	4955
2.34233	4955
2.34300	4955
2.34367	4955
2.34433	4955
2.34500	4956
2.34567	4956
2.34633	4956
2.34700	4956
2.34767	4956
2.34833	4956
2.34900	4956
2.34967	4957
2.35033	4957
2.35100	4957
2.35167	4957
2.35233	4957
2.35300	4958
2.35367	4958
2.35433	4958
2.35500	4958
2.35567	4958
2.35633	4959
2.35700	4959
2.35767	4959
2.35833	4959
2.35900	4959
2.35967	4959
2.36033	4959
2.36100	4959
2.36167	4959
2.36233	4959
2.36300	4959
2.36367	4959
2.36433	4959
2.36500	4959
2.36567	4959
2.36633	4959
2.36700	4959
2.36767	4958
2.36833	4958
2.36900	4958
2.36967	4958
2.37033	4958
2.37100	4958
2.37167	4958
2.37233	4958
2.37300	4958
2.37367	4958
2.37433	4958
2.37500	4958
2.37567	4958
2.37633	4958
2.37700	4958
2.37767	4958
2.37833	4958
2.37900	4958
2.37967	4958
2.38033	4958
2.38100	4957
2.38167	4957
2.38233	4957
2.38300	4957
2.38367	4957
2.38433	4956
2.38500	4956
2.38567	4955
2.38633	4955
2.38700	4955
2.38767	4954
2.38833	4954
2.38900	4953
2.38967	4952
2.39033	4952
2.39100	4951
2.39167	4951
2.39233	4950
2.39300	4949
2.39367	4949
2.39433	4948
2.39500	4948
2.39567	4947
2.39633	4947
2.39700	4946
2.39767	4946
2.39833	4945
2.39900	4945
2.39967	4944
2.40033	4943
2.40100	4943
2.40167	4942
2.40233	4942
2.40300	4941
2.40367	4940
2.40433	4940
2.40500	4939
2.40567	4939
2.40633	4938
2.40700	4937
2.40767	4937
2.40833	4936
2.40900	4935
2.40967	4935
2.41033	4934
2.41100	4933
2.41167	4932
2.41233	4932
2.41300	4931
2.41367	4930
2.41433	4929
2.41500	4929
2.41567	4928
2.41633	4927
2.41700	4927
2.41767	4926
2.41833	4925
2.41900	4924
2.41967	4924
2.42033	4923
2.42100	4922
2.42167	4921
2.42233	4920
2.42300	4920
2.42367	4919
2.42433	4918
2.42500	4917
2.42567	4916
2.42633	4915
2.42700	4914
2.42767	4913
2.42833	4912
2.42900	4911
2.42967	4910
2.43033	4908
2.43100	4907
2.43167	4906
2.43233	4905
2.43300	4904
2.43367	4903
2.43433	4901
2.43500	4900
2.43567	4899
2.43633	4898
2.43700	4896
2.43767	4895
2.43833	4893
2.43900	4892
2.43967	4890
2.44033	4889
2.44100	4888
2.44167	4886
2.44233	4884
2.44300	4883
2.44367	4881
2.44433	4879
2.44500	4878
2.44567	4876
2.44633	4874
2.44700	4872
2.44767	4870
2.44833	4868
2.44900	4867
2.44967	4865
2.45033	4863
2.45100	4861
2.45167	4859
2.45233	4857
2.45300	4855
2.45367	4853
2.45433	4851
2.45500	4849
2.45567	4847
2.45633	4845
2.45700	4843
2.45767	4841
2.45833	4839
2.45900	4837
2.45967	4835
2.46033	4833
2.46100	4831
2.46167	4829
2.46233	4827
2.46300	4825
2.46367	4823
2.46433	4820
2.46500	4818
2.46567	4816
2.46633	4814
2.46700	4812
2.46767	4810
2.46833	4808
2.46900	4806
2.46967	4804
2.47033	4802
2.47100	4800
2.47167	4798
2.47233	4795
2.47300	4793
2.47367	4791
2.47433	4789
2.47500	4787
2.47567	4785
2.47633	4783
2.47700	4781
2.47767	4779
2.47833	4778
2.47900	4776
2.47967	4774
2.48033	4772
2.48100	4770
2.48167	4768
2.48233	4767
2.48300	4765
2.48367	4763
2.48433	4761
2.48500	4760
2.48567	4758
2.48633	4756
2.48700	4754
2.48767	4753
2.48833	4751
2.48900	4749
2.48967	4747
2.49033	4746
2.49100	4744
2.49167	4742
2.49233	4740
2.49300	4739
2.49367	4737
2.49433	4735
2.49500	4733
2.49567	4731
2.49633	4729
2.49700	4728
2.49767	4726
2.49833	4724
2.49900	4722
2.49967	4720
2.50033	4718
2.50100	4716
2.50167	4715
2.50233	4713
2.50300	4711
2.50367	4709
2.50433	4707
2.50500	4705
2.50567	4704
2.50633	4702
2.50700	4700
2.50767	4698
2.50833	4696
2.50900	4694
2.50967	4692
2.51033	4691
2.51100	4689
2.51167	4687
2.51233	4685
2.51300	4683
2.51367	4681
2.51433	4680
2.51500	4678
2.51567	4676
2.51633	4674
2.51700	4672
2.51767	4670
2.51833	4669
2.51900	4667
2.51967	4665
2.52033	4663
2.52100	4661
2.52167	4659
2.52233	4657
2.52300	4655
2.52367	4653
2.52433	4652
2.52500	4650
2.52567	4648
2.52633	4646
2.52700	4644
2.52767	4642
2.52833	4640
2.52900	4638
2.52967	4637
2.53033	4635
2.53100	4633
2.53167	4631
2.53233	4630
2.53300	4628
2.53367	4626
2.53433	4625
2.53500	4623
2.53567	4622
2.53633	4620
2.53700	4618
2.53767	4617
2.53833	4615
2.53900	4614
2.53967	4612
2.54033	4610
2.54100	4609
2.54167	4607
2.54233	4606
2.54300	4604
2.54367	4603
2.54433	4601
2.54500	4599
2.54567	4598
2.54633	4596
2.54700	4595
2.54767	4593
2.54833	4592
2.54900	4590
2.54967	4588
2.55033	4587
2.55100	4585
2.55167	4584
2.55233	4582
2.55300	4580
2.55367	4579
2.55433	4577
2.55500	4576
2.55567	4574
2.55633	4573
2.55700	4571
2.55767	4570
2.55833	4568
2.55900	4567
2.55967	4565
2.56033	4564
2.56100	4563
2.56167	4561
2.56233	4560
2.56300	4559
2.56367	4557
2.56433	4556
2.56500	4555
2.56567	4553
2.56633	4552
2.56700	4551
2.56767	4549
2.56833	4548
2.56900	4547
2.56967	4546
2.57033	4544
2.57100	4543
2.57167	4542
2.57233	4540
2.57300	4539
2.57367	4538
2.57433	4537
2.57500	4535
2.57567	4534
2.57633	4533
2.57700	4531
2.57767	4530
2.57833	4529
2.57900	4528
2.57967	4526
2.58033	4525
2.58100	4524
2.58167	4523
2.58233	4521
2.58300	4520
2.58367	4519
2.58433	4518
2.58500	4516
2.58567	4515
2.58633	4514
2.58700	4513
2.58767	4511
2.58833	4510
2.58900	4509
2.58967	4508
2.59033	4507
2.59100	4506
2.59167	4505
2.59233	4504
2.59300	4503
2.59367	4502
2.59433	4501
2.59500	4500
2.59567	4499
2.59633	4498
2.59700	4497
2.59767	4496
2.59833	4495
2.59900	4494
2.59967	4493
2.60033	4492
2.60100	4491
2.60167	4491
2.60233	4490
2.60300	4489
2.60367	4488
2.60433	4487
2.60500	4486
2.60567	4485
2.60633	4484
2.60700	4484
2.60767	4483
2.60833	4482
2.60900	4481
2.60967	4480
2.61033	4479
2.61100	4478
2.61167	4477
2.61233	4477
2.61300	4476
2.61367	4475
2.61433	4474
2.61500	4473
2.61567	4472
2.61633	4472
2.61700	4471
2.61767	4470
2.61833	4469
2.61900	4468
2.61967	4468
2.62033	4467
2.62100	4466
2.62167	4465
2.62233	4464
2.62300	4464
2.62367	4463
2.62433	4462
2.62500	4461
2.62567	4460
2.62633	4459
2.62700	4458
2.62767	4458
2.62833	4457
2.62900	4456
2.62967	4455
2.63033	4454
2.63100	4453
2.63167	4452
2.63233	4451
2.63300	4450
2.63367	4449
2.63433	4448
2.63500	4447
2.63567	4446
2.63633	4445
2.63700	4444
2.63767	4443
2.63833	4442
2.63900	4441
2.63967	4439
2.64033	4438
2.64100	4437
2.64167	4436
2.64233	4435
2.64300	4434
2.64367	4433
2.64433	4432
2.64500	4430
2.64567	4429
2.64633	4428
2.64700	4427
2.64767	4426
2.64833	4425
2.64900	4424
2.64967	4423
2.65033	4421
2.65100	4420
2.65167	4419
2.65233	4418
2.65300	4417
2.65367	4415
2.65433	4414
2.65500	4413
2.65567	4412
2.65633	4410
2.65700	4409
2.65767	4408
2.65833	4407
2.65900	4405
2.65967	4404
2.66033	4403
2.66100	4402
2.66167	4400
2.66233	4399
2.66300	4398
2.66367	4397
2.66433	4396
2.66500	4394
2.66567	4393
2.66633	4392
2.66700	4391
2.66767	4389
2.66833	4388
2.66900	4387
2.66967	4385
2.67033	4384
2.67100	4383
2.67167	4381
2.67233	4380
2.67300	4379
2.67367	4378
2.67433	4376
2.67500	4375
2.67567	4374
2.67633	4373
2.67700	4371
2.67767	4370
2.67833	4369
2.67900	4368
2.67967	4367
2.68033	4365
2.68100	4364
2.68167	4363
2.68233	4362
2.68300	4361
2.68367	4360
2.68433	4359
2.68500	4357
2.68567	4356
2.68633	4355
2.68700	4354
2.68767	4353
2.68833	4352
2.68900	4350
2.68967	4349
2.69033	4348
2.69100	4347
2.69167	4346
2.69233	4345
2.69300	4344
2.69367	4342
2.69433	4341
2.69500	4340
2.69567	4339
2.69633	4338
2.69700	4337
2.69767	4336
2.69833	4335
2.69900	4334
2.69967	4333
2.70033	4332
2.70100	4331
2.70167	4330
2.70233	4329
2.70300	4328
2.70367	4327
2.70433	4326
2.70500	4325
2.70567	4324
2.70633	4323
2.70700	4322
2.70767	4321
2.70833	4321
2.70900	4320
2.70967	4319
2.71033	4318
2.71100	4317
2.71167	4316
2.71233	4315
2.71300	4314
2.71367	4313
2.71433	4312
2.71500	4311
2.71567	4311
2.71633	4310
2.71700	4309
2.71767	4308
2.71833	4307
2.71900	4306
2.71967	4305
2.72033	4305
2.72100	4304
2.72167	4303
2.72233	4302
2.72300	4301
2.72367	4301
2.72433	4300
2.72500	4299
2.72567	4298
2.72633	4298
2.72700	4297
2.72767	4296
2.72833	4296
2.72900	4295
2.72967	4294
2.73033	4294
2.73100	4293
2.73167	4292
2.73233	4292
2.73300	4291
2.73367	4291
2.73433	4290
2.73500	4290
2.73567	4289
2.73633	4289
2.73700	4288
2.73767	4288
2.73833	4287
2.73900	4287
2.73967	4286
2.74033	4286
2.74100	4285
2.74167	4285
2.74233	4285
2.74300	4284
2.74367	4284
2.74433	4283
2.74500	4283
2.74567	4283
2.74633	4282
2.74700	4282
2.74767	4282
2.74833	4282
2.74900	4281
2.74967	4281
2.75033	4281
2.75100	4280
2.75167	4280
2.75233	4280
2.75300	4280
2.75367	4279
2.75433	4279
2.75500	4279
2.75567	4279
2.75633	4279
2.75700	4279
2.75767	4279
2.75833	4279
2.75900	4279
2.75967	4279
2.76033	4279
2.76100	4279
2.76167	4279
2.76233	4279
2.76300	4279
2.76367	4279
2.76433	4280
2.76500	4280
2.76567	4280
2.76633	4280
2.76700	4281
2.76767	4281
2.76833	4282
2.76900	4282
2.76967	4283
2.77033	4283
2.77100	4284
2.77167	4285
2.77233	4285
2.77300	4286
2.77367	4287
2.77433	4288
2.77500	4288
2.77567	4289
2.77633	4290
2.77700	4291
2.77767	4292
2.77833	4294
2.77900	4295
2.77967	4296
2.78033	4297
2.78100	4299
2.78167	4300
2.78233	4302
2.78300	4303
2.78367	4305
2.78433	4307
2.78500	4309
2.78567	4311
2.78633	4312
2.78700	4314
2.78767	4316
2.78833	4318
2.78900	4320
2.78967	4323
2.79033	4325
2.79100	4327
2.79167	4330
2.79233	4332
2.79300	4335
2.79367	4337
2.79433	4340
2.79500	4342
2.79567	4345
2.79633	4348
2.79700	4351
2.79767	4354
2.79833	4357
2.79900	4360
2.79967	4363
2.80033	4366
2.80100	4369
2.80167	4372
2.80233	4376
2.80300	4379
2.80367	4383
2.80433	4386
2.80500	4390
2.80567	4393
2.80633	4397
2.80700	4400
2.80767	4404
2.80833	4407
2.80900	4411
2.80967	4415
2.81033	4418
2.81100	4422
2.81167	4426
2.81233	4430
2.81300	4433
2.81367	4437
2.81433	4441
2.81500	4444
2.81567	4448
2.81633	4451
2.81700	4455
2.81767	4458
2.81833	4461
2.81900	4465
2.81967	4468
2.82033	4471
2.82100	4474
2.82167	4477
2.82233	4480
2.82300	4482
2.82367	4485
2.82433	4487
2.82500	4490
2.82567	4492
2.82633	4494
2.82700	4496
2.82767	4498
2.82833	4499
2.82900	4501
2.82967	4502
2.83033	4504
2.83100	4505
2.83167	4506
2.83233	4506
2.83300	4507
2.83367	4507
2.83433	4508
2.83500	4508
2.83567	4508
2.83633	4508
2.83700	4508
2.83767	4507
2.83833	4507
2.83900	4506
2.83967	4505
2.84033	4505
2.84100	4504
2.84167	4503
2.84233	4501
2.84300	4500
2.84367	4499
2.84433	4497
2.84500	4496
2.84567	4494
2.84633	4493
2.84700	4491
2.84767	4489
2.84833	4487
2.84900	4485
2.84967	4483
2.85033	4481
2.85100	4479
2.85167	4477
2.85233	4474
2.85300	4472
2.85367	4470
2.85433	4467
2.85500	4465
2.85567	4463
2.85633	4460
2.85700	4458
2.85767	4455
2.85833	4453
2.85900	4450
2.85967	4448
2.86033	4446
2.86100	4443
2.86167	4441
2.86233	4439
2.86300	4436
2.86367	4434
2.86433	4432
2.86500	4430
2.86567	4428
2.86633	4425
2.86700	4423
2.86767	4421
2.86833	4419
2.86900	4417
2.86967	4416
2.87033	4414
2.87100	4412
2.87167	4411
2.87233	4409
2.87300	4408
2.87367	4406
2.87433	4405
2.87500	4404
2.87567	4403
2.87633	4402
2.87700	4401
2.87767	4400
2.87833	4399
2.87900	4398
2.87967	4398
2.88033	4397
2.88100	4397
2.88167	4397
2.88233	4396
2.88300	4396
2.88367	4396
2.88433	4396
2.88500	4396
2.88567	4396
2.88633	4396
2.88700	4396
2.88767	4396
2.88833	4397
2.88900	4397
2.88967	4398
2.89033	4398
2.89100	4398
2.89167	4399
2.89233	4400
2.89300	4400
2.89367	4401
2.89433	4402
2.89500	4403
2.89567	4403
2.89633	4404
2.89700	4405
2.89767	4406
2.89833	4406
2.89900	4407
2.89967	4408
2.90033	4409
2.90100	4409
2.90167	4410
2.90233	4411
2.90300	4411
2.90367	4412
2.90433	4412
2.90500	4412
2.90567	4413
2.90633	4413
2.90700	4413
2.90767	4413
2.90833	4413
2.90900	4413
2.90967	4413
2.91033	4413
2.91100	4412
2.91167	4412
2.91233	4411
2.91300	4411
2.91367	4410
2.91433	4409
2.91500	4408
2.91567	4407
2.91633	4406
2.91700	4404
2.91767	4403
2.91833	4401
2.91900	4399
2.91967	4397
2.92033	4395
2.92100	4393
2.92167	4391
2.92233	4388
2.92300	4386
2.92367	4383
2.92433	4380
2.92500	4377
2.92567	4374
2.92633	4371
2.92700	4367
2.92767	4364
2.92833	4360
2.92900	4357
2.92967	4353
2.93033	4349
2.93100	4345
2.93167	4341
2.93233	4336
2.93300	4332
2.93367	4328
2.93433	4323
2.93500	4319
2.93567	4314
2.93633	4309
2.93700	4305
2.93767	4300
2.93833	4295
2.93900	4290
2.93967	4285
2.94033	4280
2.94100	4275
2.94167	4270
2.94233	4265
2.94300	4260
2.94367	4255
2.94433	4250
2.94500	4245
2.94567	4240
2.94633	4235
2.94700	4230
2.94767	4225
2.94833	4220
2.94900	4215
2.94967	4211
2.95033	4206
2.95100	4201
2.95167	4196
2.95233	4192
2.95300	4187
2.95367	4183
2.95433	4178
2.95500	4174
2.95567	4170
2.95633	4165
2.95700	4161
2.95767	4157
2.95833	4153
2.95900	4149
2.95967	4145
2.96033	4141
2.96100	4137
2.96167	4133
2.96233	4129
2.96300	4125
2.96367	4121
2.96433	4117
2.96500	4114
2.96567	4110
2.96633	4106
2.96700	4103
2.96767	4099
2.96833	4095
2.96900	4092
2.96967	4089
2.97033	4085
2.97100	4082
2.97167	4079
2.97233	4075
2.97300	4072
2.97367	4069
2.97433	4066
2.97500	4063
2.97567	4060
2.97633	4057
2.97700	4054
2.97767	4051
2.97833	4048
2.97900	4045
2.97967	4042
2.98033	4040
2.98100	4037
2.98167	4034
2.98233	4032
2.98300	4029
2.98367	4027
2.98433	4024
2.98500	4022
2.98567	4019
2.98633	4017
2.98700	4014
2.98767	4012
2.98833	4010
2.98900	4007
2.98967	4005
2.99033	4003
2.99100	4001
2.99167	3998
2.99233	3996
2.99300	3994
2.99367	3992
2.99433	3989
2.99500	3987
2.99567	3985
2.99633	3983
2.99700	3981
2.99767	3979
2.99833	3977
2.99900	3975
2.99967	3973
3.00033	3971
3.00100	3969
3.00167	3967
3.00233	3965
3.00300	3963
3.00367	3961
3.00433	3959
3.00500	3957
3.00567	3955
3.00633	3953
3.00700	3952
3.00767	3950
3.00833	3948
3.00900	3946
3.00967	3944
3.01033	3942
3.01100	3941
3.01167	3939
3.01233	3937
3.01300	3935
3.01367	3934
3.01433	3932
3.01500	3930
3.01567	3929
3.01633	3927
3.01700	3925
3.01767	3923
3.01833	3922
3.01900	3920
3.01967	3918
3.02033	3917
3.02100	3915
3.02167	3913
3.02233	3912
3.02300	3910
3.02367	3908
3.02433	3906
3.02500	3905
3.02567	3903
3.02633	3901
3.02700	3899
3.02767	3898
3.02833	3896
3.02900	3894
3.02967	3893
3.03033	3891
3.03100	3889
3.03167	3888
3.03233	3886
3.03300	3885
3.03367	3883
3.03433	3882
3.03500	3881
3.03567	3879
3.03633	3878
3.03700	3877
3.03767	3876
3.03833	3875
3.03900	3874
3.03967	3873
3.04033	3872
3.04100	3871
3.04167	3870
3.04233	3869
3.04300	3868
3.04367	3867
3.04433	3866
3.04500	3865
3.04567	3864
3.04633	3863
3.04700	3863
3.04767	3862
3.04833	3861
3.04900	3861
3.04967	3860
3.05033	3859
3.05100	3859
3.05167	3858
3.05233	3857
3.05300	3857
3.05367	3856
3.05433	3855
3.05500	3855
3.05567	3854
3.05633	3854
3.05700	3853
3.05767	3853
3.05833	3852
3.05900	3852
3.05967	3852
3.06033	3851
3.06100	3851
3.06167	3850
3.06233	3850
3.06300	3850
3.06367	3849
3.06433	3849
3.06500	3849
3.06567	3849
3.06633	3849
3.06700	3849
3.06767	3849
3.06833	3849
3.06900	3849
3.06967	3849
3.07033	3849
3.07100	3849
3.07167	3849
3.07233	3849
3.07300	3849
3.07367	3849
3.07433	3849
3.07500	3849
3.07567	3850
3.07633	3850
3.07700	3850
3.07767	3850
3.07833	3850
3.07900	3850
3.07967	3850
3.08033	3850
3.08100	3851
3.08167	3851
3.08233	3851
3.08300	3851
3.08367	3851
3.08433	3851
3.08500	3851
3.08567	3851
3.08633	3851
3.08700	3851
3.08767	3851
3.08833	3851
3.08900	3851
3.08967	3851
3.09033	3851
3.09100	3851
3.09167	3850
3.09233	3850
3.09300	3850
3.09367	3850
3.09433	3850
3.09500	3850
3.09567	3849
3.09633	3849
3.09700	3849
3.09767	3849
3.09833	3848
3.09900	3848
3.09967	3848
3.10033	3847
3.10100	3847
3.10167	3846
3.10233	3846
3.10300	3845
3.10367	3844
3.10433	3844
3.10500	3843
3.10567	3842
3.10633	3842
3.10700	3841
3.10767	3840
3.10833	3839
3.10900	3838
3.10967	3837
3.11033	3836
3.11100	3835
3.11167	3834
3.11233	3833
3.11300	3832
3.11367	3831
3.11433	3830
3.11500	3829
3.11567	3828
3.11633	3826
3.11700	3825
3.11767	3824
3.11833	3823
3.11900	3822
3.11967	3821
3.12033	3819
3.12100	3818
3.12167	3817
3.12233	3816
3.12300	3814
3.12367	3813
3.12433	3812
3.12500	3810
3.12567	3809
3.12633	3807
3.12700	3806
3.12767	3805
3.12833	3803
3.12900	3802
3.12967	3801
3.13033	3799
3.13100	3798
3.13167	3796
3.13233	3795
3.13300	3794
3.13367	3792
3.13433	3791
3.13500	3790
3.13567	3789
3.13633	3787
3.13700	3786
3.13767	3785
3.13833	3783
3.13900	3782
3.13967	3781
3.14033	3780
3.14100	3778
3.14167	3777
3.14233	3776
3.14300	3774
3.14367	3773
3.14433	3772
3.14500	3771
3.14567	3769
3.14633	3768
3.14700	3767
3.14767	3766
3.14833	3765
3.14900	3764
3.14967	3762
3.15033	3761
3.15100	3760
3.15167	3759
3.15233	3758
3.15300	3757
3.15367	3756
3.15433	3755
3.15500	3754
3.15567	3753
3.15633	3752
3.15700	3751
3.15767	3750
3.15833	3749
3.15900	3748
3.15967	3747
3.16033	3746
3.16100	3745
3.16167	3744
3.16233	3743
3.16300	3742
3.16367	3741
3.16433	3740
3.16500	3740
3.16567	3739
3.16633	3738
3.16700	3737
3.16767	3736
3.16833	3735
3.16900	3734
3.16967	3733
3.17033	3733
3.17100	3732
3.17167	3731
3.17233	3730
3.17300	3729
3.17367	3728
3.17433	3728
3.17500	3727
3.17567	3726
3.17633	3725
3.17700	3724
3.17767	3724
3.17833	3723
3.17900	3722
3.17967	3721
3.18033	3720
3.18100	3720
3.18167	3719
3.18233	3718
3.18300	3717
3.18367	3716
3.18433	3716
3.18500	3715
3.18567	3714
3.18633	3713
3.18700	3712
3.18767	3712
3.18833	3711
3.18900	3710
3.18967	3709
3.19033	3709
3.19100	3708
3.19167	3707
3.19233	3706
3.19300	3705
3.19367	3705
3.19433	3704
3.19500	3703
3.19567	3702
3.19633	3702
3.19700	3701
3.19767	3700
3.19833	3699
3.19900	3699
3.19967	3698
3.20033	3697
3.20100	3697
3.20167	3696
3.20233	3695
3.20300	3695
3.20367	3694
3.20433	3693
3.20500	3693
3.20567	3692
3.20633	3691
3.20700	3691
3.20767	3690
3.20833	3689
3.20900	3689
3.20967	3688
3.21033	3688
3.21100	3687
3.21167	3687
3.21233	3686
3.21300	3686
3.21367	3685
3.21433	3685
3.21500	3684
3.21567	3684
3.21633	3683
3.21700	3683
3.21767	3682
3.21833	3682
3.21900	3682
3.21967	3681
3.22033	3681
3.22100	3680
3.22167	3680
3.22233	3680
3.22300	3679
3.22367	3679
3.22433	3678
3.22500	3678
3.22567	3678
3.22633	3677
3.22700	3677
3.22767	3677
3.22833	3676
3.22900	3676
3.22967	3676
3.23033	3676
3.23100	3675
3.23167	3675
3.23233	3675
3.23300	3674
3.23367	3674
3.23433	3674
3.23500	3674
3.23567	3673
3.23633	3673
3.23700	3673
3.23767	3673
3.23833	3672
3.23900	3672
3.23967	3672
3.24033	3672
3.24100	3672
3.24167	3672
3.24233	3672
3.24300	3672
3.24367	3671
3.24433	3671
3.24500	3671
3.24567	3671
3.24633	3671
3.24700	3671
3.24767	3671
3.24833	3671
3.24900	3671
3.24967	3671
3.25033	3671
3.25100	3670
3.25167	3670
3.25233	3670
3.25300	3670
3.25367	3670
3.25433	3670
3.25500	3670
3.25567	3669
3.25633	3669
3.25700	3669
3.25767	3669
3.25833	3668
3.25900	3668
3.25967	3668
3.26033	3668
3.26100	3668
3.26167	3667
3.26233	3667
3.26300	3667
3.26367	3667
3.26433	3667
3.26500	3666
3.26567	3666
3.26633	3666
3.26700	3666
3.26767	3666
3.26833	3665
3.26900	3665
3.26967	3665
3.27033	3665
3.27100	3664
3.27167	3664
3.27233	3664
3.27300	3664
3.27367	3663
3.27433	3663
3.27500	3663
3.27567	3663
3.27633	3663
3.27700	3662
3.27767	3662
3.27833	3662
3.27900	3662
3.27967	3662
3.28033	3662
3.28100	3662
3.28167	3661
3.28233	3661
3.28300	3661
3.28367	3661
3.28433	3661
3.28500	3661
3.28567	3661
3.28633	3661
3.28700	3661
3.28767	3661
3.28833	3661
3.28900	3661
3.28967	3661
3.29033	3661
3.29100	3661
3.29167	3661
3.29233	3661
3.29300	3661
3.29367	3660
3.29433	3660
3.29500	3660
3.29567	3660
3.29633	3660
3.29700	3660
3.29767	3660
3.29833	3660
3.29900	3660
3.29967	3660
3.30033	3660
3.30100	3660
3.30167	3660
3.30233	3660
3.30300	3660
3.30367	3660
3.30433	3659
3.30500	3659
3.30567	3659
3.30633	3659
3.30700	3659
3.30767	3659
3.30833	3659
3.30900	3659
3.30967	3658
3.31033	3658
3.31100	3658
3.31167	3658
3.31233	3658
3.31300	3657
3.31367	3657
3.31433	3657
3.31500	3657
3.31567	3657
3.31633	3657
3.31700	3657
3.31767	3657
3.31833	3657
3.31900	3656
3.31967	3656
3.32033	3656
3.32100	3656
3.32167	3656
3.32233	3656
3.32300	3655
3.32367	3655
3.32433	3655
3.32500	3655
3.32567	3654
3.32633	3654
3.32700	3654
3.32767	3654
3.32833	3654
3.32900	3653
3.32967	3653
3.33033	3653
3.33100	3653
3.33167	3652
3.33233	3652
3.33300	3652
3.33367	3652
3.33433	3651
3.33500	3651
3.33567	3651
3.33633	3650
3.33700	3650
3.33767	3650
3.33833	3649
3.33900	3649
3.33967	3648
3.34033	3648
3.34100	3648
3.34167	3647
3.34233	3647
3.34300	3647
3.34367	3646
3.34433	3646
3.34500	3646
3.34567	3646
3.34633	3645
3.34700	3645
3.34767	3645
3.34833	3645
3.34900	3645
3.34967	3644
3.35033	3644
3.35100	3644
3.35167	3644
3.35233	3644
3.35300	3644
3.35367	3644
3.35433	3644
3.35500	3644
3.35567	3644
3.35633	3644
3.35700	3644
3.35767	3644
3.35833	3644
3.35900	3644
3.35967	3644
3.36033	3644
3.36100	3644
3.36167	3644
3.36233	3644
3.36300	3644
3.36367	3644
3.36433	3644
3.36500	3644
3.36567	3644
3.36633	3644
3.36700	3644
3.36767	3644
3.36833	3644
3.36900	3644
3.36967	3644
3.37033	3644
3.37100	3644
3.37167	3644
3.37233	3644
3.37300	3644
3.37367	3645
3.37433	3645
3.37500	3645
3.37567	3645
3.37633	3645
3.37700	3645
3.37767	3646
3.37833	3646
3.37900	3646
3.37967	3646
3.38033	3647
3.38100	3647
3.38167	3647
3.38233	3647
3.38300	3648
3.38367	3648
3.38433	3648
3.38500	3649
3.38567	3649
3.38633	3649
3.38700	3650
3.38767	3650
3.38833	3650
3.38900	3651
3.38967	3651
3.39033	3651
3.39100	3652
3.39167	3652
3.39233	3653
3.39300	3653
3.39367	3653
3.39433	3654
3.39500	3654
3.39567	3654
3.39633	3655
3.39700	3655
3.39767	3655
3.39833	3656
3.39900	3656
3.39967	3656
3.40033	3657
3.40100	3657
3.40167	3657
3.40233	3657
3.40300	3658
3.40367	3658
3.40433	3658
3.40500	3659
3.40567	3659
3.40633	3659
3.40700	3660
3.40767	3660
3.40833	3660
3.40900	3660
3.40967	3661
3.41033	3661
3.41100	3661
3.41167	3662
3.41233	3662
3.41300	3662
3.41367	3663
3.41433	3663
3.41500	3664
3.41567	3664
3.41633	3665
3.41700	3665
3.41767	3666
3.41833	3666
3.41900	3667
3.41967	3667
3.42033	3668
3.42100	3668
3.42167	3669
3.42233	3670
3.42300	3671
3.42367	3671
3.42433	3672
3.42500	3673
3.42567	3674
3.42633	3675
3.42700	3675
3.42767	3676
3.42833	3677
3.42900	3678
3.42967	3679
3.43033	3680
3.43100	3681
3.43167	3681
3.43233	3683
3.43300	3684
3.43367	3685
3.43433	3686
3.43500	3687
3.43567	3688
3.43633	3689
3.43700	3690
3.43767	3692
3.43833	3693
3.43900	3695
3.43967	3696
3.44033	3697
3.44100	3699
3.44167	3701
3.44233	3702
3.44300	3704
3.44367	3706
3.44433	3708
3.44500	3709
3.44567	3711
3.44633	3713
3.44700	3715
3.44767	3717
3.44833	3719
3.44900	3721
3.44967	3723
3.45033	3725
3.45100	3727
3.45167	3729
3.45233	3732
3.45300	3734
3.45367	3736
3.45433	3739
3.45500	3741
3.45567	3744
3.45633	3747
3.45700	3749
3.45767	3752
3.45833	3755
3.45900	3757
3.45967	3760
3.46033	3763
3.46100	3766
3.46167	3769
3.46233	3772
3.46300	3775
3.46367	3778
3.46433	3781
3.46500	3784
3.46567	3787
3.46633	3790
3.46700	3794
3.46767	3797
3.46833	3800
3.46900	3803
3.46967	3807
3.47033	3810
3.47100	3814
3.47167	3817
3.47233	3820
3.47300	3824
3.47367	3827
3.47433	3830
3.47500	3834
3.47567	3837
3.47633	3841
3.47700	3844
3.47767	3848
3.47833	3851
3.47900	3855
3.47967	3858
3.48033	3862
3.48100	3865
3.48167	3869
3.48233	3873
3.48300	3876
3.48367	3880
3.48433	3884
3.48500	3887
3.48567	3891
3.48633	3895
3.48700	3899
3.48767	3903
3.48833	3907
3.48900	3911
3.48967	3916
3.49033	3920
3.49100	3924
3.49167	3929
3.49233	3934
3.49300	3938
3.49367	3943
3.49433	3949
3.49500	3954
3.49567	3959
3.49633	3965
3.49700	3971
3.49767	3977
3.49833	3983
3.49900	3990
3.49967	3996
3.50033	4003
3.50100	4010
3.50167	4017
3.50233	4024
3.50300	4032
3.50367	4040
3.50433	4048
3.50500	4057
3.50567	4066
3.50633	4075
3.50700	4085
3.50767	4095
3.50833	4106
3.50900	4117
3.50967	4128
3.51033	4140
3.51100	4153
3.51167	4166
3.51233	4179
3.51300	4193
3.51367	4208
3.51433	4223
3.51500	4238
3.51567	4255
3.51633	4271
3.51700	4289
3.51767	4307
3.51833	4326
3.51900	4345
3.51967	4365
3.52033	4386
3.52100	4407
3.52167	4429
3.52233	4452
3.52300	4476
3.52367	4500
3.52433	4526
3.52500	4551
3.52567	4578
3.52633	4606
3.52700	4634
3.52767	4663
3.52833	4692
3.52900	4723
3.52967	4754
3.53033	4786
3.53100	4819
3.53167	4852
3.53233	4886
3.53300	4922
3.53367	4957
3.53433	4994
3.53500	5031
3.53567	5069
3.53633	5108
3.53700	5147
3.53767	5187
3.53833	5227
3.53900	5268
3.53967	5309
3.54033	5351
3.54100	5394
3.54167	5437
3.54233	5480
3.54300	5524
3.54367	5568
3.54433	5613
3.54500	5658
3.54567	5703
3.54633	5749
3.54700	5795
3.54767	5841
3.54833	5887
3.54900	5934
3.54967	5980
3.55033	6027
3.55100	6073
3.55167	6120
3.55233	6166
3.55300	6213
3.55367	6259
3.55433	6305
3.55500	6350
3.55567	6395
3.55633	6440
3.55700	6485
3.55767	6529
3.55833	6572
3.55900	6615
3.55967	6657
3.56033	6699
3.56100	6740
3.56167	6781
3.56233	6821
3.56300	6860
3.56367	6898
3.56433	6936
3.56500	6973
3.56567	7009
3.56633	7044
3.56700	7079
3.56767	7113
3.56833	7145
3.56900	7178
3.56967	7209
3.57033	7239
3.57100	7269
3.57167	7297
3.57233	7325
3.57300	7351
3.57367	7377
3.57433	7402
3.57500	7426
3.57567	7448
3.57633	7470
3.57700	7491
3.57767	7511
3.57833	7530
3.57900	7548
3.57967	7565
3.58033	7581
3.58100	7596
3.58167	7610
3.58233	7623
3.58300	7636
3.58367	7647
3.58433	7658
3.58500	7667
3.58567	7676
3.58633	7684
3.58700	7691
3.58767	7697
3.58833	7702
3.58900	7707
3.58967	7710
3.59033	7713
3.59100	7715
3.59167	7716
3.59233	7717
3.59300	7717
3.59367	7716
3.59433	7715
3.59500	7713
3.59567	7711
3.59633	7707
3.59700	7703
3.59767	7699
3.59833	7694
3.59900	7688
3.59967	7681
3.60033	7674
3.60100	7667
3.60167	7658
3.60233	7650
3.60300	7640
3.60367	7631
3.60433	7620
3.60500	7609
3.60567	7598
3.60633	7586
3.60700	7574
3.60767	7561
3.60833	7547
3.60900	7534
3.60967	7519
3.61033	7505
3.61100	7490
3.61167	7474
3.61233	7458
3.61300	7442
3.61367	7425
3.61433	7408
3.61500	7390
3.61567	7373
3.61633	7354
3.61700	7336
3.61767	7317
3.61833	7297
3.61900	7278
3.61967	7258
3.62033	7237
3.62100	7217
3.62167	7195
3.62233	7174
3.62300	7152
3.62367	7130
3.62433	7108
3.62500	7086
3.62567	7063
3.62633	7039
3.62700	7016
3.62767	6992
3.62833	6968
3.62900	6944
3.62967	6919
3.63033	6895
3.63100	6870
3.63167	6844
3.63233	6819
3.63300	6793
3.63367	6767
3.63433	6741
3.63500	6715
3.63567	6688
3.63633	6662
3.63700	6635
3.63767	6608
3.63833	6581
3.63900	6553
3.63967	6526
3.64033	6499
3.64100	6471
3.64167	6444
3.64233	6416
3.64300	6388
3.64367	6361
3.64433	6333
3.64500	6305
3.64567	6277
3.64633	6249
3.64700	6222
3.64767	6194
3.64833	6166
3.64900	6139
3.64967	6111
3.65033	6084
3.65100	6057
3.65167	6029
3.65233	6002
3.65300	5975
3.65367	5948
3.65433	5922
3.65500	5895
3.65567	5868
3.65633	5842
3.65700	5816
3.65767	5790
3.65833	5764
3.65900	5738
3.65967	5712
3.66033	5687
3.66100	5662
3.66167	5637
3.66233	5612
3.66300	5587
3.66367	5562
3.66433	5538
3.66500	5514
3.66567	5490
3.66633	5466
3.66700	5443
3.66767	5419
3.66833	5396
3.66900	5373
3.66967	5351
3.67033	5328
3.67100	5306
3.67167	5284
3.67233	5263
3.67300	5241
3.67367	5220
3.67433	5199
3.67500	5178
3.67567	5158
3.67633	5137
3.67700	5117
3.67767	5098
3.67833	5078
3.67900	5059
3.67967	5039
3.68033	5020
3.68100	5002
3.68167	4983
3.68233	4965
3.68300	4947
3.68367	4929
3.68433	4911
3.68500	4894
3.68567	4877
3.68633	4860
3.68700	4843
3.68767	4827
3.68833	4810
3.68900	4794
3.68967	4779
3.69033	4763
3.69100	4748
3.69167	4732
3.69233	4717
3.69300	4703
3.69367	4688
3.69433	4674
3.69500	4659
3.69567	4645
3.69633	4632
3.69700	4618
3.69767	4605
3.69833	4591
3.69900	4578
3.69967	4565
3.70033	4552
3.70100	4540
3.70167	4528
3.70233	4515
3.70300	4504
3.70367	4492
3.70433	4480
3.70500	4469
3.70567	4457
3.70633	4446
3.70700	4435
3.70767	4425
3.70833	4414
3.70900	4404
3.70967	4393
3.71033	4383
3.71100	4373
3.71167	4363
3.71233	4354
3.71300	4344
3.71367	4335
3.71433	4325
3.71500	4316
3.71567	4307
3.71633	4299
3.71700	4290
3.71767	4281
3.71833	4273
3.71900	4265
3.71967	4257
3.72033	4249
3.72100	4241
3.72167	4233
3.72233	4225
3.72300	4218
3.72367	4210
3.72433	4203
3.72500	4196
3.72567	4189
3.72633	4182
3.72700	4175
3.72767	4168
3.72833	4161
3.72900	4154
3.72967	4148
3.73033	4141
3.73100	4135
3.73167	4128
3.73233	4122
3.73300	4116
3.73367	4110
3.73433	4104
3.73500	4098
3.73567	4093
3.73633	4087
3.73700	4081
3.73767	4076
3.73833	4070
3.73900	4065
3.73967	4060
3.74033	4055
3.74100	4050
3.74167	4045
3.74233	4040
3.74300	4035
3.74367	4030
3.74433	4025
3.74500	4020
3.74567	4015
3.74633	4011
3.74700	4006
3.74767	4001
3.74833	3997
3.74900	3992
3.74967	3988
3.75033	3983
3.75100	3979
3.75167	3975
3.75233	3970
3.75300	3966
3.75367	3962
3.75433	3958
3.75500	3954
3.75567	3950
3.75633	3946
3.75700	3942
3.75767	3938
3.75833	3934
3.75900	3930
3.75967	3926
3.76033	3923
3.76100	3919
3.76167	3915
3.76233	3912
3.76300	3908
3.76367	3904
3.76433	3901
3.76500	3897
3.76567	3894
3.76633	3890
3.76700	3887
3.76767	3884
3.76833	3880
3.76900	3877
3.76967	3874
3.77033	3870
3.77100	3867
3.77167	3864
3.77233	3861
3.77300	3857
3.77367	3854
3.77433	3851
3.77500	3848
3.77567	3845
3.77633	3842
3.77700	3839
3.77767	3836
3.77833	3833
3.77900	3829
3.77967	3826
3.78033	3823
3.78100	3820
3.78167	3817
3.78233	3814
3.78300	3811
3.78367	3808
3.78433	3805
3.78500	3802
3.78567	3799
3.78633	3797
3.78700	3794
3.78767	3791
3.78833	3788
3.78900	3785
3.78967	3783
3.79033	3780
3.79100	3777
3.79167	3775
3.79233	3772
3.79300	3770
3.79367	3767
3.79433	3764
3.79500	3762
3.79567	3759
3.79633	3757
3.79700	3754
3.79767	3752
3.79833	3749
3.79900	3747
3.79967	3744
3.80033	3742
3.80100	3740
3.80167	3737
3.80233	3735
3.80300	3733
3.80367	3730
3.80433	3728
3.80500	3726
3.80567	3724
3.80633	3722
3.80700	3719
3.80767	3717
3.80833	3715
3.80900	3713
3.80967	3711
3.81033	3709
3.81100	3707
3.81167	3705
3.81233	3703
3.81300	3701
3.81367	3699
3.81433	3697
3.81500	3695
3.81567	3693
3.81633	3691
3.81700	3689
3.81767	3687
3.81833	3685
3.81900	3683
3.81967	3682
3.82033	3680
3.82100	3678
3.82167	3676
3.82233	3675
3.82300	3673
3.82367	3671
3.82433	3670
3.82500	3668
3.82567	3666
3.82633	3664
3.82700	3663
3.82767	3661
3.82833	3659
3.82900	3657
3.82967	3656
3.83033	3654
3.83100	3652
3.83167	3651
3.83233	3649
3.83300	3647
3.83367	3646
3.83433	3644
3.83500	3642
3.83567	3640
3.83633	3639
3.83700	3637
3.83767	3635
3.83833	3633
3.83900	3632
3.83967	3630
3.84033	3628
3.84100	3626
3.84167	3625
3.84233	3623
3.84300	3621
3.84367	3620
3.84433	3618
3.84500	3616
3.84567	3615
3.84633	3613
3.84700	3612
3.84767	3610
3.84833	3609
3.84900	3607
3.84967	3605
3.85033	3604
3.85100	3602
3.85167	3601
3.85233	3600
3.85300	3598
3.85367	3597
3.85433	3595
3.85500	3594
3.85567	3592
3.85633	3591
3.85700	3590
3.85767	3588
3.85833	3587
3.85900	3586
3.85967	3584
3.86033	3583
3.86100	3581
3.86167	3580
3.86233	3579
3.86300	3578
3.86367	3576
3.86433	3575
3.86500	3574
3.86567	3573
3.86633	3571
3.86700	3570
3.86767	3569
3.86833	3568
3.86900	3566
3.86967	3565
3.87033	3564
3.87100	3563
3.87167	3561
3.87233	3560
3.87300	3559
3.87367	3558
3.87433	3557
3.87500	3555
3.87567	3554
3.87633	3553
3.87700	3552
3.87767	3551
3.87833	3550
3.87900	3549
3.87967	3548
3.88033	3547
3.88100	3546
3.88167	3545
3.88233	3543
3.88300	3542
3.88367	3541
3.88433	3540
3.88500	3539
3.88567	3539
3.88633	3538
3.88700	3537
3.88767	3536
3.88833	3535
3.88900	3534
3.88967	3533
3.89033	3532
3.89100	3531
3.89167	3531
3.89233	3530
3.89300	3529
3.89367	3528
3.89433	3527
3.89500	3526
3.89567	3525
3.89633	3525
3.89700	3524
3.89767	3523
3.89833	3522
3.89900	3521
3.89967	3520
3.90033	3520
3.90100	3519
3.90167	3518
3.90233	3517
3.90300	3516
3.90367	3515
3.90433	3514
3.90500	3513
3.90567	3513
3.90633	3512
3.90700	3511
3.90767	3510
3.90833	3509
3.90900	3508
3.90967	3507
3.91033	3506
3.91100	3505
3.91167	3505
3.91233	3504
3.91300	3503
3.91367	3502
3.91433	3501
3.91500	3500
3.91567	3499
3.91633	3499
3.91700	3498
3.91767	3497
3.91833	3496
3.91900	3495
3.91967	3495
3.92033	3494
3.92100	3493
3.92167	3492
3.92233	3491
3.92300	3490
3.92367	3489
3.92433	3488
3.92500	3487
3.92567	3487
3.92633	3486
3.92700	3485
3.92767	3484
3.92833	3483
3.92900	3482
3.92967	3481
3.93033	3480
3.93100	3479
3.93167	3478
3.93233	3477
3.93300	3476
3.93367	3475
3.93433	3474
3.93500	3473
3.93567	3473
3.93633	3472
3.93700	3471
3.93767	3470
3.93833	3469
3.93900	3468
3.93967	3468
3.94033	3467
3.94100	3466
3.94167	3466
3.94233	3465
3.94300	3464
3.94367	3463
3.94433	3463
3.94500	3462
3.94567	3462
3.94633	3461
3.94700	3461
3.94767	3460
3.94833	3460
3.94900	3459
3.94967	3458
3.95033	3458
3.95100	3457
3.95167	3457
3.95233	3456
3.95300	3455
3.95367	3455
3.95433	3454
3.95500	3453
3.95567	3453
3.95633	3452
3.95700	3451
3.95767	3451
3.95833	3450
3.95900	3449
3.95967	3449
3.96033	3448
3.96100	3448
3.96167	3447
3.96233	3447
3.96300	3446
3.96367	3445
3.96433	3445
3.96500	3444
3.96567	3444
3.96633	3443
3.96700	3443
3.96767	3442
3.96833	3442
3.96900	3441
3.96967	3441
3.97033	3440
3.97100	3439
3.97167	3439
3.97233	3438
3.97300	3438
3.97367	3437
3.97433	3437
3.97500	3437
3.97567	3436
3.97633	3436
3.97700	3436
3.97767	3435
3.97833	3435
3.97900	3435
3.97967	3434
3.98033	3434
3.98100	3434
3.98167	3434
3.98233	3434
3.98300	3433
3.98367	3433
3.98433	3433
3.98500	3433
3.98567	3433
3.98633	3433
3.98700	3433
3.98767	3433
3.98833	3433
3.98900	3433
3.98967	3434
3.99033	3434
3.99100	3434
3.99167	3434
3.99233	3435
3.99300	3435
3.99367	3435
3.99433	3436
3.99500	3436
3.99567	3437
3.99633	3437
3.99700	3438
3.99767	3439
3.99833	3439
3.99900	3440
3.99967	3440
4.00033	3441
4.00100	3442
4.00167	3443
4.00233	3444
4.00300	3445
4.00367	3446
4.00433	3447
4.00500	3448
4.00567	3449
4.00633	3451
4.00700	3452
4.00767	3453
4.00833	3455
4.00900	3456
4.00967	3458
4.01033	3459
4.01100	3461
4.01167	3463
4.01233	3465
4.01300	3467
4.01367	3469
4.01433	3471
4.01500	3473
4.01567	3475
4.01633	3477
4.01700	3480
4.01767	3482
4.01833	3484
4.01900	3487
4.01967	3489
4.02033	3492
4.02100	3495
4.02167	3498
4.02233	3501
4.02300	3504
4.02367	3507
4.02433	3510
4.02500	3513
4.02567	3517
4.02633	3520
4.02700	3524
4.02767	3527
4.02833	3531
4.02900	3534
4.02967	3538
4.03033	3541
4.03100	3545
4.03167	3549
4.03233	3553
4.03300	3557
4.03367	3561
4.03433	3565
4.03500	3569
4.03567	3573
4.03633	3577
4.03700	3582
4.03767	3586
4.03833	3590
4.03900	3595
4.03967	3600
4.04033	3604
4.04100	3609
4.04167	3614
4.04233	3619
4.04300	3623
4.04367	3628
4.04433	3633
4.04500	3638
4.04567	3644
4.04633	3649
4.04700	3654
4.04767	3659
4.04833	3665
4.04900	3670
4.04967	3676
4.05033	3681
4.05100	3687
4.05167	3692
4.05233	3698
4.05300	3703
4.05367	3709
4.05433	3715
4.05500	3720
4.05567	3726
4.05633	3732
4.05700	3737
4.05767	3743
4.05833	3749
4.05900	3754
4.05967	3760
4.06033	3766
4.06100	3771
4.06167	3777
4.06233	3782
4.06300	3788
4.06367	3793
4.06433	3799
4.06500	3804
4.06567	3809
4.06633	3815
4.06700	3820
4.06767	3825
4.06833	3831
4.06900	3836
4.06967	3841
4.07033	3846
4.07100	3851
4.07167	3856
4.07233	3861
4.07300	3865
4.07367	3870
4.07433	3875
4.07500	3879
4.07567	3884
4.07633	3888
4.07700	3893
4.07767	3897
4.07833	3901
4.07900	3906
4.07967	3910
4.08033	3914
4.08100	3918
4.08167	3922
4.08233	3926
4.08300	3930
4.08367	3933
4.08433	3937
4.08500	3941
4.08567	3944
4.08633	3948
4.08700	3951
4.08767	3955
4.08833	3958
4.08900	3961
4.08967	3965
4.09033	3968
4.09100	3971
4.09167	3974
4.09233	3976
4.09300	3979
4.09367	3982
4.09433	3985
4.09500	3987
4.09567	3990
4.09633	3992
4.09700	3995
4.09767	3997
4.09833	3999
4.09900	4001
4.09967	4003
4.10033	4005
4.10100	4007
4.10167	4009
4.10233	4011
4.10300	4013
4.10367	4014
4.10433	4016
4.10500	4018
4.10567	4019
4.10633	4021
4.10700	4022
4.10767	4024
4.10833	4025
4.10900	4026
4.10967	4027
4.11033	4028
4.11100	4029
4.11167	4030
4.11233	4032
4.11300	4032
4.11367	4033
4.11433	4034
4.11500	4035
4.11567	4036
4.11633	4036
4.11700	4037
4.11767	4038
4.11833	4038
4.11900	4039
4.11967	4039
4.12033	4040
4.12100	4040
4.12167	4041
4.12233	4041
4.12300	4042
4.12367	4042
4.12433	4042
4.12500	4043
4.12567	4043
4.12633	4043
4.12700	4044
4.12767	4044
4.12833	4044
4.12900	4045
4.12967	4045
4.13033	4045
4.13100	4046
4.13167	4046
4.13233	4046
4.13300	4046
4.13367	4047
4.13433	4047
4.13500	4047
4.13567	4047
4.13633	4047
4.13700	4048
4.13767	4048
4.13833	4048
4.13900	4048
4.13967	4048
4.14033	4049
4.14100	4049
4.14167	4049
4.14233	4049
4.14300	4049
4.14367	4050
4.14433	4050
4.14500	4050
4.14567	4050
4.14633	4050
4.14700	4051
4.14767	4051
4.14833	4051
4.14900	4051
4.14967	4051
4.15033	4052
4.15100	4052
4.15167	4052
4.15233	4052
4.15300	4052
4.15367	4052
4.15433	4052
4.15500	4053
4.15567	4053
4.15633	4053
4.15700	4053
4.15767	4053
4.15833	4053
4.15900	4053
4.15967	4054
4.16033	4054
4.16100	4054
4.16167	4054
4.16233	4055
4.16300	4055
4.16367	4055
4.16433	4056
4.16500	4056
4.16567	4056
4.16633	4056
4.16700	4057
4.16767	4057
4.16833	4058
4.16900	4058
4.16967	4058
4.17033	4059
4.17100	4059
4.17167	4059
4.17233	4060
4.17300	4060
4.17367	4060
4.17433	4061
4.17500	4061
4.17567	4062
4.17633	4062
4.17700	4063
4.17767	4063
4.17833	4064
4.17900	4064
4.17967	4065
4.18033	4065
4.18100	4066
4.18167	4067
4.18233	4068
4.18300	4068
4.18367	4069
4.18433	4070
4.18500	4071
4.18567	4072
4.18633	4073
4.18700	4075
4.18767	4076
4.18833	4077
4.18900	4079
4.18967	4080
4.19033	4082
4.19100	4083
4.19167	4085
4.19233	4087
4.19300	4089
4.19367	4091
4.19433	4093
4.19500	4095
4.19567	4097
4.19633	4100
4.19700	4102
4.19767	4105
4.19833	4108
4.19900	4110
4.19967	4113
4.20033	4116
4.20100	4120
4.20167	4123
4.20233	4127
4.20300	4130
4.20367	4134
4.20433	4138
4.20500	4142
4.20567	4147
4.20633	4151
4.20700	4156
4.20767	4161
4.20833	4166
4.20900	4171
4.20967	4177
4.21033	4182
4.21100	4188
4.21167	4194
4.21233	4201
4.21300	4207
4.21367	4214
4.21433	4221
4.21500	4228
4.21567	4236
4.21633	4243
4.21700	4251
4.21767	4259
4.21833	4268
4.21900	4276
4.21967	4285
4.22033	4295
4.22100	4304
4.22167	4314
4.22233	4324
4.22300	4335
4.22367	4346
4.22433	4357
4.22500	4368
4.22567	4380
4.22633	4392
4.22700	4404
4.22767	4417
4.22833	4430
4.22900	4443
4.22967	4457
4.23033	4472
4.23100	4486
4.23167	4501
4.23233	4517
4.23300	4533
4.23367	4549
4.23433	4566
4.23500	4583
4.23567	4601
4.23633	4619
4.23700	4637
4.23767	4656
4.23833	4676
4.23900	4696
4.23967	4716
4.24033	4737
4.24100	4758
4.24167	4780
4.24233	4802
4.24300	4825
4.24367	4848
4.24433	4872
4.24500	4896
4.24567	4921
4.24633	4946
4.24700	4972
4.24767	4998
4.24833	5024
4.24900	5051
4.24967	5079
4.25033	5107
4.25100	5135
4.25167	5164
4.25233	5193
4.25300	5223
4.25367	5253
4.25433	5284
4.25500	5315
4.25567	5346
4.25633	5378
4.25700	5411
4.25767	5444
4.25833	5478
4.25900	5512
4.25967	5547
4.26033	5582
4.26100	5617
4.26167	5653
4.26233	5689
4.26300	5726
4.26367	5763
4.26433	5801
4.26500	5839
4.26567	5877
4.26633	5916
4.26700	5955
4.26767	5995
4.26833	6034
4.26900	6075
4.26967	6115
4.27033	6156
4.27100	6197
4.27167	6239
4.27233	6281
4.27300	6323
4.27367	6365
4.27433	6408
4.27500	6451
4.27567	6494
4.27633	6538
4.27700	6581
4.27767	6625
4.27833	6669
4.27900	6713
4.27967	6757
4.28033	6802
4.28100	6846
4.28167	6891
4.28233	6936
4.28300	6981
4.28367	7025
4.28433	7070
4.28500	7116
4.28567	7161
4.28633	7206
4.28700	7251
4.28767	7297
4.28833	7342
4.28900	7387
4.28967	7433
4.29033	7478
4.29100	7523
4.29167	7568
4.29233	7614
4.29300	7659
4.29367	7704
4.29433	7748
4.29500	7793
4.29567	7838
4.29633	7882
4.29700	7926
4.29767	7970
4.29833	8014
4.29900	8058
4.29967	8101
4.30033	8144
4.30100	8187
4.30167	8229
4.30233	8272
4.30300	8313
4.30367	8355
4.30433	8396
4.30500	8437
4.30567	8477
4.30633	8517
4.30700	8556
4.30767	8596
4.30833	8634
4.30900	8673
4.30967	8711
4.31033	8748
4.31100	8785
4.31167	8821
4.31233	8857
4.31300	8892
4.31367	8927
4.31433	8961
4.31500	8994
4.31567	9027
4.31633	9060
4.31700	9091
4.31767	9123
4.31833	9153
4.31900	9183
4.31967	9212
4.32033	9240
4.32100	9268
4.32167	9295
4.32233	9322
4.32300	9348
4.32367	9373
4.32433	9397
4.32500	9420
4.32567	9443
4.32633	9465
4.32700	9486
4.32767	9506
4.32833	9526
4.32900	9545
4.32967	9563
4.33033	9580
4.33100	9596
4.33167	9612
4.33233	9627
4.33300	9641
4.33367	9654
4.33433	9667
4.33500	9679
4.33567	9690
4.33633	9700
4.33700	9710
4.33767	9719
4.33833	9727
4.33900	9735
4.33967	9742
4.34033	9748
4.34100	9754
4.34167	9759
4.34233	9763
4.34300	9767
4.34367	9770
4.34433	9772
4.34500	9774
4.34567	9775
4.34633	9775
4.34700	9775
4.34767	9775
4.34833	9773
4.34900	9772
4.34967	9769
4.35033	9767
4.35100	9764
4.35167	9760
4.35233	9756
4.35300	9752
4.35367	9747
4.35433	9742
4.35500	9737
4.35567	9732
4.35633	9726
4.35700	9720
4.35767	9714
4.35833	9708
4.35900	9702
4.35967	9695
4.36033	9689
4.36100	9683
4.36167	9677
4.36233	9670
4.36300	9664
4.36367	9658
4.36433	9653
4.36500	9647
4.36567	9642
4.36633	9638
4.36700	9633
4.36767	9629
4.36833	9626
4.36900	9623
4.36967	9620
4.37033	9618
4.37100	9617
4.37167	9616
4.37233	9616
4.37300	9616
4.37367	9618
4.37433	9620
4.37500	9623
4.37567	9627
4.37633	9631
4.37700	9637
4.37767	9644
4.37833	9651
4.37900	9660
4.37967	9669
4.38033	9680
4.38100	9691
4.38167	9704
4.38233	9718
4.38300	9734
4.38367	9750
4.38433	9768
4.38500	9787
4.38567	9808
4.38633	9829
4.38700	9853
4.38767	9877
4.38833	9903
4.38900	9930
4.38967	9959
4.39033	9989
4.39100	10021
4.39167	10054
4.39233	10089
4.39300	10125
4.39367	10162
4.39433	10201
4.39500	10242
4.39567	10284
4.39633	10327
4.39700	10373
4.39767	10419
4.39833	10467
4.39900	10517
4.39967	10568
4.40033	10621
4.40100	10675
4.40167	10731
4.40233	10788
4.40300	10847
4.40367	10907
4.40433	10969
4.40500	11033
4.40567	11097
4.40633	11163
4.40700	11231
4.40767	11300
4.40833	11370
4.40900	11442
4.40967	11514
4.41033	11588
4.41100	11663
4.41167	11740
4.41233	11817
4.41300	11895
4.41367	11974
4.41433	12054
4.41500	12134
4.41567	12215
4.41633	12297
4.41700	12379
4.41767	12462
4.41833	12545
4.41900	12629
4.41967	12712
4.42033	12796
4.42100	12881
4.42167	12965
4.42233	13050
4.42300	13135
4.42367	13220
4.42433	13305
4.42500	13389
4.42567	13474
4.42633	13558
4.42700	13642
4.42767	13725
4.42833	13808
4.42900	13891
4.42967	13972
4.43033	14054
4.43100	14134
4.43167	14214
4.43233	14293
4.43300	14372
4.43367	14449
4.43433	14526
4.43500	14601
4.43567	14676
4.43633	14749
4.43700	14821
4.43767	14892
4.43833	14961
4.43900	15030
4.43967	15096
4.44033	15162
4.44100	15225
4.44167	15287
4.44233	15348
4.44300	15406
4.44367	15463
4.44433	15518
4.44500	15571
4.44567	15623
4.44633	15672
4.44700	15720
4.44767	15766
4.44833	15810
4.44900	15852
4.44967	15891
4.45033	15929
4.45100	15964
4.45167	15998
4.45233	16029
4.45300	16058
4.45367	16084
4.45433	16108
4.45500	16130
4.45567	16150
4.45633	16167
4.45700	16182
4.45767	16194
4.45833	16204
4.45900	16212
4.45967	16217
4.46033	16220
4.46100	16220
4.46167	16218
4.46233	16214
4.46300	16207
4.46367	16198
4.46433	16186
4.46500	16171
4.46567	16155
4.46633	16135
4.46700	16114
4.46767	16089
4.46833	16063
4.46900	16034
4.46967	16002
4.47033	15969
4.47100	15933
4.47167	15894
4.47233	15854
4.47300	15811
4.47367	15766
4.47433	15720
4.47500	15671
4.47567	15620
4.47633	15568
4.47700	15513
4.47767	15457
4.47833	15399
4.47900	15339
4.47967	15277
4.48033	15214
4.48100	15149
4.48167	15083
4.48233	15015
4.48300	14945
4.48367	14874
4.48433	14802
4.48500	14728
4.48567	14653
4.48633	14577
4.48700	14500
4.48767	14421
4.48833	14341
4.48900	14261
4.48967	14179
4.49033	14097
4.49100	14014
4.49167	13930
4.49233	13845
4.49300	13760
4.49367	13674
4.49433	13588
4.49500	13501
4.49567	13414
4.49633	13327
4.49700	13239
4.49767	13151
4.49833	13063
4.49900	12975
4.49967	12886
4.50033	12798
4.50100	12709
4.50167	12621
4.50233	12533
4.50300	12445
4.50367	12357
4.50433	12269
4.50500	12182
4.50567	12095
4.50633	12009
4.50700	11923
4.50767	11838
4.50833	11754
4.50900	11670
4.50967	11586
4.51033	11504
4.51100	11422
4.51167	11341
4.51233	11260
4.51300	11181
4.51367	11103
4.51433	11025
4.51500	10949
4.51567	10874
4.51633	10800
4.51700	10727
4.51767	10655
4.51833	10584
4.51900	10515
4.51967	10447
4.52033	10380
4.52100	10314
4.52167	10250
4.52233	10187
4.52300	10126
4.52367	10066
4.52433	10008
4.52500	9951
4.52567	9895
4.52633	9842
4.52700	9790
4.52767	9739
4.52833	9690
4.52900	9643
4.52967	9598
4.53033	9554
4.53100	9512
4.53167	9472
4.53233	9434
4.53300	9397
4.53367	9362
4.53433	9329
4.53500	9298
4.53567	9268
4.53633	9241
4.53700	9215
4.53767	9191
4.53833	9168
4.53900	9148
4.53967	9130
4.54033	9113
4.54100	9098
4.54167	9085
4.54233	9075
4.54300	9066
4.54367	9059
4.54433	9053
4.54500	9050
4.54567	9049
4.54633	9050
4.54700	9053
4.54767	9057
4.54833	9063
4.54900	9072
4.54967	9082
4.55033	9094
4.55100	9108
4.55167	9123
4.55233	9141
4.55300	9160
4.55367	9181
4.55433	9203
4.55500	9228
4.55567	9254
4.55633	9281
4.55700	9310
4.55767	9341
4.55833	9373
4.55900	9407
4.55967	9443
4.56033	9480
4.56100	9518
4.56167	9558
4.56233	9599
4.56300	9642
4.56367	9686
4.56433	9731
4.56500	9778
4.56567	9827
4.56633	9876
4.56700	9927
4.56767	9979
4.56833	10032
4.56900	10087
4.56967	10142
4.57033	10199
4.57100	10256
4.57167	10315
4.57233	10375
4.57300	10435
4.57367	10497
4.57433	10559
4.57500	10622
4.57567	10686
4.57633	10750
4.57700	10816
4.57767	10882
4.57833	10948
4.57900	11015
4.57967	11083
4.58033	11151
4.58100	11219
4.58167	11288
4.58233	11357
4.58300	11426
4.58367	11496
4.58433	11565
4.58500	11634
4.58567	11704
4.58633	11773
4.58700	11842
4.58767	11911
4.58833	11980
4.58900	12049
4.58967	12117
4.59033	12184
4.59100	12252
4.59167	12319
4.59233	12385
4.59300	12451
4.59367	12516
4.59433	12581
4.59500	12644
4.59567	12708
4.59633	12770
4.59700	12831
4.59767	12892
4.59833	12952
4.59900	13011
4.59967	13069
4.60033	13126
4.60100	13182
4.60167	13237
4.60233	13291
4.60300	13343
4.60367	13395
4.60433	13445
4.60500	13494
4.60567	13542
4.60633	13589
4.60700	13635
4.60767	13679
4.60833	13723
4.60900	13765
4.60967	13806
4.61033	13846
4.61100	13885
4.61167	13922
4.61233	13958
4.61300	13993
4.61367	14026
4.61433	14058
4.61500	14089
4.61567	14119
4.61633	14147
4.61700	14174
4.61767	14200
4.61833	14224
4.61900	14247
4.61967	14268
4.62033	14288
4.62100	14307
4.62167	14325
4.62233	14341
4.62300	14356
4.62367	14369
4.62433	14382
4.62500	14393
4.62567	14403
4.62633	14411
4.62700	14419
4.62767	14425
4.62833	14430
4.62900	14434
4.62967	14436
4.63033	14438
4.63100	14438
4.63167	14437
4.63233	14435
4.63300	14432
4.63367	14427
4.63433	14422
4.63500	14415
4.63567	14408
4.63633	14399
4.63700	14390
4.63767	14379
4.63833	14368
4.63900	14356
4.63967	14343
4.64033	14329
4.64100	14315
4.64167	14299
4.64233	14283
4.64300	14266
4.64367	14248
4.64433	14230
4.64500	14211
4.64567	14192
4.64633	14171
4.64700	14151
4.64767	14129
4.64833	14107
4.64900	14084
4.64967	14061
4.65033	14037
4.65100	14013
4.65167	13988
4.65233	13963
4.65300	13938
4.65367	13912
4.65433	13885
4.65500	13859
4.65567	13832
4.65633	13805
4.65700	13777
4.65767	13749
4.65833	13721
4.65900	13693
4.65967	13664
4.66033	13636
4.66100	13607
4.66167	13578
4.66233	13549
4.66300	13520
4.66367	13490
4.66433	13461
4.66500	13432
4.66567	13402
4.66633	13372
4.66700	13342
4.66767	13312
4.66833	13282
4.66900	13252
4.66967	13222
4.67033	13192
4.67100	13162
4.67167	13132
4.67233	13102
4.67300	13072
4.67367	13042
4.67433	13012
4.67500	12982
4.67567	12952
4.67633	12922
4.67700	12892
4.67767	12862
4.67833	12833
4.67900	12803
4.67967	12773
4.68033	12743
4.68100	12714
4.68167	12684
4.68233	12655
4.68300	12625
4.68367	12596
4.68433	12567
4.68500	12537
4.68567	12509
4.68633	12480
4.68700	12451
4.68767	12423
4.68833	12394
4.68900	12366
4.68967	12338
4.69033	12310
4.69100	12283
4.69167	12255
4.69233	12228
4.69300	12202
4.69367	12175
4.69433	12149
4.69500	12122
4.69567	12096
4.69633	12071
4.69700	12045
4.69767	12019
4.69833	11994
4.69900	11969
4.69967	11944
4.70033	11919
4.70100	11894
4.70167	11870
4.70233	11846
4.70300	11822
4.70367	11798
4.70433	11774
4.70500	11750
4.70567	11727
4.70633	11704
4.70700	11681
4.70767	11658
4.70833	11635
4.70900	11612
4.70967	11590
4.71033	11568
4.71100	11545
4.71167	11523
4.71233	11501
4.71300	11480
4.71367	11458
4.71433	11437
4.71500	11415
4.71567	11394
4.71633	11373
4.71700	11352
4.71767	11331
4.71833	11310
4.71900	11289
4.71967	11269
4.72033	11249
4.72100	11228
4.72167	11208
4.72233	11189
4.72300	11169
4.72367	11149
4.72433	11130
4.72500	11111
4.72567	11092
4.72633	11073
4.72700	11054
4.72767	11035
4.72833	11017
4.72900	10998
4.72967	10980
4.73033	10963
4.73100	10945
4.73167	10927
4.73233	10910
4.73300	10893
4.73367	10876
4.73433	10859
4.73500	10843
4.73567	10826
4.73633	10810
4.73700	10794
4.73767	10778
4.73833	10762
4.73900	10746
4.73967	10730
4.74033	10714
4.74100	10699
4.74167	10683
4.74233	10668
4.74300	10653
4.74367	10637
4.74433	10622
4.74500	10607
4.74567	10592
4.74633	10577
4.74700	10563
4.74767	10548
4.74833	10533
4.74900	10518
4.74967	10504
4.75033	10489
4.75100	10474
4.75167	10460
4.75233	10446
4.75300	10431
4.75367	10417
4.75433	10403
4.75500	10389
4.75567	10375
4.75633	10361
4.75700	10347
4.75767	10334
4.75833	10320
4.75900	10307
4.75967	10293
4.76033	10280
4.76100	10267
4.76167	10254
4.76233	10241
4.76300	10228
4.76367	10216
4.76433	10203
4.76500	10191
4.76567	10178
4.76633	10166
4.76700	10154
4.76767	10142
4.76833	10130
4.76900	10118
4.76967	10107
4.77033	10095
4.77100	10084
4.77167	10072
4.77233	10061
4.77300	10050
4.77367	10039
4.77433	10028
4.77500	10017
4.77567	10006
4.77633	9995
4.77700	9984
4.77767	9974
4.77833	9963
4.77900	9953
4.77967	9942
4.78033	9932
4.78100	9922
4.78167	9912
4.78233	9902
4.78300	9892
4.78367	9882
4.78433	9872
4.78500	9862
4.78567	9853
4.78633	9843
4.78700	9833
4.78767	9824
4.78833	9814
4.78900	9805
4.78967	9795
4.79033	9786
4.79100	9777
4.79167	9768
4.79233	9759
4.79300	9750
4.79367	9741
4.79433	9732
4.79500	9723
4.79567	9714
4.79633	9705
4.79700	9696
4.79767	9687
4.79833	9678
4.79900	9669
4.79967	9660
4.80033	9650
4.80100	9641
4.80167	9632
4.80233	9623
4.80300	9614
4.80367	9605
4.80433	9596
4.80500	9587
4.80567	9578
4.80633	9569
4.80700	9560
4.80767	9551
4.80833	9542
4.80900	9534
4.80967	9525
4.81033	9516
4.81100	9507
4.81167	9499
4.81233	9490
4.81300	9481
4.81367	9473
4.81433	9464
4.81500	9455
4.81567	9447
4.81633	9438
4.81700	9429
4.81767	9421
4.81833	9412
4.81900	9404
4.81967	9395
4.82033	9387
4.82100	9378
4.82167	9370
4.82233	9362
4.82300	9353
4.82367	9345
4.82433	9337
4.82500	9328
4.82567	9320
4.82633	9311
4.82700	9303
4.82767	9295
4.82833	9286
4.82900	9278
4.82967	9269
4.83033	9261
4.83100	9252
4.83167	9244
4.83233	9236
4.83300	9227
4.83367	9219
4.83433	9211
4.83500	9202
4.83567	9194
4.83633	9186
4.83700	9178
4.83767	9170
4.83833	9162
4.83900	9154
4.83967	9146
4.84033	9138
4.84100	9131
4.84167	9123
4.84233	9116
4.84300	9108
4.84367	9101
4.84433	9093
4.84500	9086
4.84567	9079
4.84633	9071
4.84700	9064
4.84767	9057
4.84833	9050
4.84900	9042
4.84967	9035
4.85033	9028
4.85100	9021
4.85167	9014
4.85233	9007
4.85300	9000
4.85367	8993
4.85433	8986
4.85500	8979
4.85567	8972
4.85633	8965
4.85700	8958
4.85767	8951
4.85833	8944
4.85900	8937
4.85967	8930
4.86033	8923
4.86100	8916
4.86167	8909
4.86233	8902
4.86300	8895
4.86367	8888
4.86433	8881
4.86500	8874
4.86567	8867
4.86633	8860
4.86700	8853
4.86767	8846
4.86833	8839
4.86900	8832
4.86967	8825
4.87033	8819
4.87100	8812
4.87167	8805
4.87233	8798
4.87300	8792
4.87367	8785
4.87433	8779
4.87500	8772
4.87567	8766
4.87633	8759
4.87700	8753
4.87767	8746
4.87833	8740
4.87900	8734
4.87967	8727
4.88033	8721
4.88100	8715
4.88167	8709
4.88233	8703
4.88300	8696
4.88367	8690
4.88433	8684
4.88500	8678
4.88567	8672
4.88633	8666
4.88700	8660
4.88767	8654
4.88833	8648
4.88900	8642
4.88967	8636
4.89033	8630
4.89100	8624
4.89167	8618
4.89233	8613
4.89300	8607
4.89367	8601
4.89433	8595
4.89500	8589
4.89567	8584
4.89633	8578
4.89700	8572
4.89767	8566
4.89833	8560
4.89900	8555
4.89967	8549
4.90033	8543
4.90100	8537
4.90167	8532
4.90233	8526
4.90300	8520
4.90367	8514
4.90433	8509
4.90500	8503
4.90567	8497
4.90633	8491
4.90700	8485
4.90767	8479
4.90833	8473
4.90900	8467
4.90967	8461
4.91033	8455
4.91100	8449
4.91167	8443
4.91233	8437
4.91300	8431
4.91367	8425
4.91433	8419
4.91500	8413
4.91567	8407
4.91633	8402
4.91700	8396
4.91767	8390
4.91833	8384
4.91900	8378
4.91967	8372
4.92033	8366
4.92100	8360
4.92167	8354
4.92233	8348
4.92300	8342
4.92367	8336
4.92433	8330
4.92500	8324
4.92567	8318
4.92633	8312
4.92700	8306
4.92767	8300
4.92833	8295
4.92900	8289
4.92967	8283
4.93033	8277
4.93100	8272
4.93167	8266
4.93233	8260
4.93300	8255
4.93367	8249
4.93433	8243
4.93500	8237
4.93567	8232
4.93633	8226
4.93700	8220
4.93767	8215
4.93833	8209
4.93900	8203
4.93967	8197
4.94033	8192
4.94100	8186
4.94167	8180
4.94233	8175
4.94300	8169
4.94367	8164
4.94433	8158
4.94500	8153
4.94567	8147
4.94633	8142
4.94700	8137
4.94767	8132
4.94833	8126
4.94900	8121
4.94967	8116
4.95033	8111
4.95100	8106
4.95167	8101
4.95233	8096
4.95300	8092
4.95367	8087
4.95433	8082
4.95500	8078
4.95567	8073
4.95633	8068
4.95700	8064
4.95767	8059
4.95833	8055
4.95900	8050
4.95967	8046
4.96033	8041
4.96100	8037
4.96167	8033
4.96233	8028
4.96300	8024
4.96367	8020
4.96433	8016
4.96500	8011
4.96567	8007
4.96633	8003
4.96700	7998
4.96767	7994
4.96833	7990
4.96900	7985
4.96967	7981
4.97033	7976
4.97100	7972
4.97167	7968
4.97233	7963
4.97300	7959
4.97367	7954
4.97433	7950
4.97500	7945
4.97567	7941
4.97633	7936
4.97700	7932
4.97767	7927
4.97833	7923
4.97900	7918
4.97967	7914
4.98033	7909
4.98100	7905
4.98167	7900
4.98233	7896
4.98300	7891
4.98367	7887
4.98433	7882
4.98500	7877
4.98567	7873
4.98633	7868
4.98700	7863
4.98767	7859
4.98833	7854
4.98900	7850
4.98967	7845
4.99033	7840
4.99100	7836
4.99167	7831
4.99233	7827
4.99300	7822
4.99367	7818
4.99433	7813
4.99500	7809
4.99567	7804
4.99633	7800
4.99700	7795
4.99767	7791
4.99833	7786
4.99900	7782
4.99967	7777
5.00033	7773
5.00100	7768
5.00167	7764
5.00233	7759
5.00300	7755
5.00367	7750
5.00433	7746
5.00500	7741
5.00567	7737
5.00633	7733
5.00700	7728
5.00767	7724
5.00833	7719
5.00900	7715
5.00967	7710
5.01033	7706
5.01100	7701
5.01167	7697
5.01233	7692
5.01300	7688
5.01367	7684
5.01433	7679
5.01500	7675
5.01567	7671
5.01633	7666
5.01700	7662
5.01767	7658
5.01833	7654
5.01900	7649
5.01967	7645
5.02033	7641
5.02100	7637
5.02167	7633
5.02233	7629
5.02300	7625
5.02367	7621
5.02433	7617
5.02500	7613
5.02567	7609
5.02633	7605
5.02700	7601
5.02767	7597
5.02833	7593
5.02900	7589
5.02967	7585
5.03033	7581
5.03100	7577
5.03167	7573
5.03233	7569
5.03300	7565
5.03367	7561
5.03433	7557
5.03500	7553
5.03567	7550
5.03633	7546
5.03700	7542
5.03767	7538
5.03833	7534
5.03900	7531
5.03967	7527
5.04033	7523
5.04100	7520
5.04167	7516
5.04233	7512
5.04300	7509
5.04367	7505
5.04433	7502
5.04500	7498
5.04567	7494
5.04633	7491
5.04700	7487
5.04767	7484
5.04833	7480
5.04900	7476
5.04967	7473
5.05033	7469
5.05100	7465
5.05167	7462
5.05233	7458
5.05300	7455
5.05367	7451
5.05433	7448
5.05500	7444
5.05567	7441
5.05633	7437
5.05700	7434
5.05767	7430
5.05833	7427
5.05900	7423
5.05967	7420
5.06033	7417
5.06100	7413
5.06167	7410
5.06233	7407
5.06300	7404
5.06367	7401
5.06433	7397
5.06500	7394
5.06567	7391
5.06633	7388
5.06700	7385
5.06767	7382
5.06833	7380
5.06900	7377
5.06967	7374
5.07033	7371
5.07100	7368
5.07167	7365
5.07233	7363
5.07300	7360
5.07367	7357
5.07433	7355
5.07500	7352
5.07567	7349
5.07633	7347
5.07700	7344
5.07767	7341
5.07833	7339
5.07900	7336
5.07967	7334
5.08033	7331
5.08100	7328
5.08167	7326
5.08233	7323
5.08300	7320
5.08367	7318
5.08433	7315
5.08500	7312
5.08567	7309
5.08633	7307
5.08700	7304
5.08767	7302
5.08833	7299
5.08900	7296
5.08967	7294
5.09033	7291
5.09100	7289
5.09167	7286
5.09233	7283
5.09300	7281
5.09367	7278
5.09433	7276
5.09500	7273
5.09567	7270
5.09633	7268
5.09700	7265
5.09767	7263
5.09833	7261
5.09900	7259
5.09967	7256
5.10033	7254
5.10100	7252
5.10167	7250
5.10233	7248
5.10300	7246
5.10367	7245
5.10433	7243
5.10500	7241
5.10567	7240
5.10633	7238
5.10700	7237
5.10767	7235
5.10833	7234
5.10900	7233
5.10967	7232
5.11033	7231
5.11100	7230
5.11167	7230
5.11233	7229
5.11300	7229
5.11367	7228
5.11433	7228
5.11500	7228
5.11567	7228
5.11633	7228
5.11700	7228
5.11767	7229
5.11833	7229
5.11900	7230
5.11967	7231
5.12033	7232
5.12100	7233
5.12167	7234
5.12233	7236
5.12300	7238
5.12367	7240
5.12433	7242
5.12500	7244
5.12567	7246
5.12633	7249
5.12700	7251
5.12767	7254
5.12833	7257
5.12900	7261
5.12967	7264
5.13033	7268
5.13100	7272
5.13167	7276
5.13233	7280
5.13300	7285
5.13367	7289
5.13433	7294
5.13500	7300
5.13567	7305
5.13633	7311
5.13700	7317
5.13767	7323
5.13833	7330
5.13900	7337
5.13967	7344
5.14033	7352
5.14100	7359
5.14167	7367
5.14233	7376
5.14300	7385
5.14367	7394
5.14433	7403
5.14500	7412
5.14567	7422
5.14633	7432
5.14700	7443
5.14767	7454
5.14833	7465
5.14900	7476
5.14967	7488
5.15033	7501
5.15100	7513
5.15167	7526
5.15233	7539
5.15300	7553
5.15367	7567
5.15433	7581
5.15500	7596
5.15567	7611
5.15633	7626
5.15700	7642
5.15767	7659
5.15833	7675
5.15900	7692
5.15967	7709
5.16033	7727
5.16100	7745
5.16167	7764
5.16233	7783
5.16300	7802
5.16367	7822
5.16433	7842
5.16500	7863
5.16567	7884
5.16633	7905
5.16700	7926
5.16767	7948
5.16833	7971
5.16900	7993
5.16967	8017
5.17033	8040
5.17100	8064
5.17167	8088
5.17233	8112
5.17300	8136
5.17367	8161
5.17433	8187
5.17500	8212
5.17567	8238
5.17633	8265
5.17700	8291
5.17767	8318
5.17833	8345
5.17900	8373
5.17967	8401
5.18033	8429
5.18100	8457
5.18167	8486
5.18233	8515
5.18300	8544
5.18367	8573
5.18433	8603
5.18500	8632
5.18567	8662
5.18633	8692
5.18700	8722
5.18767	8753
5.18833	8783
5.18900	8813
5.18967	8844
5.19033	8875
5.19100	8905
5.19167	8936
5.19233	8967
5.19300	8998
5.19367	9029
5.19433	9060
5.19500	9091
5.19567	9123
5.19633	9154
5.19700	9185
5.19767	9216
5.19833	9247
5.19900	9278
5.19967	9309
5.20033	9339
5.20100	9370
5.20167	9400
5.20233	9431
5.20300	9461
5.20367	9491
5.20433	9520
5.20500	9550
5.20567	9579
5.20633	9607
5.20700	9636
5.20767	9664
5.20833	9692
5.20900	9719
5.20967	9746
5.21033	9773
5.21100	9799
5.21167	9825
5.21233	9851
5.21300	9876
5.21367	9901
5.21433	9925
5.21500	9949
5.21567	9972
5.21633	9994
5.21700	10017
5.21767	10038
5.21833	10059
5.21900	10080
5.21967	10100
5.22033	10119
5.22100	10138
5.22167	10157
5.22233	10175
5.22300	10192
5.22367	10209
5.22433	10225
5.22500	10240
5.22567	10255
5.22633	10270
5.22700	10284
5.22767	10297
5.22833	10310
5.22900	10322
5.22967	10333
5.23033	10344
5.23100	10354
5.23167	10364
5.23233	10373
5.23300	10381
5.23367	10389
5.23433	10396
5.23500	10403
5.23567	10409
5.23633	10414
5.23700	10419
5.23767	10423
5.23833	10427
5.23900	10429
5.23967	10432
5.24033	10433
5.24100	10434
5.24167	10434
5.24233	10434
5.24300	10433
5.24367	10432
5.24433	10430
5.24500	10428
5.24567	10424
5.24633	10421
5.24700	10417
5.24767	10412
5.24833	10407
5.24900	10401
5.24967	10395
5.25033	10388
5.25100	10381
5.25167	10373
5.25233	10364
5.25300	10356
5.25367	10347
5.25433	10337
5.25500	10327
5.25567	10316
5.25633	10305
5.25700	10294
5.25767	10282
5.25833	10270
5.25900	10258
5.25967	10245
5.26033	10232
5.26100	10218
5.26167	10204
5.26233	10189
5.26300	10174
5.26367	10159
5.26433	10144
5.26500	10128
5.26567	10112
5.26633	10095
5.26700	10079
5.26767	10061
5.26833	10044
5.26900	10026
5.26967	10009
5.27033	9990
5.27100	9972
5.27167	9953
5.27233	9934
5.27300	9915
5.27367	9896
5.27433	9876
5.27500	9857
5.27567	9837
5.27633	9817
5.27700	9796
5.27767	9776
5.27833	9755
5.27900	9735
5.27967	9714
5.28033	9693
5.28100	9672
5.28167	9651
5.28233	9630
5.28300	9609
5.28367	9587
5.28433	9566
5.28500	9545
5.28567	9523
5.28633	9502
5.28700	9480
5.28767	9459
5.28833	9437
5.28900	9416
5.28967	9394
5.29033	9372
5.29100	9351
5.29167	9329
5.29233	9307
5.29300	9286
5.29367	9264
5.29433	9243
5.29500	9221
5.29567	9199
5.29633	9178
5.29700	9156
5.29767	9135
5.29833	9114
5.29900	9092
5.29967	9071
5.30033	9050
5.30100	9028
5.30167	9007
5.30233	8986
5.30300	8965
5.30367	8945
5.30433	8924
5.30500	8903
5.30567	8883
5.30633	8863
5.30700	8843
5.30767	8823
5.30833	8803
5.30900	8783
5.30967	8764
5.31033	8745
5.31100	8726
5.31167	8707
5.31233	8688
5.31300	8669
5.31367	8651
5.31433	8633
5.31500	8614
5.31567	8596
5.31633	8579
5.31700	8561
5.31767	8544
5.31833	8526
5.31900	8509
5.31967	8492
5.32033	8475
5.32100	8459
5.32167	8442
5.32233	8426
5.32300	8410
5.32367	8394
5.32433	8378
5.32500	8362
5.32567	8347
5.32633	8331
5.32700	8316
5.32767	8301
5.32833	8285
5.32900	8271
5.32967	8256
5.33033	8241
5.33100	8227
5.33167	8212
5.33233	8198
5.33300	8184
5.33367	8169
5.33433	8155
5.33500	8141
5.33567	8128
5.33633	8114
5.33700	8100
5.33767	8087
5.33833	8074
5.33900	8061
5.33967	8048
5.34033	8035
5.34100	8022
5.34167	8009
5.34233	7997
5.34300	7984
5.34367	7972
5.34433	7960
5.34500	7948
5.34567	7936
5.34633	7924
5.34700	7912
5.34767	7901
5.34833	7889
5.34900	7878
5.34967	7867
5.35033	7856
5.35100	7845
5.35167	7834
5.35233	7823
5.35300	7812
5.35367	7802
5.35433	7791
5.35500	7781
5.35567	7771
5.35633	7760
5.35700	7750
5.35767	7740
5.35833	7731
5.35900	7721
5.35967	7711
5.36033	7701
5.36100	7692
5.36167	7682
5.36233	7673
5.36300	7664
5.36367	7655
5.36433	7646
5.36500	7637
5.36567	7628
5.36633	7620
5.36700	7611
5.36767	7603
5.36833	7594
5.36900	7586
5.36967	7577
5.37033	7569
5.37100	7561
5.37167	7553
5.37233	7544
5.37300	7536
5.37367	7528
5.37433	7520
5.37500	7513
5.37567	7505
5.37633	7497
5.37700	7489
5.37767	7482
5.37833	7474
5.37900	7466
5.37967	7459
5.38033	7452
5.38100	7444
5.38167	7437
5.38233	7430
5.38300	7423
5.38367	7415
5.38433	7408
5.38500	7401
5.38567	7394
5.38633	7387
5.38700	7380
5.38767	7373
5.38833	7367
5.38900	7360
5.38967	7353
5.39033	7346
5.39100	7339
5.39167	7333
5.39233	7326
5.39300	7319
5.39367	7313
5.39433	7306
5.39500	7300
5.39567	7294
5.39633	7287
5.39700	7281
5.39767	7275
5.39833	7268
5.39900	7262
5.39967	7256
5.40033	7250
5.40100	7244
5.40167	7237
5.40233	7231
5.40300	7225
5.40367	7219
5.40433	7213
5.40500	7207
5.40567	7201
5.40633	7195
5.40700	7189
5.40767	7183
5.40833	7177
5.40900	7172
5.40967	7166
5.41033	7160
5.41100	7154
5.41167	7148
5.41233	7143
5.41300	7137
5.41367	7131
5.41433	7126
5.41500	7120
5.41567	7114
5.41633	7109
5.41700	7103
5.41767	7097
5.41833	7092
5.41900	7086
5.41967	7081
5.42033	7075
5.42100	7070
5.42167	7064
5.42233	7059
5.42300	7054
5.42367	7048
5.42433	7043
5.42500	7038
5.42567	7032
5.42633	7027
5.42700	7022
5.42767	7017
5.42833	7012
5.42900	7006
5.42967	7001
5.43033	6996
5.43100	6991
5.43167	6986
5.43233	6981
5.43300	6976
5.43367	6971
5.43433	6966
5.43500	6961
5.43567	6956
5.43633	6951
5.43700	6946
5.43767	6941
5.43833	6936
5.43900	6931
5.43967	6926
5.44033	6921
5.44100	6916
5.44167	6911
5.44233	6907
5.44300	6902
5.44367	6897
5.44433	6892
5.44500	6888
5.44567	6883
5.44633	6878
5.44700	6874
5.44767	6869
5.44833	6864
5.44900	6860
5.44967	6855
5.45033	6851
5.45100	6846
5.45167	6841
5.45233	6837
5.45300	6832
5.45367	6827
5.45433	6823
5.45500	6818
5.45567	6813
5.45633	6809
5.45700	6804
5.45767	6800
5.45833	6795
5.45900	6791
5.45967	6786
5.46033	6782
5.46100	6777
5.46167	6773
5.46233	6769
5.46300	6764
5.46367	6760
5.46433	6756
5.46500	6752
5.46567	6748
5.46633	6744
5.46700	6740
5.46767	6736
5.46833	6732
5.46900	6728
5.46967	6724
5.47033	6720
5.47100	6716
5.47167	6712
5.47233	6709
5.47300	6705
5.47367	6701
5.47433	6697
5.47500	6694
5.47567	6690
5.47633	6686
5.47700	6682
5.47767	6679
5.47833	6675
5.47900	6671
5.47967	6667
5.48033	6663
5.48100	6659
5.48167	6655
5.48233	6652
5.48300	6648
5.48367	6644
5.48433	6640
5.48500	6636
5.48567	6632
5.48633	6628
5.48700	6624
5.48767	6621
5.48833	6617
5.48900	6613
5.48967	6609
5.49033	6605
5.49100	6601
5.49167	6597
5.49233	6593
5.49300	6589
5.49367	6585
5.49433	6581
5.49500	6578
5.49567	6574
5.49633	6570
5.49700	6566
5.49767	6562
5.49833	6558
5.49900	6554
5.49967	6550
5.50033	6547
5.50100	6543
5.50167	6539
5.50233	6535
5.50300	6531
5.50367	6527
5.50433	6523
5.50500	6520
5.50567	6516
5.50633	6512
5.50700	6508
5.50767	6505
5.50833	6501
5.50900	6497
5.50967	6494
5.51033	6490
5.51100	6487
5.51167	6484
5.51233	6480
5.51300	6477
5.51367	6474
5.51433	6470
5.51500	6467
5.51567	6464
5.51633	6461
5.51700	6458
5.51767	6455
5.51833	6451
5.51900	6448
5.51967	6445
5.52033	6442
5.52100	6439
5.52167	6436
5.52233	6433
5.52300	6430
5.52367	6427
5.52433	6424
5.52500	6422
5.52567	6419
5.52633	6416
5.52700	6413
5.52767	6410
5.52833	6408
5.52900	6405
5.52967	6403
5.53033	6400
5.53100	6397
5.53167	6395
5.53233	6392
5.53300	6390
5.53367	6387
5.53433	6384
5.53500	6382
5.53567	6379
5.53633	6377
5.53700	6374
5.53767	6372
5.53833	6369
5.53900	6367
5.53967	6365
5.54033	6362
5.54100	6360
5.54167	6357
5.54233	6355
5.54300	6353
5.54367	6351
5.54433	6348
5.54500	6346
5.54567	6344
5.54633	6342
5.54700	6340
5.54767	6338
5.54833	6335
5.54900	6333
5.54967	6331
5.55033	6329
5.55100	6327
5.55167	6325
5.55233	6323
5.55300	6320
5.55367	6318
5.55433	6316
5.55500	6314
5.55567	6312
5.55633	6310
5.55700	6308
5.55767	6305
5.55833	6303
5.55900	6301
5.55967	6299
5.56033	6297
5.56100	6295
5.56167	6293
5.56233	6290
5.56300	6288
5.56367	6286
5.56433	6284
5.56500	6282
5.56567	6279
5.56633	6277
5.56700	6275
5.56767	6273
5.56833	6271
5.56900	6268
5.56967	6266
5.57033	6264
5.57100	6262
5.57167	6260
5.57233	6258
5.57300	6256
5.57367	6254
5.57433	6251
5.57500	6249
5.57567	6247
5.57633	6245
5.57700	6243
5.57767	6241
5.57833	6239
5.57900	6237
5.57967	6235
5.58033	6233
5.58100	6231
5.58167	6229
5.58233	6228
5.58300	6226
5.58367	6224
5.58433	6222
5.58500	6220
5.58567	6218
5.58633	6216
5.58700	6214
5.58767	6212
5.58833	6211
5.58900	6209
5.58967	6207
5.59033	6205
5.59100	6203
5.59167	6201
5.59233	6199
5.59300	6197
5.59367	6195
5.59433	6194
5.59500	6192
5.59567	6190
5.59633	6188
5.59700	6186
5.59767	6184
5.59833	6183
5.59900	6181
5.59967	6179
5.60033	6178
5.60100	6176
5.60167	6174
5.60233	6172
5.60300	6171
5.60367	6169
5.60433	6167
5.60500	6165
5.60567	6164
5.60633	6162
5.60700	6160
5.60767	6159
5.60833	6157
5.60900	6155
5.60967	6154
5.61033	6152
5.61100	6150
5.61167	6149
5.61233	6147
5.61300	6145
5.61367	6144
5.61433	6142
5.61500	6141
5.61567	6139
5.61633	6137
5.61700	6136
5.61767	6134
5.61833	6132
5.61900	6131
5.61967	6129
5.62033	6127
5.62100	6126
5.62167	6124
5.62233	6123
5.62300	6121
5.62367	6119
5.62433	6118
5.62500	6116
5.62567	6115
5.62633	6113
5.62700	6112
5.62767	6110
5.62833	6109
5.62900	6107
5.62967	6105
5.63033	6104
5.63100	6102
5.63167	6100
5.63233	6099
5.63300	6097
5.63367	6096
5.63433	6094
5.63500	6092
5.63567	6091
5.63633	6089
5.63700	6087
5.63767	6086
5.63833	6084
5.63900	6082
5.63967	6080
5.64033	6078
5.64100	6077
5.64167	6075
5.64233	6073
5.64300	6071
5.64367	6069
5.64433	6067
5.64500	6065
5.64567	6063
5.64633	6061
5.64700	6059
5.64767	6056
5.64833	6054
5.64900	6052
5.64967	6050
5.65033	6048
5.65100	6045
5.65167	6043
5.65233	6041
5.65300	6039
5.65367	6037
5.65433	6035
5.65500	6032
5.65567	6030
5.65633	6028
5.65700	6026
5.65767	6024
5.65833	6022
5.65900	6019
5.65967	6017
5.66033	6015
5.66100	6013
5.66167	6011
5.66233	6008
5.66300	6006
5.66367	6004
5.66433	6002
5.66500	6000
5.66567	5998
5.66633	5996
5.66700	5994
5.66767	5992
5.66833	5990
5.66900	5988
5.66967	5986
5.67033	5984
5.67100	5982
5.67167	5980
5.67233	5978
5.67300	5976
5.67367	5974
5.67433	5972
5.67500	5970
5.67567	5969
5.67633	5967
5.67700	5965
5.67767	5963
5.67833	5961
5.67900	5959
5.67967	5958
5.68033	5956
5.68100	5954
5.68167	5952
5.68233	5950
5.68300	5949
5.68367	5947
5.68433	5945
5.68500	5944
5.68567	5942
5.68633	5940
5.68700	5939
5.68767	5937
5.68833	5936
5.68900	5934
5.68967	5933
5.69033	5932
5.69100	5930
5.69167	5929
5.69233	5927
5.69300	5926
5.69367	5924
5.69433	5923
5.69500	5922
5.69567	5920
5.69633	5919
5.69700	5918
5.69767	5916
5.69833	5915
5.69900	5914
5.69967	5912
5.70033	5911
5.70100	5910
5.70167	5908
5.70233	5907
5.70300	5906
5.70367	5905
5.70433	5903
5.70500	5902
5.70567	5901
5.70633	5899
5.70700	5898
5.70767	5897
5.70833	5895
5.70900	5894
5.70967	5893
5.71033	5891
5.71100	5890
5.71167	5889
5.71233	5887
5.71300	5886
5.71367	5885
5.71433	5883
5.71500	5882
5.71567	5880
5.71633	5879
5.71700	5878
5.71767	5876
5.71833	5875
5.71900	5874
5.71967	5872
5.72033	5871
5.72100	5870
5.72167	5868
5.72233	5867
5.72300	5866
5.72367	5865
5.72433	5864
5.72500	5862
5.72567	5861
5.72633	5860
5.72700	5859
5.72767	5858
5.72833	5857
5.72900	5856
5.72967	5855
5.73033	5854
5.73100	5853
5.73167	5852
5.73233	5851
5.73300	5850
5.73367	5849
5.73433	5849
5.73500	5848
5.73567	5847
5.73633	5846
5.73700	5845
5.73767	5845
5.73833	5844
5.73900	5843
5.73967	5842
5.74033	5841
5.74100	5840
5.74167	5839
5.74233	5839
5.74300	5838
5.74367	5837
5.74433	5836
5.74500	5835
5.74567	5834
5.74633	5833
5.74700	5832
5.74767	5831
5.74833	5830
5.74900	5829
5.74967	5828
5.75033	5827
5.75100	5826
5.75167	5826
5.75233	5825
5.75300	5824
5.75367	5823
5.75433	5822
5.75500	5821
5.75567	5820
5.75633	5820
5.75700	5819
5.75767	5818
5.75833	5817
5.75900	5816
5.75967	5816
5.76033	5815
5.76100	5814
5.76167	5814
5.76233	5813
5.76300	5812
5.76367	5812
5.76433	5811
5.76500	5811
5.76567	5810
5.76633	5810
5.76700	5809
5.76767	5809
5.76833	5808
5.76900	5808
5.76967	5807
5.77033	5807
5.77100	5807
5.77167	5806
5.77233	5806
5.77300	5805
5.77367	5805
5.77433	5805
5.77500	5805
5.77567	5804
5.77633	5804
5.77700	5804
5.77767	5804
5.77833	5803
5.77900	5803
5.77967	5803
5.78033	5803
5.78100	5802
5.78167	5802
5.78233	5802
5.78300	5802
5.78367	5802
5.78433	5801
5.78500	5801
5.78567	5801
5.78633	5800
5.78700	5800
5.78767	5800
5.78833	5800
5.78900	5799
5.78967	5799
5.79033	5799
5.79100	5799
5.79167	5798
5.79233	5798
5.79300	5798
5.79367	5798
5.79433	5797
5.79500	5797
5.79567	5797
5.79633	5796
5.79700	5796
5.79767	5796
5.79833	5796
5.79900	5795
5.79967	5795
5.80033	5795
5.80100	5795
5.80167	5794
5.80233	5794
5.80300	5794
5.80367	5793
5.80433	5793
5.80500	5793
5.80567	5792
5.80633	5792
5.80700	5792
5.80767	5792
5.80833	5791
5.80900	5791
5.80967	5791
5.81033	5790
5.81100	5790
5.81167	5790
5.81233	5789
5.81300	5789
5.81367	5789
5.81433	5788
5.81500	5788
5.81567	5787
5.81633	5787
5.81700	5787
5.81767	5786
5.81833	5786
5.81900	5785
5.81967	5785
5.82033	5785
5.82100	5784
5.82167	5784
5.82233	5783
5.82300	5783
5.82367	5782
5.82433	5782
5.82500	5782
5.82567	5781
5.82633	5781
5.82700	5780
5.82767	5780
5.82833	5779
5.82900	5779
5.82967	5778
5.83033	5778
5.83100	5778
5.83167	5777
5.83233	5777
5.83300	5777
5.83367	5776
5.83433	5776
5.83500	5775
5.83567	5775
5.83633	5775
5.83700	5774
5.83767	5774
5.83833	5773
5.83900	5773
5.83967	5773
5.84033	5773
5.84100	5772
5.84167	5772
5.84233	5772
5.84300	5771
5.84367	5771
5.84433	5771
5.84500	5770
5.84567	5770
5.84633	5770
5.84700	5769
5.84767	5769
5.84833	5768
5.84900	5768
5.84967	5767
5.85033	5767
5.85100	5766
5.85167	5766
5.85233	5765
5.85300	5765
5.85367	5764
5.85433	5763
5.85500	5763
5.85567	5762
5.85633	5762
5.85700	5761
5.85767	5761
5.85833	5760
5.85900	5760
5.85967	5759
5.86033	5759
5.86100	5758
5.86167	5758
5.86233	5757
5.86300	5757
5.86367	5756
5.86433	5756
5.86500	5755
5.86567	5755
5.86633	5754
5.86700	5754
5.86767	5753
5.86833	5753
5.86900	5752
5.86967	5752
5.87033	5751
5.87100	5751
5.87167	5750
5.87233	5750
5.87300	5749
5.87367	5748
5.87433	5747
5.87500	5747
5.87567	5746
5.87633	5745
5.87700	5745
5.87767	5744
5.87833	5743
5.87900	5742
5.87967	5741
5.88033	5740
5.88100	5739
5.88167	5738
5.88233	5738
5.88300	5737
5.88367	5736
5.88433	5735
5.88500	5734
5.88567	5733
5.88633	5732
5.88700	5731
5.88767	5730
5.88833	5729
5.88900	5728
5.88967	5727
5.89033	5725
5.89100	5724
5.89167	5723
5.89233	5722
5.89300	5720
5.89367	5719
5.89433	5718
5.89500	5717
5.89567	5715
5.89633	5714
5.89700	5713
5.89767	5711
5.89833	5710
5.89900	5709
5.89967	5707
5.90033	5706
5.90100	5704
5.90167	5703
5.90233	5702
5.90300	5700
5.90367	5699
5.90433	5698
5.90500	5696
5.90567	5695
5.90633	5693
5.90700	5692
5.90767	5691
5.90833	5689
5.90900	5688
5.90967	5687
5.91033	5685
5.91100	5684
5.91167	5682
5.91233	5681
5.91300	5679
5.91367	5678
5.91433	5677
5.91500	5675
5.91567	5674
5.91633	5673
5.91700	5671
5.91767	5670
5.91833	5668
5.91900	5667
5.91967	5666
5.92033	5665
5.92100	5663
5.92167	5662
5.92233	5661
5.92300	5660
5.92367	5659
5.92433	5657
5.92500	5656
5.92567	5655
5.92633	5654
5.92700	5653
5.92767	5651
5.92833	5650
5.92900	5649
5.92967	5648
5.93033	5647
5.93100	5646
5.93167	5644
5.93233	5643
5.93300	5642
5.93367	5641
5.93433	5640
5.93500	5640
5.93567	5639
5.93633	5638
5.93700	5637
5.93767	5636
5.93833	5635
5.93900	5634
5.93967	5634
5.94033	5633
5.94100	5632
5.94167	5631
5.94233	5631
5.94300	5630
5.94367	5629
5.94433	5629
5.94500	5628
5.94567	5627
5.94633	5627
5.94700	5626
5.94767	5625
5.94833	5625
5.94900	5624
5.94967	5623
5.95033	5623
5.95100	5622
5.95167	5622
5.95233	5621
5.95300	5620
5.95367	5620
5.95433	5619
5.95500	5618
5.95567	5618
5.95633	5617
5.95700	5616
5.95767	5615
5.95833	5615
5.95900	5614
5.95967	5613
5.96033	5612
5.96100	5612
5.96167	5611
5.96233	5610
5.96300	5609
5.96367	5608
5.96433	5607
5.96500	5606
5.96567	5606
5.96633	5605
5.96700	5604
5.96767	5603
5.96833	5602
5.96900	5601
5.96967	5600
5.97033	5599
5.97100	5599
5.97167	5598
5.97233	5597
5.97300	5596
5.97367	5595
5.97433	5594
5.97500	5593
5.97567	5593
5.97633	5592
5.97700	5591
5.97767	5590
5.97833	5589
5.97900	5589
5.97967	5588
5.98033	5587
5.98100	5586
5.98167	5585
5.98233	5584
5.98300	5583
5.98367	5582
5.98433	5581
5.98500	5581
5.98567	5580
5.98633	5579
5.98700	5578
5.98767	5577
5.98833	5576
5.98900	5575
5.98967	5574
5.99033	5573
5.99100	5573
5.99167	5572
5.99233	5571
5.99300	5570
5.99367	5569
5.99433	5568
5.99500	5568
5.99567	5567
5.99633	5566
5.99700	5565
5.99767	5564
5.99833	5563
5.99900	5563
5.99967	5562
6.00033	5561
6.00100	5560
6.00167	5559
6.00233	5558
6.00300	5558
6.00367	5557
6.00433	5556
6.00500	5555
6.00567	5554
6.00633	5553
6.00700	5553
6.00767	5552
6.00833	5551
6.00900	5550
6.00967	5549
6.01033	5549
6.01100	5548
6.01167	5547
6.01233	5546
6.01300	5546
6.01367	5545
6.01433	5544
6.01500	5544
6.01567	5543
6.01633	5542
6.01700	5542
6.01767	5541
6.01833	5540
6.01900	5540
6.01967	5539
6.02033	5538
6.02100	5538
6.02167	5537
6.02233	5536
6.02300	5536
6.02367	5535
6.02433	5534
6.02500	5533
6.02567	5533
6.02633	5532
6.02700	5531
6.02767	5530
6.02833	5530
6.02900	5529
6.02967	5528
6.03033	5527
6.03100	5526
6.03167	5526
6.03233	5525
6.03300	5524
6.03367	5523
6.03433	5522
6.03500	5522
6.03567	5521
6.03633	5520
6.03700	5519
6.03767	5518
6.03833	5518
6.03900	5517
6.03967	5516
6.04033	5515
6.04100	5514
6.04167	5514
6.04233	5513
6.04300	5512
6.04367	5511
6.04433	5511
6.04500	5510
6.04567	5509
6.04633	5508
6.04700	5508
6.04767	5507
6.04833	5506
6.04900	5505
6.04967	5505
6.05033	5504
6.05100	5503
6.05167	5502
6.05233	5502
6.05300	5501
6.05367	5500
6.05433	5500
6.05500	5499
6.05567	5498
6.05633	5497
6.05700	5496
6.05767	5496
6.05833	5495
6.05900	5494
6.05967	5493
6.06033	5493
6.06100	5492
6.06167	5491
6.06233	5490
6.06300	5489
6.06367	5488
6.06433	5487
6.06500	5486
6.06567	5485
6.06633	5484
6.06700	5484
6.06767	5483
6.06833	5482
6.06900	5481
6.06967	5480
6.07033	5479
6.07100	5478
6.07167	5477
6.07233	5477
6.07300	5476
6.07367	5475
6.07433	5474
6.07500	5473
6.07567	5472
6.07633	5471
6.07700	5471
6.07767	5470
6.07833	5469
6.07900	5468
6.07967	5467
6.08033	5467
6.08100	5466
6.08167	5465
6.08233	5465
6.08300	5464
6.08367	5463
6.08433	5463
6.08500	5462
6.08567	5461
6.08633	5461
6.08700	5460
6.08767	5460
6.08833	5459
6.08900	5458
6.08967	5457
6.09033	5457
6.09100	5456
6.09167	5455
6.09233	5455
6.09300	5454
6.09367	5453
6.09433	5453
6.09500	5452
6.09567	5452
6.09633	5451
6.09700	5451
6.09767	5450
6.09833	5450
6.09900	5449
6.09967	5449
6.10033	5448
6.10100	5448
6.10167	5447
6.10233	5447
6.10300	5447
6.10367	5446
6.10433	5446
6.10500	5445
6.10567	5445
6.10633	5444
6.10700	5444
6.10767	5443
6.10833	5443
6.10900	5442
6.10967	5442
6.11033	5441
6.11100	5440
6.11167	5440
6.11233	5439
6.11300	5439
6.11367	5438
6.11433	5437
6.11500	5437
6.11567	5436
6.11633	5435
6.11700	5435
6.11767	5434
6.11833	5433
6.11900	5433
6.11967	5432
6.12033	5431
6.12100	5431
6.12167	5430
6.12233	5429
6.12300	5429
6.12367	5428
6.12433	5427
6.12500	5427
6.12567	5426
6.12633	5426
6.12700	5425
6.12767	5425
6.12833	5424
6.12900	5423
6.12967	5423
6.13033	5422
6.13100	5421
6.13167	5421
6.13233	5420
6.13300	5419
6.13367	5418
6.13433	5418
6.13500	5417
6.13567	5416
6.13633	5416
6.13700	5415
6.13767	5414
6.13833	5414
6.13900	5413
6.13967	5412
6.14033	5412
6.14100	5411
6.14167	5410
6.14233	5410
6.14300	5409
6.14367	5408
6.14433	5407
6.14500	5407
6.14567	5406
6.14633	5405
6.14700	5405
6.14767	5404
6.14833	5403
6.14900	5403
6.14967	5402
6.15033	5401
6.15100	5401
6.15167	5400
6.15233	5399
6.15300	5399
6.15367	5398
6.15433	5398
6.15500	5397
6.15567	5397
6.15633	5396
6.15700	5396
6.15767	5395
6.15833	5394
6.15900	5394
6.15967	5393
6.16033	5393
6.16100	5392
6.16167	5392
6.16233	5391
6.16300	5391
6.16367	5390
6.16433	5390
6.16500	5389
6.16567	5389
6.16633	5388
6.16700	5388
6.16767	5387
6.16833	5387
6.16900	5386
6.16967	5386
6.17033	5385
6.17100	5385
6.17167	5384
6.17233	5384
6.17300	5383
6.17367	5383
6.17433	5383
6.17500	5382
6.17567	5382
6.17633	5381
6.17700	5381
6.17767	5381
6.17833	5380
6.17900	5380
6.17967	5380
6.18033	5379
6.18100	5379
6.18167	5378
6.18233	5378
6.18300	5378
6.18367	5378
6.18433	5377
6.18500	5377
6.18567	5377
6.18633	5376
6.18700	5376
6.18767	5376
6.18833	5376
6.18900	5375
6.18967	5375
6.19033	5375
6.19100	5375
6.19167	5374
6.19233	5374
6.19300	5374
6.19367	5374
6.19433	5374
6.19500	5374
6.19567	5374
6.19633	5374
6.19700	5374
6.19767	5374
6.19833	5374
6.19900	5374
6.19967	5374
6.20033	5375
6.20100	5375
6.20167	5375
6.20233	5375
6.20300	5375
6.20367	5375
6.20433	5376
6.20500	5376
6.20567	5376
6.20633	5376
6.20700	5376
6.20767	5376
6.20833	5376
6.20900	5377
6.20967	5377
6.21033	5377
6.21100	5377
6.21167	5377
6.21233	5378
6.21300	5378
6.21367	5378
6.21433	5378
6.21500	5379
6.21567	5379
6.21633	5379
6.21700	5379
6.21767	5380
6.21833	5380
6.21900	5381
6.21967	5381
6.22033	5381
6.22100	5382
6.22167	5382
6.22233	5382
6.22300	5383
6.22367	5383
6.22433	5383
6.22500	5384
6.22567	5384
6.22633	5384
6.22700	5385
6.22767	5385
6.22833	5385
6.22900	5386
6.22967	5386
6.23033	5387
6.23100	5387
6.23167	5387
6.23233	5388
6.23300	5388
6.23367	5388
6.23433	5389
6.23500	5389
6.23567	5389
6.23633	5390
6.23700	5390
6.23767	5390
6.23833	5390
6.23900	5391
6.23967	5391
6.24033	5391
6.24100	5391
6.24167	5392
6.24233	5392
6.24300	5392
6.24367	5393
6.24433	5393
6.24500	5393
6.24567	5393
6.24633	5394
6.24700	5394
6.24767	5394
6.24833	5395
6.24900	5395
6.24967	5396
6.25033	5396
6.25100	5396
6.25167	5397
6.25233	5397
6.25300	5397
6.25367	5398
6.25433	5398
6.25500	5398
6.25567	5398
6.25633	5399
6.25700	5399
6.25767	5400
6.25833	5400
6.25900	5400
6.25967	5401
6.26033	5401
6.26100	5402
6.26167	5402
6.26233	5402
6.26300	5403
6.26367	5403
6.26433	5403
6.26500	5404
6.26567	5404
6.26633	5404
6.26700	5405
6.26767	5405
6.26833	5405
6.26900	5406
6.26967	5406
6.27033	5406
6.27100	5406
6.27167	5407
6.27233	5407
6.27300	5407
6.27367	5407
6.27433	5408
6.27500	5408
6.27567	5408
6.27633	5408
6.27700	5408
6.27767	5409
6.27833	5409
6.27900	5409
6.27967	5409
6.28033	5409
6.28100	5409
6.28167	5409
6.28233	5409
6.28300	5409
6.28367	5409
6.28433	5409
6.28500	5409
6.28567	5409
6.28633	5408
6.28700	5408
6.28767	5408
6.28833	5408
6.28900	5408
6.28967	5407
6.29033	5407
6.29100	5407
6.29167	5407
6.29233	5406
6.29300	5406
6.29367	5406
6.29433	5405
6.29500	5405
6.29567	5404
6.29633	5404
6.29700	5404
6.29767	5403
6.29833	5403
6.29900	5402
6.29967	5402
6.30033	5401
6.30100	5401
6.30167	5400
6.30233	5400
6.30300	5399
6.30367	5399
6.30433	5398
6.30500	5398
6.30567	5397
6.30633	5397
6.30700	5396
6.30767	5396
6.30833	5395
6.30900	5395
6.30967	5394
6.31033	5394
6.31100	5393
6.31167	5393
6.31233	5392
6.31300	5392
6.31367	5391
6.31433	5390
6.31500	5390
6.31567	5389
6.31633	5388
6.31700	5388
6.31767	5387
6.31833	5387
6.31900	5386
6.31967	5385
6.32033	5384
6.32100	5384
6.32167	5383
6.32233	5382
6.32300	5382
6.32367	5381
6.32433	5380
6.32500	5380
6.32567	5379
6.32633	5378
6.32700	5377
6.32767	5377
6.32833	5376
6.32900	5375
6.32967	5375
6.33033	5374
6.33100	5373
6.33167	5372
6.33233	5371
6.33300	5371
6.33367	5370
6.33433	5369
6.33500	5368
6.33567	5367
6.33633	5367
6.33700	5366
6.33767	5365
6.33833	5364
6.33900	5363
6.33967	5363
6.34033	5362
6.34100	5361
6.34167	5360
6.34233	5359
6.34300	5359
6.34367	5358
6.34433	5357
6.34500	5356
6.34567	5356
6.34633	5355
6.34700	5354
6.34767	5353
6.34833	5353
6.34900	5352
6.34967	5351
6.35033	5350
6.35100	5350
6.35167	5349
6.35233	5348
6.35300	5347
6.35367	5347
6.35433	5346
6.35500	5345
6.35567	5344
6.35633	5344
6.35700	5343
6.35767	5342
6.35833	5342
6.35900	5341
6.35967	5340
6.36033	5339
6.36100	5339
6.36167	5338
6.36233	5337
6.36300	5337
6.36367	5336
6.36433	5336
6.36500	5335
6.36567	5335
6.36633	5334
6.36700	5334
6.36767	5333
6.36833	5333
6.36900	5332
6.36967	5332
6.37033	5331
6.37100	5331
6.37167	5330
6.37233	5330
6.37300	5329
6.37367	5329
6.37433	5328
6.37500	5328
6.37567	5327
6.37633	5327
6.37700	5326
6.37767	5326
6.37833	5325
6.37900	5325
6.37967	5324
6.38033	5324
6.38100	5323
6.38167	5323
6.38233	5323
6.38300	5322
6.38367	5322
6.38433	5321
6.38500	5321
6.38567	5320
6.38633	5320
6.38700	5320
6.38767	5319
6.38833	5319
6.38900	5318
6.38967	5318
6.39033	5318
6.39100	5317
6.39167	5317
6.39233	5317
6.39300	5316
6.39367	5316
6.39433	5316
6.39500	5316
6.39567	5315
6.39633	5315
6.39700	5315
6.39767	5315
6.39833	5314
6.39900	5314
6.39967	5314

