[Header]
Application Name	LabSolutions
Version	5.73
Data File Name	C:\LabSolutions\Data\Project1\stephen\2016-01-04\69.gcd
Output Date	1/5/2016
Output Time	4:51:42 PM

[Configuration]
Instrument Name	WEISSTA-PC-Instrument1
Instrument #	1
Line #	1
# of Detectors	1
Detector ID	DET#2
Detector Name	DFID1
# of Channels	1

[Chromatogram (Ch1)]
Interval(msec)	40
# of Points	9600
Start Time(min)	0.001
End Time(min)	6.400
R.Time (min)	Intensity
0.00050	-3
0.00117	-3
0.00183	-3
0.00250	-3
0.00317	-3
0.00383	-3
0.00450	-3
0.00517	-3
0.00583	-3
0.00650	-3
0.00717	-2
0.00783	-2
0.00850	-2
0.00917	-2
0.00983	-1
0.01050	-1
0.01117	-0
0.01183	0
0.01250	0
0.01317	1
0.01383	1
0.01450	2
0.01517	2
0.01583	3
0.01650	3
0.01717	4
0.01783	4
0.01850	5
0.01917	5
0.01983	5
0.02050	6
0.02117	6
0.02183	6
0.02250	6
0.02317	6
0.02383	6
0.02450	5
0.02517	5
0.02583	4
0.02650	4
0.02717	3
0.02783	2
0.02850	1
0.02917	0
0.02983	-1
0.03050	-2
0.03117	-3
0.03183	-4
0.03250	-5
0.03317	-6
0.03383	-7
0.03450	-8
0.03517	-9
0.03583	-10
0.03650	-11
0.03717	-12
0.03783	-13
0.03850	-14
0.03917	-15
0.03983	-16
0.04050	-17
0.04117	-18
0.04183	-18
0.04250	-19
0.04317	-20
0.04383	-21
0.04450	-21
0.04517	-22
0.04583	-22
0.04650	-23
0.04717	-23
0.04783	-24
0.04850	-24
0.04917	-24
0.04983	-25
0.05050	-25
0.05117	-25
0.05183	-25
0.05250	-25
0.05317	-26
0.05383	-26
0.05450	-26
0.05517	-26
0.05583	-26
0.05650	-26
0.05717	-26
0.05783	-26
0.05850	-26
0.05917	-26
0.05983	-26
0.06050	-26
0.06117	-26
0.06183	-26
0.06250	-26
0.06317	-26
0.06383	-26
0.06450	-26
0.06517	-26
0.06583	-26
0.06650	-26
0.06717	-26
0.06783	-26
0.06850	-26
0.06917	-26
0.06983	-26
0.07050	-26
0.07117	-26
0.07183	-26
0.07250	-26
0.07317	-26
0.07383	-26
0.07450	-26
0.07517	-26
0.07583	-26
0.07650	-26
0.07717	-26
0.07783	-26
0.07850	-26
0.07917	-26
0.07983	-26
0.08050	-26
0.08117	-26
0.08183	-26
0.08250	-26
0.08317	-26
0.08383	-26
0.08450	-26
0.08517	-26
0.08583	-26
0.08650	-26
0.08717	-26
0.08783	-25
0.08850	-23
0.08917	-18
0.08983	-10
0.09050	-0
0.09117	15
0.09183	36
0.09250	63
0.09317	97
0.09383	143
0.09450	203
0.09517	283
0.09583	370
0.09650	459
0.09717	551
0.09783	641
0.09850	731
0.09917	833
0.09983	952
0.10050	1077
0.10117	1228
0.10183	1403
0.10250	1584
0.10317	1762
0.10383	1939
0.10450	2117
0.10517	2294
0.10583	2472
0.10650	2671
0.10717	2880
0.10783	3090
0.10850	3299
0.10917	3502
0.10983	3704
0.11050	3904
0.11117	4109
0.11183	4309
0.11250	4502
0.11317	4685
0.11383	4855
0.11450	5015
0.11517	5172
0.11583	5339
0.11650	5520
0.11717	5694
0.11783	5859
0.11850	6025
0.11917	6183
0.11983	6331
0.12050	6467
0.12117	6598
0.12183	6730
0.12250	6860
0.12317	6986
0.12383	7111
0.12450	7227
0.12517	7336
0.12583	7448
0.12650	7569
0.12717	7676
0.12783	7771
0.12850	7863
0.12917	7942
0.12983	8007
0.13050	8059
0.13117	8100
0.13183	8140
0.13250	8223
0.13317	8469
0.13383	9160
0.13450	10846
0.13517	14647
0.13583	22621
0.13650	38571
0.13717	68912
0.13783	124537
0.13850	222313
0.13917	387099
0.13983	648707
0.14050	1040211
0.14117	1593880
0.14183	2340256
0.14250	3305086
0.14317	4508990
0.14383	5966255
0.14450	7685427
0.14517	9670247
0.14583	11920876
0.14650	14435297
0.14717	17210502
0.14783	20243234
0.14850	23528146
0.14917	27054992
0.14983	30808161
0.15050	34776078
0.15117	38957407
0.15183	43352560
0.15250	47953538
0.15317	52744951
0.15383	57706635
0.15450	62816012
0.15517	68050034
0.15583	73386119
0.15650	78803193
0.15717	84282168
0.15783	89805924
0.15850	95358181
0.15917	100924213
0.15983	106490547
0.16050	112044454
0.16117	117573906
0.16183	123067260
0.16250	128513724
0.16317	133903314
0.16383	139226891
0.16450	144475999
0.16517	149643067
0.16583	154720999
0.16650	159703536
0.16717	164584659
0.16783	169358763
0.16850	174020097
0.16917	178563369
0.16983	182983548
0.17050	187276330
0.17117	191437713
0.17183	195464120
0.17250	199352024
0.17317	203097995
0.17383	206698601
0.17450	210150363
0.17517	213449378
0.17583	216591042
0.17650	219570624
0.17717	222383079
0.17783	225022733
0.17850	227483508
0.17917	229759805
0.17983	231846496
0.18050	233739673
0.18117	235436109
0.18183	236933974
0.18250	238232222
0.18317	239331087
0.18383	240231512
0.18450	240935644
0.18517	241445992
0.18583	241766000
0.18650	241899550
0.18717	241851224
0.18783	241625932
0.18850	241228985
0.18917	240665879
0.18983	239942415
0.19050	239064629
0.19117	238038638
0.19183	236870597
0.19250	235566744
0.19317	234133557
0.19383	232577588
0.19450	230905522
0.19517	229124023
0.19583	227239828
0.19650	225259521
0.19717	223189837
0.19783	221037835
0.19850	218810848
0.19917	216515574
0.19983	214157418
0.20050	211740485
0.20117	209268219
0.20183	206743730
0.20250	204170271
0.20317	201551175
0.20383	198889998
0.20450	196190422
0.20517	193456279
0.20583	190691507
0.20650	187900072
0.20717	185085912
0.20783	182252862
0.20850	179404643
0.20917	176544828
0.20983	173676866
0.21050	170804052
0.21117	167929556
0.21183	165056380
0.21250	162187415
0.21317	159325384
0.21383	156472893
0.21450	153632395
0.21517	150806229
0.21583	147996584
0.21650	145205531
0.21717	142434976
0.21783	139686699
0.21850	136962357
0.21917	134263496
0.21983	131591540
0.22050	128947797
0.22117	126333464
0.22183	123749627
0.22250	121197284
0.22317	118677333
0.22383	116190575
0.22450	113737715
0.22517	111319378
0.22583	108936100
0.22650	106588345
0.22717	104276500
0.22783	102000884
0.22850	99761743
0.22917	97559266
0.22983	95393568
0.23050	93264719
0.23117	91172732
0.23183	89117584
0.23250	87099206
0.23317	85117488
0.23383	83172279
0.23450	81263396
0.23517	79390607
0.23583	77553647
0.23650	75752220
0.23717	73986011
0.23783	72254678
0.23850	70557857
0.23917	68895173
0.23983	67266230
0.24050	65670614
0.24117	64107893
0.24183	62577631
0.24250	61079375
0.24317	59612674
0.24383	58177060
0.24450	56772060
0.24517	55397192
0.24583	54051971
0.24650	52735911
0.24717	51448531
0.24783	50189341
0.24850	48957849
0.24917	47753561
0.24983	46575990
0.25050	45424653
0.25117	44299067
0.25183	43198755
0.25250	42123245
0.25317	41072076
0.25383	40044788
0.25450	39040925
0.25517	38060035
0.25583	37101676
0.25650	36165412
0.25717	35250813
0.25783	34357452
0.25850	33484910
0.25917	32632774
0.25983	31800641
0.26050	30988109
0.26117	30194783
0.26183	29420276
0.26250	28664205
0.26317	27926195
0.26383	27205877
0.26450	26502885
0.26517	25816864
0.26583	25147462
0.26650	24494336
0.26717	23857145
0.26783	23235554
0.26850	22629234
0.26917	22037862
0.26983	21461118
0.27050	20898691
0.27117	20350274
0.27183	19815565
0.27250	19294269
0.27317	18786099
0.27383	18290770
0.27450	17808001
0.27517	17337519
0.27583	16879056
0.27650	16432349
0.27717	15997141
0.27783	15573180
0.27850	15160218
0.27917	14758013
0.27983	14366330
0.28050	13984938
0.28117	13613611
0.28183	13252129
0.28250	12900278
0.28317	12557851
0.28383	12224645
0.28450	11900463
0.28517	11585116
0.28583	11278418
0.28650	10980189
0.28717	10690254
0.28783	10408438
0.28850	10134571
0.28917	9868481
0.28983	9610004
0.29050	9358972
0.29117	9115222
0.29183	8878592
0.29250	8648923
0.29317	8426058
0.29383	8209850
0.29450	8000158
0.29517	7796849
0.29583	7599796
0.29650	7408886
0.29717	7224015
0.29783	7045094
0.29850	6872048
0.29917	6704816
0.29983	6543346
0.30050	6387595
0.30117	6237521
0.30183	6093071
0.30250	5954192
0.30317	5820814
0.30383	5692859
0.30450	5570235
0.30517	5452841
0.30583	5340561
0.30650	5233274
0.30717	5130850
0.30783	5033155
0.30850	4940053
0.30917	4851398
0.30983	4767043
0.31050	4686835
0.31117	4610613
0.31183	4538215
0.31250	4469474
0.31317	4404228
0.31383	4342314
0.31450	4283565
0.31517	4227822
0.31583	4174931
0.31650	4124749
0.31717	4077134
0.31783	4031954
0.31850	3989088
0.31917	3948418
0.31983	3909837
0.32050	3873238
0.32117	3838519
0.32183	3805583
0.32250	3774335
0.32317	3744676
0.32383	3716499
0.32450	3689696
0.32517	3664160
0.32583	3639780
0.32650	3616446
0.32717	3594048
0.32783	3572476
0.32850	3551628
0.32917	3531399
0.32983	3511681
0.33050	3492354
0.33117	3473296
0.33183	3454374
0.33250	3435459
0.33317	3416415
0.33383	3397111
0.33450	3377418
0.33517	3357213
0.33583	3336381
0.33650	3314814
0.33717	3292411
0.33783	3269084
0.33850	3244755
0.33917	3219362
0.33983	3192855
0.34050	3165202
0.34117	3136389
0.34183	3106415
0.34250	3075298
0.34317	3043070
0.34383	3009774
0.34450	2975466
0.34517	2940210
0.34583	2904075
0.34650	2867134
0.34717	2829463
0.34783	2791140
0.34850	2752241
0.34917	2712841
0.34983	2673013
0.35050	2632828
0.35117	2592355
0.35183	2551659
0.35250	2510802
0.35317	2469844
0.35383	2428841
0.35450	2387847
0.35517	2346913
0.35583	2306084
0.35650	2265406
0.35717	2224918
0.35783	2184660
0.35850	2144665
0.35917	2104967
0.35983	2065596
0.36050	2026579
0.36117	1987940
0.36183	1949703
0.36250	1911888
0.36317	1874513
0.36383	1837595
0.36450	1801149
0.36517	1765187
0.36583	1729722
0.36650	1694763
0.36717	1660318
0.36783	1626397
0.36850	1593006
0.36917	1560151
0.36983	1527839
0.37050	1496073
0.37117	1464855
0.37183	1434187
0.37250	1404070
0.37317	1374502
0.37383	1345484
0.37450	1317012
0.37517	1289085
0.37583	1261699
0.37650	1234851
0.37717	1208537
0.37783	1182753
0.37850	1157493
0.37917	1132753
0.37983	1108526
0.38050	1084808
0.38117	1061592
0.38183	1038871
0.38250	1016638
0.38317	994885
0.38383	973604
0.38450	952790
0.38517	932437
0.38583	912540
0.38650	893095
0.38717	874095
0.38783	855535
0.38850	837410
0.38917	819715
0.38983	802442
0.39050	785587
0.39117	769146
0.39183	753112
0.39250	737482
0.39317	722252
0.39383	707421
0.39450	692988
0.39517	678951
0.39583	665310
0.39650	652060
0.39717	639198
0.39783	626717
0.39850	614605
0.39917	602855
0.39983	591457
0.40050	580403
0.40117	569681
0.40183	559283
0.40250	549198
0.40317	539416
0.40383	529928
0.40450	520723
0.40517	511793
0.40583	503128
0.40650	494718
0.40717	486555
0.40783	478631
0.40850	470937
0.40917	463464
0.40983	456206
0.41050	449155
0.41117	442304
0.41183	435646
0.41250	429175
0.41317	422883
0.41383	416766
0.41450	410817
0.41517	405030
0.41583	399401
0.41650	393924
0.41717	388594
0.41783	383405
0.41850	378355
0.41917	373436
0.41983	368646
0.42050	363979
0.42117	359432
0.42183	355000
0.42250	350679
0.42317	346465
0.42383	342356
0.42450	338347
0.42517	334435
0.42583	330616
0.42650	326888
0.42717	323246
0.42783	319689
0.42850	316213
0.42917	312815
0.42983	309493
0.43050	306245
0.43117	303067
0.43183	299958
0.43250	296915
0.43317	293936
0.43383	291018
0.43450	288159
0.43517	285359
0.43583	282614
0.43650	279922
0.43717	277283
0.43783	274695
0.43850	272155
0.43917	269662
0.43983	267214
0.44050	264811
0.44117	262451
0.44183	260132
0.44250	257854
0.44317	255614
0.44383	253412
0.44450	251246
0.44517	249116
0.44583	247020
0.44650	244958
0.44717	242928
0.44783	240930
0.44850	238963
0.44917	237025
0.44983	235116
0.45050	233235
0.45117	231380
0.45183	229552
0.45250	227749
0.45317	225971
0.45383	224216
0.45450	222485
0.45517	220775
0.45583	219088
0.45650	217421
0.45717	215776
0.45783	214150
0.45850	212543
0.45917	210955
0.45983	209386
0.46050	207834
0.46117	206301
0.46183	204784
0.46250	203284
0.46317	201801
0.46383	200334
0.46450	198883
0.46517	197449
0.46583	196029
0.46650	194625
0.46717	193237
0.46783	191864
0.46850	190506
0.46917	189163
0.46983	187834
0.47050	186521
0.47117	185221
0.47183	183936
0.47250	182665
0.47317	181407
0.47383	180163
0.47450	178933
0.47517	177716
0.47583	176512
0.47650	175320
0.47717	174142
0.47783	172975
0.47850	171821
0.47917	170678
0.47983	169547
0.48050	168428
0.48117	167319
0.48183	166222
0.48250	165136
0.48317	164060
0.48383	162994
0.48450	161939
0.48517	160894
0.48583	159859
0.48650	158834
0.48717	157818
0.48783	156812
0.48850	155814
0.48917	154827
0.48983	153847
0.49050	152877
0.49117	151916
0.49183	150963
0.49250	150018
0.49317	149082
0.49383	148154
0.49450	147234
0.49517	146322
0.49583	145418
0.49650	144522
0.49717	143633
0.49783	142752
0.49850	141879
0.49917	141013
0.49983	140155
0.50050	139303
0.50117	138459
0.50183	137622
0.50250	136791
0.50317	135968
0.50383	135151
0.50450	134342
0.50517	133539
0.50583	132743
0.50650	131954
0.50717	131172
0.50783	130396
0.50850	129627
0.50917	128865
0.50983	128108
0.51050	127359
0.51117	126615
0.51183	125879
0.51250	125148
0.51317	124425
0.51383	123707
0.51450	122996
0.51517	122290
0.51583	121591
0.51650	120898
0.51717	120210
0.51783	119529
0.51850	118852
0.51917	118182
0.51983	117517
0.52050	116857
0.52117	116202
0.52183	115553
0.52250	114909
0.52317	114270
0.52383	113636
0.52450	113006
0.52517	112382
0.52583	111763
0.52650	111149
0.52717	110539
0.52783	109935
0.52850	109335
0.52917	108740
0.52983	108149
0.53050	107564
0.53117	106983
0.53183	106407
0.53250	105835
0.53317	105269
0.53383	104707
0.53450	104149
0.53517	103596
0.53583	103047
0.53650	102503
0.53717	101963
0.53783	101428
0.53850	100896
0.53917	100369
0.53983	99846
0.54050	99327
0.54117	98812
0.54183	98302
0.54250	97795
0.54317	97293
0.54383	96794
0.54450	96300
0.54517	95810
0.54583	95324
0.54650	94841
0.54717	94363
0.54783	93888
0.54850	93417
0.54917	92950
0.54983	92487
0.55050	92028
0.55117	91573
0.55183	91121
0.55250	90673
0.55317	90228
0.55383	89787
0.55450	89350
0.55517	88916
0.55583	88486
0.55650	88059
0.55717	87636
0.55783	87216
0.55850	86800
0.55917	86387
0.55983	85978
0.56050	85572
0.56117	85169
0.56183	84770
0.56250	84374
0.56317	83981
0.56383	83592
0.56450	83205
0.56517	82823
0.56583	82443
0.56650	82067
0.56717	81694
0.56783	81325
0.56850	80960
0.56917	80598
0.56983	80239
0.57050	79885
0.57117	79534
0.57183	79187
0.57250	78844
0.57317	78504
0.57383	78168
0.57450	77836
0.57517	77508
0.57583	77183
0.57650	76862
0.57717	76544
0.57783	76229
0.57850	75917
0.57917	75609
0.57983	75303
0.58050	75000
0.58117	74700
0.58183	74402
0.58250	74106
0.58317	73813
0.58383	73522
0.58450	73233
0.58517	72946
0.58583	72660
0.58650	72377
0.58717	72095
0.58783	71815
0.58850	71536
0.58917	71259
0.58983	70983
0.59050	70709
0.59117	70436
0.59183	70164
0.59250	69895
0.59317	69626
0.59383	69359
0.59450	69093
0.59517	68829
0.59583	68565
0.59650	68303
0.59717	68043
0.59783	67784
0.59850	67526
0.59917	67269
0.59983	67014
0.60050	66759
0.60117	66507
0.60183	66255
0.60250	66005
0.60317	65755
0.60383	65508
0.60450	65261
0.60517	65016
0.60583	64773
0.60650	64530
0.60717	64290
0.60783	64050
0.60850	63812
0.60917	63575
0.60983	63340
0.61050	63106
0.61117	62873
0.61183	62641
0.61250	62411
0.61317	62182
0.61383	61955
0.61450	61728
0.61517	61503
0.61583	61279
0.61650	61056
0.61717	60834
0.61783	60614
0.61850	60395
0.61917	60177
0.61983	59960
0.62050	59744
0.62117	59530
0.62183	59317
0.62250	59105
0.62317	58894
0.62383	58685
0.62450	58477
0.62517	58271
0.62583	58066
0.62650	57862
0.62717	57660
0.62783	57459
0.62850	57260
0.62917	57062
0.62983	56866
0.63050	56672
0.63117	56480
0.63183	56289
0.63250	56100
0.63317	55912
0.63383	55726
0.63450	55542
0.63517	55360
0.63583	55179
0.63650	55000
0.63717	54822
0.63783	54646
0.63850	54471
0.63917	54298
0.63983	54126
0.64050	53955
0.64117	53785
0.64183	53616
0.64250	53449
0.64317	53283
0.64383	53117
0.64450	52953
0.64517	52790
0.64583	52628
0.64650	52468
0.64717	52308
0.64783	52149
0.64850	51991
0.64917	51835
0.64983	51679
0.65050	51525
0.65117	51372
0.65183	51221
0.65250	51071
0.65317	50922
0.65383	50775
0.65450	50629
0.65517	50485
0.65583	50342
0.65650	50202
0.65717	50063
0.65783	49925
0.65850	49790
0.65917	49656
0.65983	49524
0.66050	49394
0.66117	49265
0.66183	49137
0.66250	49012
0.66317	48887
0.66383	48764
0.66450	48643
0.66517	48522
0.66583	48403
0.66650	48285
0.66717	48167
0.66783	48051
0.66850	47935
0.66917	47820
0.66983	47706
0.67050	47592
0.67117	47479
0.67183	47366
0.67250	47253
0.67317	47141
0.67383	47028
0.67450	46916
0.67517	46804
0.67583	46693
0.67650	46581
0.67717	46469
0.67783	46358
0.67850	46246
0.67917	46135
0.67983	46024
0.68050	45913
0.68117	45802
0.68183	45692
0.68250	45582
0.68317	45472
0.68383	45363
0.68450	45255
0.68517	45147
0.68583	45040
0.68650	44934
0.68717	44829
0.68783	44725
0.68850	44623
0.68917	44524
0.68983	44427
0.69050	44333
0.69117	44242
0.69183	44157
0.69250	44077
0.69317	44003
0.69383	43937
0.69450	43880
0.69517	43834
0.69583	43799
0.69650	43778
0.69717	43773
0.69783	43785
0.69850	43815
0.69917	43866
0.69983	43939
0.70050	44036
0.70117	44156
0.70183	44302
0.70250	44474
0.70317	44673
0.70383	44897
0.70450	45148
0.70517	45425
0.70583	45727
0.70650	46052
0.70717	46399
0.70783	46766
0.70850	47151
0.70917	47550
0.70983	47961
0.71050	48380
0.71117	48805
0.71183	49232
0.71250	49657
0.71317	50076
0.71383	50488
0.71450	50887
0.71517	51273
0.71583	51642
0.71650	51992
0.71717	52320
0.71783	52626
0.71850	52908
0.71917	53164
0.71983	53396
0.72050	53601
0.72117	53781
0.72183	53934
0.72250	54062
0.72317	54165
0.72383	54244
0.72450	54299
0.72517	54331
0.72583	54341
0.72650	54330
0.72717	54299
0.72783	54249
0.72850	54181
0.72917	54096
0.72983	53995
0.73050	53879
0.73117	53749
0.73183	53605
0.73250	53449
0.73317	53282
0.73383	53104
0.73450	52915
0.73517	52718
0.73583	52511
0.73650	52297
0.73717	52076
0.73783	51848
0.73850	51614
0.73917	51374
0.73983	51130
0.74050	50881
0.74117	50628
0.74183	50372
0.74250	50113
0.74317	49851
0.74383	49587
0.74450	49321
0.74517	49054
0.74583	48785
0.74650	48516
0.74717	48246
0.74783	47976
0.74850	47706
0.74917	47436
0.74983	47166
0.75050	46897
0.75117	46629
0.75183	46362
0.75250	46097
0.75317	45833
0.75383	45570
0.75450	45310
0.75517	45051
0.75583	44794
0.75650	44540
0.75717	44288
0.75783	44038
0.75850	43791
0.75917	43546
0.75983	43304
0.76050	43065
0.76117	42829
0.76183	42595
0.76250	42365
0.76317	42137
0.76383	41913
0.76450	41692
0.76517	41474
0.76583	41259
0.76650	41048
0.76717	40840
0.76783	40635
0.76850	40434
0.76917	40236
0.76983	40042
0.77050	39851
0.77117	39664
0.77183	39479
0.77250	39299
0.77317	39121
0.77383	38947
0.77450	38777
0.77517	38609
0.77583	38446
0.77650	38285
0.77717	38127
0.77783	37973
0.77850	37821
0.77917	37673
0.77983	37527
0.78050	37385
0.78117	37245
0.78183	37107
0.78250	36973
0.78317	36840
0.78383	36710
0.78450	36583
0.78517	36457
0.78583	36334
0.78650	36213
0.78717	36094
0.78783	35976
0.78850	35860
0.78917	35746
0.78983	35634
0.79050	35523
0.79117	35413
0.79183	35305
0.79250	35198
0.79317	35092
0.79383	34988
0.79450	34884
0.79517	34782
0.79583	34681
0.79650	34581
0.79717	34482
0.79783	34384
0.79850	34287
0.79917	34191
0.79983	34096
0.80050	34001
0.80117	33908
0.80183	33815
0.80250	33723
0.80317	33632
0.80383	33541
0.80450	33452
0.80517	33363
0.80583	33275
0.80650	33187
0.80717	33101
0.80783	33015
0.80850	32930
0.80917	32846
0.80983	32762
0.81050	32679
0.81117	32597
0.81183	32516
0.81250	32436
0.81317	32356
0.81383	32277
0.81450	32198
0.81517	32121
0.81583	32044
0.81650	31968
0.81717	31892
0.81783	31818
0.81850	31744
0.81917	31671
0.81983	31598
0.82050	31526
0.82117	31455
0.82183	31384
0.82250	31315
0.82317	31245
0.82383	31177
0.82450	31109
0.82517	31042
0.82583	30976
0.82650	30910
0.82717	30845
0.82783	30780
0.82850	30717
0.82917	30653
0.82983	30591
0.83050	30529
0.83117	30468
0.83183	30407
0.83250	30347
0.83317	30288
0.83383	30229
0.83450	30171
0.83517	30113
0.83583	30056
0.83650	30000
0.83717	29944
0.83783	29888
0.83850	29834
0.83917	29779
0.83983	29726
0.84050	29672
0.84117	29620
0.84183	29568
0.84250	29516
0.84317	29465
0.84383	29414
0.84450	29364
0.84517	29315
0.84583	29265
0.84650	29217
0.84717	29168
0.84783	29121
0.84850	29073
0.84917	29026
0.84983	28980
0.85050	28934
0.85117	28888
0.85183	28842
0.85250	28798
0.85317	28753
0.85383	28709
0.85450	28665
0.85517	28622
0.85583	28579
0.85650	28536
0.85717	28494
0.85783	28452
0.85850	28410
0.85917	28369
0.85983	28328
0.86050	28287
0.86117	28247
0.86183	28207
0.86250	28167
0.86317	28127
0.86383	28088
0.86450	28049
0.86517	28011
0.86583	27972
0.86650	27934
0.86717	27897
0.86783	27859
0.86850	27822
0.86917	27785
0.86983	27748
0.87050	27712
0.87117	27676
0.87183	27640
0.87250	27604
0.87317	27568
0.87383	27533
0.87450	27498
0.87517	27463
0.87583	27429
0.87650	27395
0.87717	27361
0.87783	27327
0.87850	27293
0.87917	27260
0.87983	27227
0.88050	27194
0.88117	27161
0.88183	27128
0.88250	27096
0.88317	27064
0.88383	27031
0.88450	27000
0.88517	26968
0.88583	26936
0.88650	26905
0.88717	26873
0.88783	26842
0.88850	26811
0.88917	26780
0.88983	26750
0.89050	26719
0.89117	26689
0.89183	26659
0.89250	26629
0.89317	26599
0.89383	26569
0.89450	26539
0.89517	26510
0.89583	26480
0.89650	26451
0.89717	26422
0.89783	26393
0.89850	26364
0.89917	26335
0.89983	26307
0.90050	26278
0.90117	26249
0.90183	26221
0.90250	26193
0.90317	26165
0.90383	26136
0.90450	26108
0.90517	26080
0.90583	26052
0.90650	26024
0.90717	25996
0.90783	25969
0.90850	25941
0.90917	25913
0.90983	25886
0.91050	25858
0.91117	25831
0.91183	25804
0.91250	25777
0.91317	25750
0.91383	25723
0.91450	25696
0.91517	25669
0.91583	25642
0.91650	25615
0.91717	25588
0.91783	25562
0.91850	25535
0.91917	25509
0.91983	25483
0.92050	25457
0.92117	25431
0.92183	25405
0.92250	25379
0.92317	25353
0.92383	25328
0.92450	25302
0.92517	25277
0.92583	25252
0.92650	25227
0.92717	25202
0.92783	25178
0.92850	25153
0.92917	25129
0.92983	25105
0.93050	25081
0.93117	25057
0.93183	25034
0.93250	25010
0.93317	24987
0.93383	24964
0.93450	24941
0.93517	24918
0.93583	24896
0.93650	24874
0.93717	24852
0.93783	24830
0.93850	24808
0.93917	24786
0.93983	24765
0.94050	24744
0.94117	24722
0.94183	24701
0.94250	24680
0.94317	24659
0.94383	24639
0.94450	24618
0.94517	24597
0.94583	24577
0.94650	24556
0.94717	24536
0.94783	24515
0.94850	24494
0.94917	24474
0.94983	24453
0.95050	24433
0.95117	24412
0.95183	24391
0.95250	24371
0.95317	24350
0.95383	24329
0.95450	24309
0.95517	24288
0.95583	24268
0.95650	24247
0.95717	24226
0.95783	24206
0.95850	24185
0.95917	24165
0.95983	24145
0.96050	24124
0.96117	24104
0.96183	24084
0.96250	24064
0.96317	24044
0.96383	24024
0.96450	24005
0.96517	23985
0.96583	23966
0.96650	23946
0.96717	23927
0.96783	23908
0.96850	23889
0.96917	23870
0.96983	23852
0.97050	23833
0.97117	23814
0.97183	23796
0.97250	23777
0.97317	23759
0.97383	23740
0.97450	23722
0.97517	23703
0.97583	23684
0.97650	23666
0.97717	23647
0.97783	23628
0.97850	23609
0.97917	23590
0.97983	23570
0.98050	23551
0.98117	23531
0.98183	23512
0.98250	23492
0.98317	23472
0.98383	23452
0.98450	23431
0.98517	23411
0.98583	23391
0.98650	23370
0.98717	23350
0.98783	23329
0.98850	23308
0.98917	23287
0.98983	23266
0.99050	23245
0.99117	23224
0.99183	23203
0.99250	23181
0.99317	23160
0.99383	23139
0.99450	23118
0.99517	23096
0.99583	23075
0.99650	23054
0.99717	23032
0.99783	23011
0.99850	22990
0.99917	22968
0.99983	22947
1.00050	22926
1.00117	22905
1.00183	22884
1.00250	22862
1.00317	22841
1.00383	22820
1.00450	22800
1.00517	22779
1.00583	22758
1.00650	22738
1.00717	22717
1.00783	22697
1.00850	22677
1.00917	22657
1.00983	22637
1.01050	22618
1.01117	22598
1.01183	22579
1.01250	22560
1.01317	22541
1.01383	22522
1.01450	22504
1.01517	22486
1.01583	22468
1.01650	22451
1.01717	22434
1.01783	22417
1.01850	22401
1.01917	22385
1.01983	22369
1.02050	22354
1.02117	22340
1.02183	22326
1.02250	22312
1.02317	22299
1.02383	22286
1.02450	22274
1.02517	22262
1.02583	22250
1.02650	22240
1.02717	22229
1.02783	22219
1.02850	22210
1.02917	22200
1.02983	22192
1.03050	22183
1.03117	22175
1.03183	22167
1.03250	22159
1.03317	22151
1.03383	22143
1.03450	22136
1.03517	22128
1.03583	22120
1.03650	22112
1.03717	22104
1.03783	22096
1.03850	22087
1.03917	22079
1.03983	22070
1.04050	22061
1.04117	22051
1.04183	22041
1.04250	22031
1.04317	22021
1.04383	22010
1.04450	21999
1.04517	21987
1.04583	21975
1.04650	21963
1.04717	21950
1.04783	21937
1.04850	21923
1.04917	21910
1.04983	21895
1.05050	21881
1.05117	21866
1.05183	21851
1.05250	21835
1.05317	21820
1.05383	21804
1.05450	21788
1.05517	21772
1.05583	21755
1.05650	21739
1.05717	21722
1.05783	21706
1.05850	21689
1.05917	21672
1.05983	21656
1.06050	21639
1.06117	21622
1.06183	21605
1.06250	21589
1.06317	21572
1.06383	21555
1.06450	21538
1.06517	21521
1.06583	21504
1.06650	21487
1.06717	21470
1.06783	21453
1.06850	21436
1.06917	21419
1.06983	21402
1.07050	21385
1.07117	21368
1.07183	21351
1.07250	21334
1.07317	21318
1.07383	21301
1.07450	21284
1.07517	21268
1.07583	21251
1.07650	21235
1.07717	21219
1.07783	21203
1.07850	21187
1.07917	21171
1.07983	21155
1.08050	21139
1.08117	21124
1.08183	21108
1.08250	21093
1.08317	21078
1.08383	21063
1.08450	21048
1.08517	21033
1.08583	21018
1.08650	21003
1.08717	20989
1.08783	20974
1.08850	20960
1.08917	20946
1.08983	20932
1.09050	20918
1.09117	20904
1.09183	20890
1.09250	20876
1.09317	20863
1.09383	20849
1.09450	20836
1.09517	20823
1.09583	20809
1.09650	20796
1.09717	20783
1.09783	20771
1.09850	20758
1.09917	20745
1.09983	20733
1.10050	20720
1.10117	20708
1.10183	20696
1.10250	20684
1.10317	20673
1.10383	20661
1.10450	20650
1.10517	20639
1.10583	20628
1.10650	20617
1.10717	20606
1.10783	20596
1.10850	20586
1.10917	20576
1.10983	20566
1.11050	20556
1.11117	20547
1.11183	20537
1.11250	20528
1.11317	20519
1.11383	20510
1.11450	20501
1.11517	20492
1.11583	20483
1.11650	20475
1.11717	20466
1.11783	20458
1.11850	20449
1.11917	20441
1.11983	20432
1.12050	20424
1.12117	20415
1.12183	20407
1.12250	20398
1.12317	20390
1.12383	20381
1.12450	20373
1.12517	20364
1.12583	20356
1.12650	20347
1.12717	20339
1.12783	20330
1.12850	20322
1.12917	20313
1.12983	20304
1.13050	20296
1.13117	20287
1.13183	20279
1.13250	20270
1.13317	20261
1.13383	20253
1.13450	20244
1.13517	20235
1.13583	20227
1.13650	20218
1.13717	20209
1.13783	20200
1.13850	20191
1.13917	20182
1.13983	20173
1.14050	20164
1.14117	20155
1.14183	20146
1.14250	20137
1.14317	20127
1.14383	20118
1.14450	20108
1.14517	20099
1.14583	20089
1.14650	20079
1.14717	20069
1.14783	20059
1.14850	20049
1.14917	20039
1.14983	20029
1.15050	20019
1.15117	20009
1.15183	19998
1.15250	19988
1.15317	19977
1.15383	19967
1.15450	19957
1.15517	19946
1.15583	19935
1.15650	19925
1.15717	19914
1.15783	19903
1.15850	19893
1.15917	19882
1.15983	19871
1.16050	19861
1.16117	19850
1.16183	19840
1.16250	19829
1.16317	19818
1.16383	19808
1.16450	19797
1.16517	19787
1.16583	19777
1.16650	19766
1.16717	19756
1.16783	19746
1.16850	19736
1.16917	19725
1.16983	19716
1.17050	19706
1.17117	19696
1.17183	19686
1.17250	19676
1.17317	19667
1.17383	19657
1.17450	19648
1.17517	19639
1.17583	19629
1.17650	19620
1.17717	19611
1.17783	19602
1.17850	19593
1.17917	19585
1.17983	19576
1.18050	19567
1.18117	19559
1.18183	19550
1.18250	19542
1.18317	19534
1.18383	19526
1.18450	19518
1.18517	19510
1.18583	19502
1.18650	19494
1.18717	19487
1.18783	19479
1.18850	19472
1.18917	19465
1.18983	19458
1.19050	19451
1.19117	19444
1.19183	19437
1.19250	19431
1.19317	19424
1.19383	19418
1.19450	19412
1.19517	19406
1.19583	19400
1.19650	19394
1.19717	19388
1.19783	19383
1.19850	19377
1.19917	19372
1.19983	19367
1.20050	19362
1.20117	19357
1.20183	19352
1.20250	19347
1.20317	19343
1.20383	19338
1.20450	19334
1.20517	19330
1.20583	19325
1.20650	19321
1.20717	19318
1.20783	19314
1.20850	19311
1.20917	19307
1.20983	19304
1.21050	19301
1.21117	19299
1.21183	19296
1.21250	19294
1.21317	19292
1.21383	19290
1.21450	19288
1.21517	19286
1.21583	19285
1.21650	19283
1.21717	19282
1.21783	19281
1.21850	19280
1.21917	19279
1.21983	19278
1.22050	19278
1.22117	19277
1.22183	19277
1.22250	19276
1.22317	19276
1.22383	19276
1.22450	19276
1.22517	19276
1.22583	19276
1.22650	19276
1.22717	19276
1.22783	19276
1.22850	19277
1.22917	19277
1.22983	19277
1.23050	19278
1.23117	19279
1.23183	19279
1.23250	19280
1.23317	19281
1.23383	19282
1.23450	19283
1.23517	19285
1.23583	19286
1.23650	19287
1.23717	19289
1.23783	19291
1.23850	19293
1.23917	19295
1.23983	19298
1.24050	19300
1.24117	19303
1.24183	19306
1.24250	19309
1.24317	19313
1.24383	19317
1.24450	19321
1.24517	19325
1.24583	19330
1.24650	19335
1.24717	19341
1.24783	19347
1.24850	19354
1.24917	19361
1.24983	19368
1.25050	19376
1.25117	19385
1.25183	19395
1.25250	19405
1.25317	19415
1.25383	19426
1.25450	19438
1.25517	19450
1.25583	19463
1.25650	19476
1.25717	19489
1.25783	19503
1.25850	19517
1.25917	19531
1.25983	19546
1.26050	19560
1.26117	19575
1.26183	19589
1.26250	19604
1.26317	19618
1.26383	19632
1.26450	19646
1.26517	19659
1.26583	19672
1.26650	19685
1.26717	19696
1.26783	19708
1.26850	19718
1.26917	19728
1.26983	19738
1.27050	19746
1.27117	19754
1.27183	19761
1.27250	19767
1.27317	19772
1.27383	19776
1.27450	19780
1.27517	19783
1.27583	19785
1.27650	19786
1.27717	19786
1.27783	19785
1.27850	19784
1.27917	19782
1.27983	19779
1.28050	19775
1.28117	19771
1.28183	19766
1.28250	19760
1.28317	19754
1.28383	19747
1.28450	19740
1.28517	19732
1.28583	19723
1.28650	19714
1.28717	19705
1.28783	19695
1.28850	19684
1.28917	19674
1.28983	19662
1.29050	19651
1.29117	19639
1.29183	19626
1.29250	19614
1.29317	19601
1.29383	19588
1.29450	19574
1.29517	19560
1.29583	19546
1.29650	19532
1.29717	19518
1.29783	19504
1.29850	19489
1.29917	19474
1.29983	19460
1.30050	19445
1.30117	19429
1.30183	19414
1.30250	19399
1.30317	19384
1.30383	19368
1.30450	19353
1.30517	19337
1.30583	19321
1.30650	19306
1.30717	19290
1.30783	19275
1.30850	19259
1.30917	19243
1.30983	19227
1.31050	19212
1.31117	19196
1.31183	19180
1.31250	19164
1.31317	19148
1.31383	19132
1.31450	19116
1.31517	19100
1.31583	19084
1.31650	19068
1.31717	19052
1.31783	19036
1.31850	19020
1.31917	19004
1.31983	18988
1.32050	18972
1.32117	18956
1.32183	18940
1.32250	18923
1.32317	18907
1.32383	18891
1.32450	18876
1.32517	18860
1.32583	18844
1.32650	18828
1.32717	18813
1.32783	18797
1.32850	18781
1.32917	18766
1.32983	18750
1.33050	18735
1.33117	18720
1.33183	18704
1.33250	18689
1.33317	18674
1.33383	18659
1.33450	18644
1.33517	18630
1.33583	18615
1.33650	18600
1.33717	18585
1.33783	18571
1.33850	18556
1.33917	18542
1.33983	18528
1.34050	18514
1.34117	18500
1.34183	18486
1.34250	18472
1.34317	18458
1.34383	18444
1.34450	18431
1.34517	18417
1.34583	18404
1.34650	18390
1.34717	18377
1.34783	18364
1.34850	18351
1.34917	18338
1.34983	18325
1.35050	18312
1.35117	18299
1.35183	18287
1.35250	18274
1.35317	18261
1.35383	18249
1.35450	18236
1.35517	18224
1.35583	18212
1.35650	18200
1.35717	18188
1.35783	18176
1.35850	18165
1.35917	18153
1.35983	18141
1.36050	18130
1.36117	18119
1.36183	18108
1.36250	18097
1.36317	18086
1.36383	18075
1.36450	18064
1.36517	18054
1.36583	18043
1.36650	18033
1.36717	18022
1.36783	18012
1.36850	18002
1.36917	17992
1.36983	17982
1.37050	17972
1.37117	17963
1.37183	17953
1.37250	17943
1.37317	17934
1.37383	17924
1.37450	17915
1.37517	17906
1.37583	17896
1.37650	17887
1.37717	17878
1.37783	17869
1.37850	17860
1.37917	17851
1.37983	17842
1.38050	17834
1.38117	17825
1.38183	17816
1.38250	17808
1.38317	17800
1.38383	17791
1.38450	17783
1.38517	17775
1.38583	17767
1.38650	17759
1.38717	17751
1.38783	17743
1.38850	17735
1.38917	17728
1.38983	17720
1.39050	17712
1.39117	17705
1.39183	17697
1.39250	17690
1.39317	17682
1.39383	17675
1.39450	17668
1.39517	17660
1.39583	17653
1.39650	17646
1.39717	17639
1.39783	17632
1.39850	17624
1.39917	17617
1.39983	17610
1.40050	17603
1.40117	17596
1.40183	17589
1.40250	17582
1.40317	17575
1.40383	17568
1.40450	17561
1.40517	17554
1.40583	17546
1.40650	17539
1.40717	17532
1.40783	17525
1.40850	17517
1.40917	17510
1.40983	17503
1.41050	17495
1.41117	17488
1.41183	17481
1.41250	17473
1.41317	17466
1.41383	17458
1.41450	17451
1.41517	17444
1.41583	17437
1.41650	17429
1.41717	17422
1.41783	17415
1.41850	17408
1.41917	17401
1.41983	17394
1.42050	17386
1.42117	17379
1.42183	17372
1.42250	17365
1.42317	17359
1.42383	17352
1.42450	17345
1.42517	17338
1.42583	17331
1.42650	17324
1.42717	17318
1.42783	17311
1.42850	17305
1.42917	17298
1.42983	17292
1.43050	17286
1.43117	17279
1.43183	17273
1.43250	17267
1.43317	17261
1.43383	17255
1.43450	17249
1.43517	17244
1.43583	17238
1.43650	17232
1.43717	17227
1.43783	17222
1.43850	17216
1.43917	17211
1.43983	17206
1.44050	17201
1.44117	17197
1.44183	17192
1.44250	17188
1.44317	17183
1.44383	17179
1.44450	17175
1.44517	17171
1.44583	17167
1.44650	17163
1.44717	17160
1.44783	17156
1.44850	17152
1.44917	17149
1.44983	17146
1.45050	17142
1.45117	17139
1.45183	17136
1.45250	17133
1.45317	17130
1.45383	17127
1.45450	17124
1.45517	17120
1.45583	17117
1.45650	17114
1.45717	17111
1.45783	17107
1.45850	17104
1.45917	17101
1.45983	17097
1.46050	17093
1.46117	17090
1.46183	17086
1.46250	17082
1.46317	17078
1.46383	17074
1.46450	17069
1.46517	17065
1.46583	17060
1.46650	17055
1.46717	17050
1.46783	17045
1.46850	17040
1.46917	17035
1.46983	17030
1.47050	17024
1.47117	17019
1.47183	17013
1.47250	17007
1.47317	17001
1.47383	16995
1.47450	16989
1.47517	16983
1.47583	16977
1.47650	16971
1.47717	16964
1.47783	16958
1.47850	16952
1.47917	16945
1.47983	16939
1.48050	16932
1.48117	16926
1.48183	16919
1.48250	16913
1.48317	16906
1.48383	16900
1.48450	16893
1.48517	16887
1.48583	16880
1.48650	16874
1.48717	16867
1.48783	16861
1.48850	16854
1.48917	16848
1.48983	16841
1.49050	16835
1.49117	16829
1.49183	16822
1.49250	16816
1.49317	16809
1.49383	16803
1.49450	16797
1.49517	16791
1.49583	16785
1.49650	16778
1.49717	16772
1.49783	16766
1.49850	16760
1.49917	16754
1.49983	16748
1.50050	16742
1.50117	16736
1.50183	16730
1.50250	16724
1.50317	16718
1.50383	16712
1.50450	16706
1.50517	16700
1.50583	16694
1.50650	16688
1.50717	16682
1.50783	16676
1.50850	16670
1.50917	16664
1.50983	16658
1.51050	16652
1.51117	16646
1.51183	16640
1.51250	16634
1.51317	16628
1.51383	16622
1.51450	16616
1.51517	16609
1.51583	16603
1.51650	16597
1.51717	16591
1.51783	16585
1.51850	16579
1.51917	16573
1.51983	16566
1.52050	16560
1.52117	16554
1.52183	16548
1.52250	16542
1.52317	16536
1.52383	16530
1.52450	16524
1.52517	16518
1.52583	16512
1.52650	16506
1.52717	16501
1.52783	16495
1.52850	16489
1.52917	16483
1.52983	16477
1.53050	16471
1.53117	16466
1.53183	16460
1.53250	16454
1.53317	16448
1.53383	16443
1.53450	16437
1.53517	16431
1.53583	16425
1.53650	16419
1.53717	16414
1.53783	16408
1.53850	16402
1.53917	16396
1.53983	16390
1.54050	16384
1.54117	16378
1.54183	16372
1.54250	16365
1.54317	16359
1.54383	16353
1.54450	16347
1.54517	16341
1.54583	16334
1.54650	16328
1.54717	16322
1.54783	16316
1.54850	16309
1.54917	16303
1.54983	16297
1.55050	16291
1.55117	16285
1.55183	16278
1.55250	16272
1.55317	16266
1.55383	16259
1.55450	16253
1.55517	16247
1.55583	16241
1.55650	16234
1.55717	16228
1.55783	16222
1.55850	16216
1.55917	16210
1.55983	16204
1.56050	16198
1.56117	16192
1.56183	16186
1.56250	16180
1.56317	16174
1.56383	16168
1.56450	16162
1.56517	16156
1.56583	16150
1.56650	16145
1.56717	16139
1.56783	16134
1.56850	16128
1.56917	16123
1.56983	16118
1.57050	16112
1.57117	16107
1.57183	16102
1.57250	16097
1.57317	16092
1.57383	16087
1.57450	16082
1.57517	16077
1.57583	16072
1.57650	16067
1.57717	16062
1.57783	16057
1.57850	16052
1.57917	16047
1.57983	16042
1.58050	16038
1.58117	16033
1.58183	16028
1.58250	16023
1.58317	16018
1.58383	16013
1.58450	16009
1.58517	16004
1.58583	15999
1.58650	15994
1.58717	15990
1.58783	15985
1.58850	15980
1.58917	15975
1.58983	15970
1.59050	15965
1.59117	15961
1.59183	15956
1.59250	15951
1.59317	15947
1.59383	15942
1.59450	15937
1.59517	15933
1.59583	15928
1.59650	15924
1.59717	15919
1.59783	15915
1.59850	15910
1.59917	15906
1.59983	15901
1.60050	15897
1.60117	15893
1.60183	15888
1.60250	15884
1.60317	15880
1.60383	15876
1.60450	15871
1.60517	15867
1.60583	15863
1.60650	15859
1.60717	15855
1.60783	15851
1.60850	15847
1.60917	15843
1.60983	15839
1.61050	15835
1.61117	15831
1.61183	15827
1.61250	15824
1.61317	15820
1.61383	15816
1.61450	15812
1.61517	15808
1.61583	15804
1.61650	15800
1.61717	15796
1.61783	15792
1.61850	15788
1.61917	15784
1.61983	15780
1.62050	15776
1.62117	15772
1.62183	15768
1.62250	15764
1.62317	15760
1.62383	15756
1.62450	15753
1.62517	15749
1.62583	15745
1.62650	15741
1.62717	15737
1.62783	15733
1.62850	15729
1.62917	15725
1.62983	15721
1.63050	15717
1.63117	15713
1.63183	15710
1.63250	15706
1.63317	15702
1.63383	15698
1.63450	15695
1.63517	15691
1.63583	15688
1.63650	15684
1.63717	15680
1.63783	15677
1.63850	15673
1.63917	15670
1.63983	15666
1.64050	15663
1.64117	15659
1.64183	15656
1.64250	15652
1.64317	15649
1.64383	15646
1.64450	15642
1.64517	15639
1.64583	15635
1.64650	15632
1.64717	15628
1.64783	15625
1.64850	15622
1.64917	15618
1.64983	15615
1.65050	15612
1.65117	15608
1.65183	15605
1.65250	15602
1.65317	15598
1.65383	15595
1.65450	15591
1.65517	15588
1.65583	15584
1.65650	15581
1.65717	15577
1.65783	15574
1.65850	15570
1.65917	15567
1.65983	15563
1.66050	15560
1.66117	15556
1.66183	15553
1.66250	15549
1.66317	15545
1.66383	15542
1.66450	15538
1.66517	15534
1.66583	15531
1.66650	15527
1.66717	15523
1.66783	15519
1.66850	15516
1.66917	15512
1.66983	15508
1.67050	15504
1.67117	15501
1.67183	15497
1.67250	15493
1.67317	15489
1.67383	15485
1.67450	15482
1.67517	15478
1.67583	15474
1.67650	15470
1.67717	15466
1.67783	15462
1.67850	15458
1.67917	15453
1.67983	15449
1.68050	15445
1.68117	15441
1.68183	15437
1.68250	15432
1.68317	15428
1.68383	15423
1.68450	15419
1.68517	15415
1.68583	15410
1.68650	15406
1.68717	15402
1.68783	15397
1.68850	15393
1.68917	15388
1.68983	15384
1.69050	15379
1.69117	15375
1.69183	15371
1.69250	15366
1.69317	15362
1.69383	15357
1.69450	15353
1.69517	15348
1.69583	15344
1.69650	15339
1.69717	15335
1.69783	15330
1.69850	15326
1.69917	15321
1.69983	15317
1.70050	15312
1.70117	15308
1.70183	15303
1.70250	15299
1.70317	15295
1.70383	15290
1.70450	15286
1.70517	15282
1.70583	15277
1.70650	15273
1.70717	15269
1.70783	15265
1.70850	15261
1.70917	15257
1.70983	15253
1.71050	15249
1.71117	15245
1.71183	15241
1.71250	15237
1.71317	15234
1.71383	15230
1.71450	15227
1.71517	15223
1.71583	15221
1.71650	15218
1.71717	15216
1.71783	15214
1.71850	15213
1.71917	15212
1.71983	15213
1.72050	15215
1.72117	15219
1.72183	15224
1.72250	15232
1.72317	15243
1.72383	15258
1.72450	15276
1.72517	15300
1.72583	15331
1.72650	15369
1.72717	15416
1.72783	15473
1.72850	15543
1.72917	15627
1.72983	15729
1.73050	15852
1.73117	15998
1.73183	16172
1.73250	16379
1.73317	16624
1.73383	16912
1.73450	17250
1.73517	17645
1.73583	18105
1.73650	18639
1.73717	19256
1.73783	19967
1.73850	20784
1.73917	21718
1.73983	22785
1.74050	23997
1.74117	25370
1.74183	26919
1.74250	28659
1.74317	30605
1.74383	32775
1.74450	35183
1.74517	37848
1.74583	40788
1.74650	44022
1.74717	47568
1.74783	51448
1.74850	55682
1.74917	60290
1.74983	65293
1.75050	70713
1.75117	76570
1.75183	82886
1.75250	89681
1.75317	96977
1.75383	104796
1.75450	113162
1.75517	122100
1.75583	131630
1.75650	141769
1.75717	152534
1.75783	163935
1.75850	175980
1.75917	188676
1.75983	202030
1.76050	216052
1.76117	230745
1.76183	246109
1.76250	262138
1.76317	278829
1.76383	296172
1.76450	314156
1.76517	332771
1.76583	352002
1.76650	371834
1.76717	392249
1.76783	413227
1.76850	434743
1.76917	456764
1.76983	479246
1.77050	502138
1.77117	525380
1.77183	548914
1.77250	572675
1.77317	596592
1.77383	620580
1.77450	644540
1.77517	668365
1.77583	691939
1.77650	715142
1.77717	737854
1.77783	759958
1.77850	781346
1.77917	801911
1.77983	821549
1.78050	840162
1.78117	857662
1.78183	873969
1.78250	889022
1.78317	902771
1.78383	915180
1.78450	926224
1.78517	935891
1.78583	944181
1.78650	951104
1.78717	956679
1.78783	960935
1.78850	963907
1.78917	965639
1.78983	966175
1.79050	965568
1.79117	963870
1.79183	961138
1.79250	957430
1.79317	952803
1.79383	947315
1.79450	941025
1.79517	933988
1.79583	926260
1.79650	917894
1.79717	908942
1.79783	899454
1.79850	889477
1.79917	879058
1.79983	868238
1.80050	857061
1.80117	845564
1.80183	833785
1.80250	821759
1.80317	809518
1.80383	797095
1.80450	784517
1.80517	771813
1.80583	759008
1.80650	746126
1.80717	733189
1.80783	720219
1.80850	707235
1.80917	694256
1.80983	681297
1.81050	668376
1.81117	655506
1.81183	642702
1.81250	629975
1.81317	617337
1.81383	604799
1.81450	592370
1.81517	580060
1.81583	567876
1.81650	555825
1.81717	543915
1.81783	532151
1.81850	520539
1.81917	509082
1.81983	497787
1.82050	486655
1.82117	475690
1.82183	464896
1.82250	454274
1.82317	443826
1.82383	433554
1.82450	423459
1.82517	413542
1.82583	403804
1.82650	394244
1.82717	384863
1.82783	375661
1.82850	366637
1.82917	357790
1.82983	349121
1.83050	340627
1.83117	332308
1.83183	324161
1.83250	316187
1.83317	308383
1.83383	300748
1.83450	293279
1.83517	285975
1.83583	278833
1.83650	271853
1.83717	265031
1.83783	258365
1.83850	251854
1.83917	245494
1.83983	239284
1.84050	233221
1.84117	227303
1.84183	221527
1.84250	215892
1.84317	210394
1.84383	205031
1.84450	199801
1.84517	194701
1.84583	189728
1.84650	184881
1.84717	180157
1.84783	175552
1.84850	171066
1.84917	166695
1.84983	162438
1.85050	158291
1.85117	154253
1.85183	150320
1.85250	146492
1.85317	142765
1.85383	139137
1.85450	135606
1.85517	132170
1.85583	128826
1.85650	125574
1.85717	122409
1.85783	119331
1.85850	116336
1.85917	113424
1.85983	110593
1.86050	107839
1.86117	105162
1.86183	102559
1.86250	100028
1.86317	97568
1.86383	95177
1.86450	92853
1.86517	90595
1.86583	88399
1.86650	86266
1.86717	84194
1.86783	82180
1.86850	80223
1.86917	78323
1.86983	76476
1.87050	74683
1.87117	72940
1.87183	71248
1.87250	69605
1.87317	68008
1.87383	66458
1.87450	64952
1.87517	63490
1.87583	62070
1.87650	60691
1.87717	59352
1.87783	58052
1.87850	56789
1.87917	55563
1.87983	54373
1.88050	53218
1.88117	52096
1.88183	51007
1.88250	49949
1.88317	48923
1.88383	47926
1.88450	46959
1.88517	46020
1.88583	45109
1.88650	44224
1.88717	43366
1.88783	42533
1.88850	41724
1.88917	40940
1.88983	40178
1.89050	39440
1.89117	38723
1.89183	38027
1.89250	37352
1.89317	36697
1.89383	36062
1.89450	35446
1.89517	34848
1.89583	34268
1.89650	33705
1.89717	33159
1.89783	32630
1.89850	32116
1.89917	31618
1.89983	31135
1.90050	30666
1.90117	30212
1.90183	29772
1.90250	29344
1.90317	28930
1.90383	28529
1.90450	28139
1.90517	27761
1.90583	27395
1.90650	27040
1.90717	26696
1.90783	26362
1.90850	26038
1.90917	25725
1.90983	25420
1.91050	25125
1.91117	24839
1.91183	24562
1.91250	24293
1.91317	24032
1.91383	23780
1.91450	23535
1.91517	23297
1.91583	23067
1.91650	22844
1.91717	22627
1.91783	22418
1.91850	22214
1.91917	22016
1.91983	21825
1.92050	21639
1.92117	21458
1.92183	21283
1.92250	21114
1.92317	20949
1.92383	20789
1.92450	20634
1.92517	20484
1.92583	20338
1.92650	20196
1.92717	20058
1.92783	19925
1.92850	19795
1.92917	19669
1.92983	19546
1.93050	19427
1.93117	19312
1.93183	19199
1.93250	19090
1.93317	18984
1.93383	18881
1.93450	18780
1.93517	18682
1.93583	18587
1.93650	18495
1.93717	18405
1.93783	18317
1.93850	18232
1.93917	18149
1.93983	18068
1.94050	17989
1.94117	17912
1.94183	17837
1.94250	17764
1.94317	17693
1.94383	17624
1.94450	17556
1.94517	17491
1.94583	17426
1.94650	17364
1.94717	17302
1.94783	17243
1.94850	17184
1.94917	17128
1.94983	17072
1.95050	17018
1.95117	16965
1.95183	16914
1.95250	16864
1.95317	16815
1.95383	16767
1.95450	16720
1.95517	16675
1.95583	16630
1.95650	16587
1.95717	16544
1.95783	16502
1.95850	16462
1.95917	16422
1.95983	16383
1.96050	16345
1.96117	16308
1.96183	16271
1.96250	16236
1.96317	16201
1.96383	16167
1.96450	16133
1.96517	16101
1.96583	16068
1.96650	16037
1.96717	16006
1.96783	15976
1.96850	15946
1.96917	15916
1.96983	15888
1.97050	15859
1.97117	15832
1.97183	15804
1.97250	15777
1.97317	15751
1.97383	15725
1.97450	15700
1.97517	15675
1.97583	15651
1.97650	15627
1.97717	15603
1.97783	15580
1.97850	15557
1.97917	15534
1.97983	15512
1.98050	15490
1.98117	15469
1.98183	15448
1.98250	15427
1.98317	15407
1.98383	15387
1.98450	15367
1.98517	15348
1.98583	15329
1.98650	15310
1.98717	15292
1.98783	15274
1.98850	15256
1.98917	15239
1.98983	15222
1.99050	15205
1.99117	15188
1.99183	15171
1.99250	15155
1.99317	15139
1.99383	15122
1.99450	15106
1.99517	15091
1.99583	15075
1.99650	15060
1.99717	15044
1.99783	15029
1.99850	15014
1.99917	15000
1.99983	14985
2.00050	14971
2.00117	14957
2.00183	14943
2.00250	14929
2.00317	14915
2.00383	14901
2.00450	14888
2.00517	14875
2.00583	14861
2.00650	14848
2.00717	14835
2.00783	14822
2.00850	14809
2.00917	14797
2.00983	14784
2.01050	14772
2.01117	14760
2.01183	14747
2.01250	14735
2.01317	14723
2.01383	14711
2.01450	14700
2.01517	14688
2.01583	14676
2.01650	14665
2.01717	14653
2.01783	14642
2.01850	14630
2.01917	14619
2.01983	14607
2.02050	14596
2.02117	14585
2.02183	14573
2.02250	14562
2.02317	14551
2.02383	14540
2.02450	14529
2.02517	14518
2.02583	14507
2.02650	14496
2.02717	14486
2.02783	14475
2.02850	14464
2.02917	14454
2.02983	14443
2.03050	14433
2.03117	14423
2.03183	14412
2.03250	14402
2.03317	14392
2.03383	14382
2.03450	14372
2.03517	14362
2.03583	14352
2.03650	14342
2.03717	14332
2.03783	14323
2.03850	14313
2.03917	14304
2.03983	14295
2.04050	14286
2.04117	14277
2.04183	14268
2.04250	14259
2.04317	14250
2.04383	14241
2.04450	14233
2.04517	14224
2.04583	14216
2.04650	14207
2.04717	14199
2.04783	14190
2.04850	14182
2.04917	14174
2.04983	14166
2.05050	14157
2.05117	14149
2.05183	14141
2.05250	14133
2.05317	14125
2.05383	14117
2.05450	14109
2.05517	14101
2.05583	14093
2.05650	14085
2.05717	14077
2.05783	14069
2.05850	14061
2.05917	14053
2.05983	14045
2.06050	14037
2.06117	14029
2.06183	14021
2.06250	14013
2.06317	14005
2.06383	13998
2.06450	13990
2.06517	13982
2.06583	13974
2.06650	13967
2.06717	13959
2.06783	13952
2.06850	13945
2.06917	13937
2.06983	13930
2.07050	13923
2.07117	13916
2.07183	13909
2.07250	13902
2.07317	13895
2.07383	13888
2.07450	13881
2.07517	13874
2.07583	13867
2.07650	13861
2.07717	13854
2.07783	13847
2.07850	13841
2.07917	13834
2.07983	13827
2.08050	13821
2.08117	13814
2.08183	13807
2.08250	13800
2.08317	13794
2.08383	13787
2.08450	13780
2.08517	13774
2.08583	13767
2.08650	13760
2.08717	13754
2.08783	13747
2.08850	13740
2.08917	13734
2.08983	13727
2.09050	13721
2.09117	13714
2.09183	13708
2.09250	13701
2.09317	13695
2.09383	13688
2.09450	13682
2.09517	13676
2.09583	13669
2.09650	13663
2.09717	13657
2.09783	13650
2.09850	13644
2.09917	13638
2.09983	13632
2.10050	13626
2.10117	13619
2.10183	13613
2.10250	13607
2.10317	13601
2.10383	13594
2.10450	13588
2.10517	13582
2.10583	13575
2.10650	13569
2.10717	13562
2.10783	13556
2.10850	13549
2.10917	13543
2.10983	13537
2.11050	13530
2.11117	13524
2.11183	13517
2.11250	13511
2.11317	13505
2.11383	13498
2.11450	13492
2.11517	13485
2.11583	13479
2.11650	13472
2.11717	13466
2.11783	13459
2.11850	13453
2.11917	13446
2.11983	13440
2.12050	13433
2.12117	13427
2.12183	13420
2.12250	13414
2.12317	13407
2.12383	13401
2.12450	13394
2.12517	13388
2.12583	13382
2.12650	13376
2.12717	13369
2.12783	13363
2.12850	13357
2.12917	13351
2.12983	13345
2.13050	13339
2.13117	13333
2.13183	13327
2.13250	13321
2.13317	13315
2.13383	13310
2.13450	13304
2.13517	13298
2.13583	13292
2.13650	13286
2.13717	13280
2.13783	13275
2.13850	13269
2.13917	13263
2.13983	13258
2.14050	13252
2.14117	13246
2.14183	13241
2.14250	13236
2.14317	13230
2.14383	13225
2.14450	13219
2.14517	13214
2.14583	13209
2.14650	13203
2.14717	13198
2.14783	13192
2.14850	13187
2.14917	13182
2.14983	13176
2.15050	13171
2.15117	13165
2.15183	13160
2.15250	13155
2.15317	13150
2.15383	13144
2.15450	13139
2.15517	13134
2.15583	13128
2.15650	13123
2.15717	13118
2.15783	13112
2.15850	13107
2.15917	13102
2.15983	13096
2.16050	13091
2.16117	13085
2.16183	13080
2.16250	13075
2.16317	13070
2.16383	13064
2.16450	13059
2.16517	13054
2.16583	13049
2.16650	13044
2.16717	13039
2.16783	13034
2.16850	13029
2.16917	13025
2.16983	13020
2.17050	13015
2.17117	13010
2.17183	13006
2.17250	13001
2.17317	12996
2.17383	12991
2.17450	12986
2.17517	12982
2.17583	12977
2.17650	12972
2.17717	12968
2.17783	12963
2.17850	12958
2.17917	12954
2.17983	12949
2.18050	12944
2.18117	12940
2.18183	12935
2.18250	12930
2.18317	12926
2.18383	12921
2.18450	12916
2.18517	12912
2.18583	12907
2.18650	12902
2.18717	12898
2.18783	12893
2.18850	12889
2.18917	12884
2.18983	12880
2.19050	12875
2.19117	12871
2.19183	12866
2.19250	12862
2.19317	12857
2.19383	12853
2.19450	12848
2.19517	12844
2.19583	12840
2.19650	12836
2.19717	12831
2.19783	12827
2.19850	12823
2.19917	12819
2.19983	12815
2.20050	12811
2.20117	12807
2.20183	12803
2.20250	12799
2.20317	12795
2.20383	12792
2.20450	12788
2.20517	12785
2.20583	12782
2.20650	12778
2.20717	12775
2.20783	12772
2.20850	12770
2.20917	12767
2.20983	12764
2.21050	12762
2.21117	12759
2.21183	12757
2.21250	12755
2.21317	12753
2.21383	12750
2.21450	12749
2.21517	12747
2.21583	12745
2.21650	12744
2.21717	12743
2.21783	12741
2.21850	12740
2.21917	12739
2.21983	12738
2.22050	12738
2.22117	12737
2.22183	12736
2.22250	12735
2.22317	12735
2.22383	12734
2.22450	12733
2.22517	12732
2.22583	12732
2.22650	12731
2.22717	12730
2.22783	12729
2.22850	12728
2.22917	12727
2.22983	12726
2.23050	12724
2.23117	12723
2.23183	12721
2.23250	12720
2.23317	12718
2.23383	12716
2.23450	12714
2.23517	12711
2.23583	12709
2.23650	12706
2.23717	12704
2.23783	12701
2.23850	12698
2.23917	12696
2.23983	12693
2.24050	12690
2.24117	12687
2.24183	12684
2.24250	12681
2.24317	12677
2.24383	12674
2.24450	12671
2.24517	12667
2.24583	12664
2.24650	12661
2.24717	12657
2.24783	12654
2.24850	12650
2.24917	12647
2.24983	12643
2.25050	12640
2.25117	12636
2.25183	12633
2.25250	12629
2.25317	12626
2.25383	12622
2.25450	12619
2.25517	12615
2.25583	12612
2.25650	12608
2.25717	12604
2.25783	12600
2.25850	12597
2.25917	12593
2.25983	12589
2.26050	12585
2.26117	12581
2.26183	12577
2.26250	12573
2.26317	12569
2.26383	12565
2.26450	12561
2.26517	12557
2.26583	12552
2.26650	12548
2.26717	12544
2.26783	12539
2.26850	12535
2.26917	12530
2.26983	12526
2.27050	12521
2.27117	12516
2.27183	12512
2.27250	12507
2.27317	12502
2.27383	12497
2.27450	12492
2.27517	12487
2.27583	12482
2.27650	12477
2.27717	12471
2.27783	12466
2.27850	12461
2.27917	12456
2.27983	12451
2.28050	12446
2.28117	12440
2.28183	12435
2.28250	12430
2.28317	12425
2.28383	12420
2.28450	12415
2.28517	12409
2.28583	12404
2.28650	12399
2.28717	12394
2.28783	12389
2.28850	12384
2.28917	12379
2.28983	12374
2.29050	12369
2.29117	12364
2.29183	12359
2.29250	12354
2.29317	12349
2.29383	12344
2.29450	12339
2.29517	12334
2.29583	12329
2.29650	12324
2.29717	12319
2.29783	12314
2.29850	12310
2.29917	12305
2.29983	12300
2.30050	12296
2.30117	12291
2.30183	12287
2.30250	12282
2.30317	12278
2.30383	12273
2.30450	12269
2.30517	12265
2.30583	12261
2.30650	12257
2.30717	12252
2.30783	12248
2.30850	12244
2.30917	12241
2.30983	12237
2.31050	12233
2.31117	12229
2.31183	12225
2.31250	12221
2.31317	12218
2.31383	12214
2.31450	12210
2.31517	12207
2.31583	12203
2.31650	12200
2.31717	12196
2.31783	12193
2.31850	12189
2.31917	12186
2.31983	12183
2.32050	12180
2.32117	12176
2.32183	12173
2.32250	12170
2.32317	12167
2.32383	12164
2.32450	12161
2.32517	12158
2.32583	12155
2.32650	12152
2.32717	12149
2.32783	12146
2.32850	12143
2.32917	12141
2.32983	12138
2.33050	12135
2.33117	12133
2.33183	12130
2.33250	12127
2.33317	12125
2.33383	12122
2.33450	12120
2.33517	12117
2.33583	12114
2.33650	12112
2.33717	12110
2.33783	12107
2.33850	12105
2.33917	12102
2.33983	12100
2.34050	12098
2.34117	12096
2.34183	12094
2.34250	12091
2.34317	12089
2.34383	12087
2.34450	12085
2.34517	12083
2.34583	12081
2.34650	12079
2.34717	12077
2.34783	12075
2.34850	12073
2.34917	12072
2.34983	12070
2.35050	12068
2.35117	12066
2.35183	12064
2.35250	12063
2.35317	12061
2.35383	12059
2.35450	12058
2.35517	12056
2.35583	12054
2.35650	12053
2.35717	12051
2.35783	12049
2.35850	12048
2.35917	12046
2.35983	12045
2.36050	12043
2.36117	12042
2.36183	12040
2.36250	12038
2.36317	12037
2.36383	12035
2.36450	12033
2.36517	12032
2.36583	12030
2.36650	12028
2.36717	12026
2.36783	12024
2.36850	12022
2.36917	12020
2.36983	12017
2.37050	12015
2.37117	12013
2.37183	12011
2.37250	12008
2.37317	12006
2.37383	12003
2.37450	12001
2.37517	11998
2.37583	11996
2.37650	11993
2.37717	11991
2.37783	11988
2.37850	11986
2.37917	11983
2.37983	11981
2.38050	11978
2.38117	11975
2.38183	11973
2.38250	11970
2.38317	11967
2.38383	11965
2.38450	11962
2.38517	11959
2.38583	11956
2.38650	11954
2.38717	11951
2.38783	11948
2.38850	11945
2.38917	11942
2.38983	11939
2.39050	11937
2.39117	11934
2.39183	11931
2.39250	11928
2.39317	11925
2.39383	11922
2.39450	11919
2.39517	11916
2.39583	11913
2.39650	11910
2.39717	11907
2.39783	11904
2.39850	11901
2.39917	11898
2.39983	11895
2.40050	11892
2.40117	11889
2.40183	11886
2.40250	11883
2.40317	11880
2.40383	11877
2.40450	11874
2.40517	11871
2.40583	11868
2.40650	11865
2.40717	11862
2.40783	11859
2.40850	11856
2.40917	11853
2.40983	11850
2.41050	11847
2.41117	11844
2.41183	11840
2.41250	11837
2.41317	11834
2.41383	11831
2.41450	11828
2.41517	11825
2.41583	11822
2.41650	11819
2.41717	11816
2.41783	11813
2.41850	11810
2.41917	11808
2.41983	11805
2.42050	11802
2.42117	11799
2.42183	11796
2.42250	11793
2.42317	11791
2.42383	11788
2.42450	11785
2.42517	11782
2.42583	11779
2.42650	11776
2.42717	11773
2.42783	11770
2.42850	11768
2.42917	11765
2.42983	11762
2.43050	11759
2.43117	11756
2.43183	11752
2.43250	11749
2.43317	11746
2.43383	11743
2.43450	11740
2.43517	11736
2.43583	11733
2.43650	11730
2.43717	11726
2.43783	11723
2.43850	11719
2.43917	11716
2.43983	11712
2.44050	11709
2.44117	11705
2.44183	11701
2.44250	11698
2.44317	11694
2.44383	11690
2.44450	11686
2.44517	11683
2.44583	11679
2.44650	11675
2.44717	11671
2.44783	11667
2.44850	11663
2.44917	11660
2.44983	11656
2.45050	11652
2.45117	11648
2.45183	11644
2.45250	11640
2.45317	11636
2.45383	11632
2.45450	11628
2.45517	11624
2.45583	11620
2.45650	11617
2.45717	11613
2.45783	11609
2.45850	11605
2.45917	11601
2.45983	11597
2.46050	11593
2.46117	11589
2.46183	11585
2.46250	11581
2.46317	11577
2.46383	11573
2.46450	11569
2.46517	11565
2.46583	11561
2.46650	11557
2.46717	11553
2.46783	11549
2.46850	11546
2.46917	11542
2.46983	11538
2.47050	11534
2.47117	11530
2.47183	11526
2.47250	11522
2.47317	11518
2.47383	11514
2.47450	11511
2.47517	11507
2.47583	11503
2.47650	11499
2.47717	11495
2.47783	11491
2.47850	11488
2.47917	11484
2.47983	11480
2.48050	11476
2.48117	11472
2.48183	11468
2.48250	11465
2.48317	11461
2.48383	11457
2.48450	11453
2.48517	11449
2.48583	11445
2.48650	11441
2.48717	11437
2.48783	11433
2.48850	11430
2.48917	11426
2.48983	11422
2.49050	11418
2.49117	11414
2.49183	11410
2.49250	11406
2.49317	11402
2.49383	11398
2.49450	11394
2.49517	11390
2.49583	11386
2.49650	11382
2.49717	11378
2.49783	11374
2.49850	11370
2.49917	11365
2.49983	11361
2.50050	11357
2.50117	11353
2.50183	11349
2.50250	11344
2.50317	11340
2.50383	11336
2.50450	11331
2.50517	11327
2.50583	11323
2.50650	11318
2.50717	11314
2.50783	11310
2.50850	11305
2.50917	11301
2.50983	11297
2.51050	11292
2.51117	11288
2.51183	11284
2.51250	11279
2.51317	11275
2.51383	11271
2.51450	11266
2.51517	11262
2.51583	11258
2.51650	11253
2.51717	11249
2.51783	11245
2.51850	11240
2.51917	11236
2.51983	11232
2.52050	11227
2.52117	11223
2.52183	11219
2.52250	11214
2.52317	11210
2.52383	11206
2.52450	11201
2.52517	11197
2.52583	11193
2.52650	11188
2.52717	11184
2.52783	11180
2.52850	11176
2.52917	11171
2.52983	11167
2.53050	11163
2.53117	11158
2.53183	11154
2.53250	11149
2.53317	11145
2.53383	11140
2.53450	11136
2.53517	11131
2.53583	11127
2.53650	11122
2.53717	11118
2.53783	11113
2.53850	11108
2.53917	11104
2.53983	11099
2.54050	11094
2.54117	11090
2.54183	11085
2.54250	11081
2.54317	11076
2.54383	11072
2.54450	11067
2.54517	11063
2.54583	11058
2.54650	11054
2.54717	11050
2.54783	11045
2.54850	11041
2.54917	11037
2.54983	11033
2.55050	11028
2.55117	11024
2.55183	11020
2.55250	11016
2.55317	11012
2.55383	11008
2.55450	11003
2.55517	10999
2.55583	10995
2.55650	10991
2.55717	10987
2.55783	10982
2.55850	10978
2.55917	10974
2.55983	10970
2.56050	10965
2.56117	10961
2.56183	10957
2.56250	10953
2.56317	10949
2.56383	10945
2.56450	10941
2.56517	10937
2.56583	10933
2.56650	10929
2.56717	10925
2.56783	10921
2.56850	10917
2.56917	10913
2.56983	10910
2.57050	10906
2.57117	10902
2.57183	10899
2.57250	10895
2.57317	10891
2.57383	10888
2.57450	10884
2.57517	10881
2.57583	10877
2.57650	10874
2.57717	10870
2.57783	10867
2.57850	10863
2.57917	10860
2.57983	10857
2.58050	10854
2.58117	10850
2.58183	10847
2.58250	10844
2.58317	10841
2.58383	10838
2.58450	10834
2.58517	10831
2.58583	10828
2.58650	10825
2.58717	10822
2.58783	10819
2.58850	10816
2.58917	10813
2.58983	10810
2.59050	10807
2.59117	10804
2.59183	10801
2.59250	10798
2.59317	10795
2.59383	10792
2.59450	10789
2.59517	10786
2.59583	10783
2.59650	10780
2.59717	10777
2.59783	10774
2.59850	10772
2.59917	10769
2.59983	10766
2.60050	10763
2.60117	10761
2.60183	10758
2.60250	10755
2.60317	10752
2.60383	10750
2.60450	10747
2.60517	10744
2.60583	10742
2.60650	10739
2.60717	10736
2.60783	10734
2.60850	10731
2.60917	10729
2.60983	10726
2.61050	10724
2.61117	10721
2.61183	10718
2.61250	10716
2.61317	10713
2.61383	10710
2.61450	10708
2.61517	10705
2.61583	10702
2.61650	10699
2.61717	10697
2.61783	10694
2.61850	10691
2.61917	10689
2.61983	10686
2.62050	10683
2.62117	10680
2.62183	10677
2.62250	10674
2.62317	10672
2.62383	10669
2.62450	10666
2.62517	10663
2.62583	10660
2.62650	10657
2.62717	10654
2.62783	10651
2.62850	10648
2.62917	10645
2.62983	10642
2.63050	10639
2.63117	10636
2.63183	10633
2.63250	10630
2.63317	10627
2.63383	10624
2.63450	10621
2.63517	10618
2.63583	10614
2.63650	10611
2.63717	10608
2.63783	10604
2.63850	10601
2.63917	10598
2.63983	10594
2.64050	10591
2.64117	10588
2.64183	10584
2.64250	10581
2.64317	10577
2.64383	10574
2.64450	10570
2.64517	10567
2.64583	10563
2.64650	10560
2.64717	10556
2.64783	10553
2.64850	10549
2.64917	10545
2.64983	10542
2.65050	10538
2.65117	10534
2.65183	10531
2.65250	10527
2.65317	10523
2.65383	10520
2.65450	10516
2.65517	10512
2.65583	10509
2.65650	10505
2.65717	10501
2.65783	10498
2.65850	10494
2.65917	10490
2.65983	10486
2.66050	10483
2.66117	10479
2.66183	10475
2.66250	10471
2.66317	10467
2.66383	10464
2.66450	10460
2.66517	10456
2.66583	10452
2.66650	10448
2.66717	10444
2.66783	10440
2.66850	10436
2.66917	10433
2.66983	10429
2.67050	10425
2.67117	10421
2.67183	10418
2.67250	10414
2.67317	10410
2.67383	10406
2.67450	10403
2.67517	10399
2.67583	10395
2.67650	10392
2.67717	10388
2.67783	10384
2.67850	10381
2.67917	10377
2.67983	10373
2.68050	10370
2.68117	10366
2.68183	10363
2.68250	10359
2.68317	10355
2.68383	10352
2.68450	10348
2.68517	10345
2.68583	10342
2.68650	10338
2.68717	10335
2.68783	10331
2.68850	10328
2.68917	10325
2.68983	10322
2.69050	10318
2.69117	10315
2.69183	10312
2.69250	10309
2.69317	10306
2.69383	10303
2.69450	10300
2.69517	10297
2.69583	10294
2.69650	10291
2.69717	10288
2.69783	10285
2.69850	10282
2.69917	10279
2.69983	10276
2.70050	10273
2.70117	10271
2.70183	10268
2.70250	10265
2.70317	10262
2.70383	10259
2.70450	10256
2.70517	10253
2.70583	10250
2.70650	10247
2.70717	10245
2.70783	10242
2.70850	10239
2.70917	10236
2.70983	10233
2.71050	10230
2.71117	10227
2.71183	10224
2.71250	10221
2.71317	10218
2.71383	10214
2.71450	10211
2.71517	10208
2.71583	10206
2.71650	10203
2.71717	10200
2.71783	10197
2.71850	10194
2.71917	10191
2.71983	10188
2.72050	10185
2.72117	10182
2.72183	10179
2.72250	10176
2.72317	10173
2.72383	10171
2.72450	10168
2.72517	10165
2.72583	10162
2.72650	10159
2.72717	10156
2.72783	10153
2.72850	10150
2.72917	10147
2.72983	10144
2.73050	10141
2.73117	10138
2.73183	10136
2.73250	10133
2.73317	10130
2.73383	10127
2.73450	10125
2.73517	10122
2.73583	10119
2.73650	10117
2.73717	10114
2.73783	10112
2.73850	10109
2.73917	10106
2.73983	10104
2.74050	10101
2.74117	10099
2.74183	10096
2.74250	10094
2.74317	10091
2.74383	10089
2.74450	10087
2.74517	10084
2.74583	10082
2.74650	10079
2.74717	10077
2.74783	10075
2.74850	10072
2.74917	10070
2.74983	10068
2.75050	10065
2.75117	10063
2.75183	10061
2.75250	10058
2.75317	10056
2.75383	10054
2.75450	10052
2.75517	10049
2.75583	10047
2.75650	10045
2.75717	10042
2.75783	10040
2.75850	10038
2.75917	10036
2.75983	10034
2.76050	10032
2.76117	10030
2.76183	10028
2.76250	10026
2.76317	10024
2.76383	10022
2.76450	10020
2.76517	10018
2.76583	10017
2.76650	10015
2.76717	10013
2.76783	10012
2.76850	10010
2.76917	10008
2.76983	10007
2.77050	10005
2.77117	10004
2.77183	10002
2.77250	10001
2.77317	10000
2.77383	9998
2.77450	9997
2.77517	9996
2.77583	9995
2.77650	9994
2.77717	9993
2.77783	9992
2.77850	9991
2.77917	9990
2.77983	9989
2.78050	9989
2.78117	9988
2.78183	9987
2.78250	9986
2.78317	9986
2.78383	9985
2.78450	9984
2.78517	9984
2.78583	9984
2.78650	9983
2.78717	9983
2.78783	9983
2.78850	9982
2.78917	9982
2.78983	9982
2.79050	9982
2.79117	9982
2.79183	9981
2.79250	9981
2.79317	9981
2.79383	9982
2.79450	9982
2.79517	9982
2.79583	9982
2.79650	9982
2.79717	9982
2.79783	9982
2.79850	9983
2.79917	9983
2.79983	9983
2.80050	9984
2.80117	9984
2.80183	9984
2.80250	9985
2.80317	9985
2.80383	9985
2.80450	9985
2.80517	9986
2.80583	9986
2.80650	9986
2.80717	9987
2.80783	9987
2.80850	9987
2.80917	9988
2.80983	9988
2.81050	9988
2.81117	9988
2.81183	9989
2.81250	9989
2.81317	9989
2.81383	9989
2.81450	9989
2.81517	9989
2.81583	9989
2.81650	9989
2.81717	9989
2.81783	9989
2.81850	9988
2.81917	9988
2.81983	9987
2.82050	9987
2.82117	9986
2.82183	9986
2.82250	9985
2.82317	9984
2.82383	9983
2.82450	9983
2.82517	9982
2.82583	9981
2.82650	9979
2.82717	9978
2.82783	9977
2.82850	9976
2.82917	9974
2.82983	9972
2.83050	9971
2.83117	9969
2.83183	9967
2.83250	9965
2.83317	9963
2.83383	9961
2.83450	9959
2.83517	9956
2.83583	9954
2.83650	9951
2.83717	9949
2.83783	9946
2.83850	9943
2.83917	9940
2.83983	9937
2.84050	9934
2.84117	9931
2.84183	9928
2.84250	9925
2.84317	9921
2.84383	9918
2.84450	9915
2.84517	9911
2.84583	9908
2.84650	9904
2.84717	9901
2.84783	9897
2.84850	9893
2.84917	9890
2.84983	9886
2.85050	9882
2.85117	9879
2.85183	9875
2.85250	9871
2.85317	9867
2.85383	9863
2.85450	9859
2.85517	9856
2.85583	9852
2.85650	9848
2.85717	9844
2.85783	9840
2.85850	9836
2.85917	9833
2.85983	9829
2.86050	9825
2.86117	9821
2.86183	9818
2.86250	9814
2.86317	9810
2.86383	9807
2.86450	9803
2.86517	9800
2.86583	9796
2.86650	9793
2.86717	9789
2.86783	9786
2.86850	9783
2.86917	9780
2.86983	9777
2.87050	9774
2.87117	9771
2.87183	9768
2.87250	9765
2.87317	9763
2.87383	9760
2.87450	9758
2.87517	9755
2.87583	9753
2.87650	9751
2.87717	9748
2.87783	9746
2.87850	9744
2.87917	9743
2.87983	9741
2.88050	9739
2.88117	9738
2.88183	9736
2.88250	9735
2.88317	9733
2.88383	9732
2.88450	9731
2.88517	9730
2.88583	9729
2.88650	9728
2.88717	9728
2.88783	9727
2.88850	9727
2.88917	9726
2.88983	9726
2.89050	9726
2.89117	9726
2.89183	9726
2.89250	9726
2.89317	9726
2.89383	9727
2.89450	9727
2.89517	9728
2.89583	9728
2.89650	9729
2.89717	9729
2.89783	9730
2.89850	9731
2.89917	9731
2.89983	9732
2.90050	9733
2.90117	9733
2.90183	9734
2.90250	9735
2.90317	9736
2.90383	9737
2.90450	9737
2.90517	9738
2.90583	9739
2.90650	9739
2.90717	9740
2.90783	9740
2.90850	9741
2.90917	9741
2.90983	9741
2.91050	9741
2.91117	9741
2.91183	9741
2.91250	9740
2.91317	9740
2.91383	9739
2.91450	9739
2.91517	9738
2.91583	9737
2.91650	9735
2.91717	9734
2.91783	9732
2.91850	9731
2.91917	9729
2.91983	9726
2.92050	9724
2.92117	9721
2.92183	9719
2.92250	9716
2.92317	9713
2.92383	9709
2.92450	9706
2.92517	9702
2.92583	9698
2.92650	9694
2.92717	9690
2.92783	9685
2.92850	9680
2.92917	9676
2.92983	9671
2.93050	9666
2.93117	9660
2.93183	9655
2.93250	9649
2.93317	9643
2.93383	9638
2.93450	9632
2.93517	9625
2.93583	9619
2.93650	9613
2.93717	9606
2.93783	9600
2.93850	9593
2.93917	9586
2.93983	9579
2.94050	9573
2.94117	9565
2.94183	9558
2.94250	9551
2.94317	9544
2.94383	9537
2.94450	9530
2.94517	9522
2.94583	9515
2.94650	9508
2.94717	9500
2.94783	9493
2.94850	9486
2.94917	9478
2.94983	9471
2.95050	9464
2.95117	9456
2.95183	9449
2.95250	9442
2.95317	9434
2.95383	9427
2.95450	9420
2.95517	9413
2.95583	9406
2.95650	9399
2.95717	9392
2.95783	9385
2.95850	9378
2.95917	9371
2.95983	9364
2.96050	9357
2.96117	9351
2.96183	9344
2.96250	9338
2.96317	9331
2.96383	9325
2.96450	9318
2.96517	9312
2.96583	9306
2.96650	9300
2.96717	9293
2.96783	9287
2.96850	9282
2.96917	9276
2.96983	9270
2.97050	9264
2.97117	9259
2.97183	9253
2.97250	9248
2.97317	9243
2.97383	9237
2.97450	9232
2.97517	9227
2.97583	9222
2.97650	9217
2.97717	9212
2.97783	9207
2.97850	9202
2.97917	9198
2.97983	9193
2.98050	9189
2.98117	9184
2.98183	9180
2.98250	9175
2.98317	9171
2.98383	9166
2.98450	9162
2.98517	9158
2.98583	9154
2.98650	9150
2.98717	9145
2.98783	9141
2.98850	9137
2.98917	9133
2.98983	9129
2.99050	9125
2.99117	9121
2.99183	9118
2.99250	9114
2.99317	9110
2.99383	9106
2.99450	9102
2.99517	9099
2.99583	9095
2.99650	9092
2.99717	9088
2.99783	9085
2.99850	9082
2.99917	9078
2.99983	9075
3.00050	9072
3.00117	9069
3.00183	9065
3.00250	9062
3.00317	9059
3.00383	9056
3.00450	9053
3.00517	9050
3.00583	9047
3.00650	9044
3.00717	9041
3.00783	9039
3.00850	9036
3.00917	9033
3.00983	9030
3.01050	9028
3.01117	9025
3.01183	9023
3.01250	9020
3.01317	9017
3.01383	9015
3.01450	9012
3.01517	9010
3.01583	9007
3.01650	9005
3.01717	9002
3.01783	9000
3.01850	8998
3.01917	8995
3.01983	8993
3.02050	8991
3.02117	8988
3.02183	8986
3.02250	8984
3.02317	8982
3.02383	8980
3.02450	8978
3.02517	8976
3.02583	8974
3.02650	8971
3.02717	8969
3.02783	8968
3.02850	8966
3.02917	8964
3.02983	8962
3.03050	8960
3.03117	8958
3.03183	8956
3.03250	8954
3.03317	8953
3.03383	8951
3.03450	8949
3.03517	8948
3.03583	8946
3.03650	8944
3.03717	8943
3.03783	8941
3.03850	8940
3.03917	8938
3.03983	8937
3.04050	8936
3.04117	8934
3.04183	8933
3.04250	8932
3.04317	8931
3.04383	8930
3.04450	8929
3.04517	8928
3.04583	8927
3.04650	8926
3.04717	8925
3.04783	8925
3.04850	8924
3.04917	8924
3.04983	8923
3.05050	8923
3.05117	8923
3.05183	8923
3.05250	8923
3.05317	8923
3.05383	8923
3.05450	8924
3.05517	8924
3.05583	8925
3.05650	8926
3.05717	8927
3.05783	8928
3.05850	8930
3.05917	8931
3.05983	8933
3.06050	8935
3.06117	8937
3.06183	8939
3.06250	8941
3.06317	8944
3.06383	8947
3.06450	8949
3.06517	8952
3.06583	8956
3.06650	8959
3.06717	8963
3.06783	8966
3.06850	8970
3.06917	8974
3.06983	8979
3.07050	8983
3.07117	8988
3.07183	8993
3.07250	8998
3.07317	9003
3.07383	9008
3.07450	9013
3.07517	9018
3.07583	9024
3.07650	9029
3.07717	9035
3.07783	9040
3.07850	9046
3.07917	9052
3.07983	9058
3.08050	9064
3.08117	9070
3.08183	9076
3.08250	9082
3.08317	9088
3.08383	9094
3.08450	9099
3.08517	9105
3.08583	9111
3.08650	9117
3.08717	9123
3.08783	9128
3.08850	9134
3.08917	9139
3.08983	9145
3.09050	9150
3.09117	9155
3.09183	9160
3.09250	9164
3.09317	9169
3.09383	9173
3.09450	9177
3.09517	9181
3.09583	9184
3.09650	9188
3.09717	9191
3.09783	9194
3.09850	9196
3.09917	9199
3.09983	9201
3.10050	9203
3.10117	9204
3.10183	9205
3.10250	9206
3.10317	9207
3.10383	9208
3.10450	9208
3.10517	9208
3.10583	9207
3.10650	9207
3.10717	9206
3.10783	9205
3.10850	9204
3.10917	9202
3.10983	9200
3.11050	9198
3.11117	9196
3.11183	9193
3.11250	9190
3.11317	9187
3.11383	9184
3.11450	9181
3.11517	9177
3.11583	9173
3.11650	9169
3.11717	9165
3.11783	9161
3.11850	9156
3.11917	9152
3.11983	9147
3.12050	9142
3.12117	9137
3.12183	9132
3.12250	9127
3.12317	9122
3.12383	9116
3.12450	9111
3.12517	9106
3.12583	9100
3.12650	9095
3.12717	9089
3.12783	9083
3.12850	9078
3.12917	9072
3.12983	9067
3.13050	9061
3.13117	9056
3.13183	9050
3.13250	9045
3.13317	9039
3.13383	9034
3.13450	9028
3.13517	9023
3.13583	9017
3.13650	9012
3.13717	9007
3.13783	9002
3.13850	8996
3.13917	8991
3.13983	8986
3.14050	8981
3.14117	8976
3.14183	8971
3.14250	8966
3.14317	8961
3.14383	8957
3.14450	8952
3.14517	8947
3.14583	8943
3.14650	8938
3.14717	8934
3.14783	8929
3.14850	8925
3.14917	8921
3.14983	8917
3.15050	8913
3.15117	8909
3.15183	8905
3.15250	8901
3.15317	8897
3.15383	8894
3.15450	8890
3.15517	8887
3.15583	8883
3.15650	8880
3.15717	8877
3.15783	8874
3.15850	8871
3.15917	8868
3.15983	8865
3.16050	8862
3.16117	8859
3.16183	8857
3.16250	8854
3.16317	8851
3.16383	8849
3.16450	8846
3.16517	8844
3.16583	8842
3.16650	8839
3.16717	8837
3.16783	8835
3.16850	8833
3.16917	8830
3.16983	8828
3.17050	8826
3.17117	8824
3.17183	8822
3.17250	8820
3.17317	8818
3.17383	8817
3.17450	8815
3.17517	8813
3.17583	8811
3.17650	8810
3.17717	8808
3.17783	8807
3.17850	8805
3.17917	8804
3.17983	8803
3.18050	8801
3.18117	8800
3.18183	8799
3.18250	8798
3.18317	8797
3.18383	8796
3.18450	8795
3.18517	8794
3.18583	8793
3.18650	8792
3.18717	8791
3.18783	8790
3.18850	8789
3.18917	8788
3.18983	8787
3.19050	8787
3.19117	8786
3.19183	8785
3.19250	8785
3.19317	8784
3.19383	8784
3.19450	8783
3.19517	8783
3.19583	8782
3.19650	8782
3.19717	8782
3.19783	8782
3.19850	8781
3.19917	8781
3.19983	8781
3.20050	8781
3.20117	8781
3.20183	8781
3.20250	8781
3.20317	8781
3.20383	8781
3.20450	8782
3.20517	8782
3.20583	8782
3.20650	8782
3.20717	8782
3.20783	8782
3.20850	8783
3.20917	8783
3.20983	8783
3.21050	8784
3.21117	8784
3.21183	8784
3.21250	8785
3.21317	8785
3.21383	8786
3.21450	8786
3.21517	8787
3.21583	8787
3.21650	8788
3.21717	8789
3.21783	8789
3.21850	8790
3.21917	8791
3.21983	8792
3.22050	8792
3.22117	8793
3.22183	8794
3.22250	8795
3.22317	8796
3.22383	8797
3.22450	8798
3.22517	8799
3.22583	8801
3.22650	8802
3.22717	8803
3.22783	8804
3.22850	8805
3.22917	8807
3.22983	8808
3.23050	8809
3.23117	8810
3.23183	8812
3.23250	8813
3.23317	8815
3.23383	8816
3.23450	8817
3.23517	8819
3.23583	8820
3.23650	8822
3.23717	8824
3.23783	8825
3.23850	8827
3.23917	8828
3.23983	8830
3.24050	8831
3.24117	8833
3.24183	8834
3.24250	8836
3.24317	8838
3.24383	8839
3.24450	8841
3.24517	8843
3.24583	8845
3.24650	8847
3.24717	8848
3.24783	8850
3.24850	8852
3.24917	8854
3.24983	8856
3.25050	8858
3.25117	8860
3.25183	8862
3.25250	8863
3.25317	8865
3.25383	8867
3.25450	8869
3.25517	8870
3.25583	8872
3.25650	8874
3.25717	8876
3.25783	8877
3.25850	8879
3.25917	8881
3.25983	8883
3.26050	8885
3.26117	8886
3.26183	8888
3.26250	8890
3.26317	8892
3.26383	8894
3.26450	8896
3.26517	8898
3.26583	8900
3.26650	8902
3.26717	8904
3.26783	8906
3.26850	8908
3.26917	8910
3.26983	8912
3.27050	8914
3.27117	8916
3.27183	8918
3.27250	8920
3.27317	8922
3.27383	8924
3.27450	8926
3.27517	8928
3.27583	8930
3.27650	8932
3.27717	8934
3.27783	8936
3.27850	8938
3.27917	8940
3.27983	8942
3.28050	8944
3.28117	8946
3.28183	8948
3.28250	8950
3.28317	8952
3.28383	8954
3.28450	8956
3.28517	8958
3.28583	8960
3.28650	8962
3.28717	8964
3.28783	8966
3.28850	8968
3.28917	8970
3.28983	8972
3.29050	8975
3.29117	8977
3.29183	8979
3.29250	8981
3.29317	8984
3.29383	8986
3.29450	8988
3.29517	8990
3.29583	8993
3.29650	8995
3.29717	8997
3.29783	8999
3.29850	9002
3.29917	9004
3.29983	9006
3.30050	9008
3.30117	9011
3.30183	9013
3.30250	9015
3.30317	9018
3.30383	9020
3.30450	9023
3.30517	9025
3.30583	9027
3.30650	9030
3.30717	9032
3.30783	9034
3.30850	9037
3.30917	9039
3.30983	9041
3.31050	9044
3.31117	9046
3.31183	9048
3.31250	9050
3.31317	9053
3.31383	9055
3.31450	9057
3.31517	9059
3.31583	9061
3.31650	9064
3.31717	9066
3.31783	9068
3.31850	9070
3.31917	9072
3.31983	9074
3.32050	9076
3.32117	9078
3.32183	9080
3.32250	9082
3.32317	9084
3.32383	9086
3.32450	9088
3.32517	9090
3.32583	9092
3.32650	9094
3.32717	9095
3.32783	9097
3.32850	9099
3.32917	9101
3.32983	9103
3.33050	9105
3.33117	9106
3.33183	9108
3.33250	9110
3.33317	9112
3.33383	9113
3.33450	9115
3.33517	9116
3.33583	9118
3.33650	9119
3.33717	9121
3.33783	9123
3.33850	9124
3.33917	9125
3.33983	9127
3.34050	9128
3.34117	9130
3.34183	9131
3.34250	9133
3.34317	9134
3.34383	9135
3.34450	9136
3.34517	9138
3.34583	9139
3.34650	9140
3.34717	9141
3.34783	9143
3.34850	9144
3.34917	9145
3.34983	9146
3.35050	9147
3.35117	9148
3.35183	9149
3.35250	9150
3.35317	9151
3.35383	9152
3.35450	9153
3.35517	9154
3.35583	9155
3.35650	9156
3.35717	9157
3.35783	9157
3.35850	9158
3.35917	9159
3.35983	9160
3.36050	9160
3.36117	9161
3.36183	9161
3.36250	9162
3.36317	9162
3.36383	9163
3.36450	9163
3.36517	9163
3.36583	9163
3.36650	9163
3.36717	9164
3.36783	9164
3.36850	9164
3.36917	9164
3.36983	9164
3.37050	9164
3.37117	9163
3.37183	9163
3.37250	9163
3.37317	9163
3.37383	9163
3.37450	9162
3.37517	9162
3.37583	9162
3.37650	9161
3.37717	9161
3.37783	9160
3.37850	9160
3.37917	9159
3.37983	9158
3.38050	9158
3.38117	9157
3.38183	9156
3.38250	9155
3.38317	9154
3.38383	9153
3.38450	9152
3.38517	9151
3.38583	9150
3.38650	9149
3.38717	9148
3.38783	9147
3.38850	9146
3.38917	9144
3.38983	9143
3.39050	9142
3.39117	9141
3.39183	9139
3.39250	9138
3.39317	9136
3.39383	9135
3.39450	9133
3.39517	9132
3.39583	9130
3.39650	9129
3.39717	9127
3.39783	9125
3.39850	9124
3.39917	9122
3.39983	9120
3.40050	9118
3.40117	9117
3.40183	9115
3.40250	9113
3.40317	9111
3.40383	9109
3.40450	9107
3.40517	9105
3.40583	9103
3.40650	9100
3.40717	9098
3.40783	9096
3.40850	9094
3.40917	9092
3.40983	9090
3.41050	9087
3.41117	9085
3.41183	9083
3.41250	9081
3.41317	9078
3.41383	9076
3.41450	9074
3.41517	9072
3.41583	9069
3.41650	9067
3.41717	9064
3.41783	9062
3.41850	9059
3.41917	9057
3.41983	9055
3.42050	9052
3.42117	9050
3.42183	9047
3.42250	9045
3.42317	9042
3.42383	9039
3.42450	9037
3.42517	9034
3.42583	9031
3.42650	9029
3.42717	9026
3.42783	9023
3.42850	9020
3.42917	9017
3.42983	9015
3.43050	9012
3.43117	9009
3.43183	9006
3.43250	9003
3.43317	9001
3.43383	8998
3.43450	8995
3.43517	8992
3.43583	8990
3.43650	8987
3.43717	8984
3.43783	8981
3.43850	8978
3.43917	8975
3.43983	8972
3.44050	8970
3.44117	8967
3.44183	8964
3.44250	8961
3.44317	8958
3.44383	8956
3.44450	8953
3.44517	8950
3.44583	8947
3.44650	8944
3.44717	8942
3.44783	8939
3.44850	8936
3.44917	8934
3.44983	8931
3.45050	8929
3.45117	8926
3.45183	8923
3.45250	8921
3.45317	8918
3.45383	8916
3.45450	8913
3.45517	8911
3.45583	8909
3.45650	8906
3.45717	8904
3.45783	8902
3.45850	8899
3.45917	8897
3.45983	8895
3.46050	8893
3.46117	8891
3.46183	8889
3.46250	8887
3.46317	8885
3.46383	8883
3.46450	8881
3.46517	8879
3.46583	8877
3.46650	8875
3.46717	8873
3.46783	8872
3.46850	8870
3.46917	8868
3.46983	8867
3.47050	8865
3.47117	8864
3.47183	8862
3.47250	8861
3.47317	8860
3.47383	8858
3.47450	8857
3.47517	8856
3.47583	8855
3.47650	8854
3.47717	8852
3.47783	8852
3.47850	8851
3.47917	8850
3.47983	8849
3.48050	8848
3.48117	8848
3.48183	8847
3.48250	8847
3.48317	8846
3.48383	8846
3.48450	8845
3.48517	8845
3.48583	8845
3.48650	8845
3.48717	8845
3.48783	8845
3.48850	8846
3.48917	8846
3.48983	8846
3.49050	8847
3.49117	8848
3.49183	8848
3.49250	8849
3.49317	8850
3.49383	8851
3.49450	8853
3.49517	8854
3.49583	8856
3.49650	8857
3.49717	8859
3.49783	8861
3.49850	8864
3.49917	8866
3.49983	8869
3.50050	8872
3.50117	8875
3.50183	8879
3.50250	8883
3.50317	8887
3.50383	8892
3.50450	8896
3.50517	8902
3.50583	8907
3.50650	8913
3.50717	8919
3.50783	8926
3.50850	8933
3.50917	8941
3.50983	8949
3.51050	8958
3.51117	8967
3.51183	8976
3.51250	8986
3.51317	8997
3.51383	9008
3.51450	9020
3.51517	9032
3.51583	9046
3.51650	9059
3.51717	9074
3.51783	9089
3.51850	9105
3.51917	9121
3.51983	9138
3.52050	9156
3.52117	9175
3.52183	9195
3.52250	9215
3.52317	9236
3.52383	9258
3.52450	9281
3.52517	9305
3.52583	9330
3.52650	9355
3.52717	9382
3.52783	9409
3.52850	9437
3.52917	9467
3.52983	9497
3.53050	9528
3.53117	9560
3.53183	9593
3.53250	9627
3.53317	9662
3.53383	9698
3.53450	9734
3.53517	9772
3.53583	9811
3.53650	9850
3.53717	9891
3.53783	9932
3.53850	9975
3.53917	10018
3.53983	10062
3.54050	10107
3.54117	10153
3.54183	10200
3.54250	10248
3.54317	10297
3.54383	10346
3.54450	10396
3.54517	10447
3.54583	10498
3.54650	10550
3.54717	10603
3.54783	10656
3.54850	10710
3.54917	10764
3.54983	10819
3.55050	10874
3.55117	10930
3.55183	10986
3.55250	11042
3.55317	11099
3.55383	11155
3.55450	11213
3.55517	11270
3.55583	11328
3.55650	11385
3.55717	11443
3.55783	11501
3.55850	11559
3.55917	11617
3.55983	11675
3.56050	11733
3.56117	11791
3.56183	11849
3.56250	11907
3.56317	11964
3.56383	12021
3.56450	12078
3.56517	12135
3.56583	12191
3.56650	12247
3.56717	12302
3.56783	12358
3.56850	12412
3.56917	12467
3.56983	12521
3.57050	12574
3.57117	12627
3.57183	12679
3.57250	12731
3.57317	12782
3.57383	12832
3.57450	12882
3.57517	12931
3.57583	12980
3.57650	13028
3.57717	13075
3.57783	13121
3.57850	13167
3.57917	13212
3.57983	13256
3.58050	13300
3.58117	13344
3.58183	13386
3.58250	13428
3.58317	13470
3.58383	13511
3.58450	13551
3.58517	13591
3.58583	13630
3.58650	13669
3.58717	13708
3.58783	13745
3.58850	13783
3.58917	13820
3.58983	13856
3.59050	13892
3.59117	13928
3.59183	13963
3.59250	13997
3.59317	14032
3.59383	14066
3.59450	14099
3.59517	14132
3.59583	14164
3.59650	14197
3.59717	14228
3.59783	14259
3.59850	14290
3.59917	14320
3.59983	14350
3.60050	14379
3.60117	14408
3.60183	14436
3.60250	14464
3.60317	14491
3.60383	14518
3.60450	14544
3.60517	14569
3.60583	14594
3.60650	14619
3.60717	14642
3.60783	14665
3.60850	14688
3.60917	14709
3.60983	14730
3.61050	14750
3.61117	14769
3.61183	14788
3.61250	14805
3.61317	14822
3.61383	14837
3.61450	14852
3.61517	14865
3.61583	14878
3.61650	14889
3.61717	14899
3.61783	14908
3.61850	14916
3.61917	14923
3.61983	14929
3.62050	14933
3.62117	14936
3.62183	14938
3.62250	14938
3.62317	14937
3.62383	14935
3.62450	14931
3.62517	14926
3.62583	14920
3.62650	14912
3.62717	14903
3.62783	14893
3.62850	14881
3.62917	14868
3.62983	14853
3.63050	14837
3.63117	14820
3.63183	14801
3.63250	14781
3.63317	14759
3.63383	14736
3.63450	14712
3.63517	14686
3.63583	14659
3.63650	14630
3.63717	14600
3.63783	14569
3.63850	14536
3.63917	14503
3.63983	14467
3.64050	14431
3.64117	14393
3.64183	14354
3.64250	14314
3.64317	14273
3.64383	14231
3.64450	14188
3.64517	14144
3.64583	14098
3.64650	14052
3.64717	14005
3.64783	13957
3.64850	13908
3.64917	13858
3.64983	13807
3.65050	13756
3.65117	13704
3.65183	13651
3.65250	13597
3.65317	13544
3.65383	13489
3.65450	13434
3.65517	13379
3.65583	13323
3.65650	13266
3.65717	13210
3.65783	13153
3.65850	13095
3.65917	13038
3.65983	12980
3.66050	12922
3.66117	12864
3.66183	12806
3.66250	12747
3.66317	12689
3.66383	12631
3.66450	12572
3.66517	12514
3.66583	12456
3.66650	12397
3.66717	12339
3.66783	12282
3.66850	12224
3.66917	12167
3.66983	12110
3.67050	12053
3.67117	11996
3.67183	11940
3.67250	11884
3.67317	11829
3.67383	11774
3.67450	11719
3.67517	11665
3.67583	11612
3.67650	11558
3.67717	11505
3.67783	11453
3.67850	11401
3.67917	11350
3.67983	11299
3.68050	11249
3.68117	11199
3.68183	11150
3.68250	11101
3.68317	11053
3.68383	11006
3.68450	10959
3.68517	10912
3.68583	10867
3.68650	10821
3.68717	10777
3.68783	10733
3.68850	10689
3.68917	10646
3.68983	10604
3.69050	10562
3.69117	10521
3.69183	10480
3.69250	10440
3.69317	10401
3.69383	10362
3.69450	10324
3.69517	10286
3.69583	10249
3.69650	10213
3.69717	10177
3.69783	10141
3.69850	10107
3.69917	10073
3.69983	10039
3.70050	10006
3.70117	9974
3.70183	9942
3.70250	9910
3.70317	9880
3.70383	9849
3.70450	9819
3.70517	9790
3.70583	9761
3.70650	9733
3.70717	9705
3.70783	9678
3.70850	9651
3.70917	9624
3.70983	9598
3.71050	9573
3.71117	9547
3.71183	9523
3.71250	9498
3.71317	9474
3.71383	9451
3.71450	9428
3.71517	9405
3.71583	9383
3.71650	9361
3.71717	9339
3.71783	9318
3.71850	9297
3.71917	9276
3.71983	9256
3.72050	9236
3.72117	9216
3.72183	9197
3.72250	9178
3.72317	9159
3.72383	9141
3.72450	9122
3.72517	9104
3.72583	9087
3.72650	9069
3.72717	9052
3.72783	9035
3.72850	9018
3.72917	9001
3.72983	8985
3.73050	8969
3.73117	8953
3.73183	8937
3.73250	8921
3.73317	8906
3.73383	8891
3.73450	8876
3.73517	8861
3.73583	8846
3.73650	8832
3.73717	8817
3.73783	8803
3.73850	8789
3.73917	8776
3.73983	8762
3.74050	8749
3.74117	8735
3.74183	8722
3.74250	8709
3.74317	8697
3.74383	8684
3.74450	8671
3.74517	8659
3.74583	8647
3.74650	8635
3.74717	8623
3.74783	8611
3.74850	8600
3.74917	8588
3.74983	8577
3.75050	8566
3.75117	8555
3.75183	8544
3.75250	8533
3.75317	8522
3.75383	8512
3.75450	8501
3.75517	8491
3.75583	8480
3.75650	8470
3.75717	8460
3.75783	8450
3.75850	8440
3.75917	8431
3.75983	8421
3.76050	8411
3.76117	8402
3.76183	8392
3.76250	8383
3.76317	8373
3.76383	8364
3.76450	8355
3.76517	8346
3.76583	8337
3.76650	8328
3.76717	8319
3.76783	8311
3.76850	8302
3.76917	8293
3.76983	8285
3.77050	8277
3.77117	8268
3.77183	8260
3.77250	8252
3.77317	8244
3.77383	8236
3.77450	8229
3.77517	8221
3.77583	8213
3.77650	8206
3.77717	8198
3.77783	8191
3.77850	8183
3.77917	8176
3.77983	8169
3.78050	8161
3.78117	8154
3.78183	8147
3.78250	8140
3.78317	8133
3.78383	8126
3.78450	8119
3.78517	8112
3.78583	8105
3.78650	8099
3.78717	8092
3.78783	8086
3.78850	8079
3.78917	8073
3.78983	8066
3.79050	8060
3.79117	8054
3.79183	8048
3.79250	8042
3.79317	8036
3.79383	8030
3.79450	8024
3.79517	8018
3.79583	8012
3.79650	8007
3.79717	8001
3.79783	7996
3.79850	7990
3.79917	7985
3.79983	7979
3.80050	7974
3.80117	7968
3.80183	7963
3.80250	7958
3.80317	7952
3.80383	7947
3.80450	7942
3.80517	7937
3.80583	7932
3.80650	7927
3.80717	7922
3.80783	7917
3.80850	7912
3.80917	7907
3.80983	7902
3.81050	7897
3.81117	7893
3.81183	7888
3.81250	7883
3.81317	7879
3.81383	7874
3.81450	7869
3.81517	7865
3.81583	7860
3.81650	7856
3.81717	7852
3.81783	7847
3.81850	7843
3.81917	7838
3.81983	7834
3.82050	7830
3.82117	7826
3.82183	7821
3.82250	7817
3.82317	7813
3.82383	7809
3.82450	7805
3.82517	7801
3.82583	7797
3.82650	7793
3.82717	7789
3.82783	7785
3.82850	7781
3.82917	7777
3.82983	7773
3.83050	7769
3.83117	7765
3.83183	7761
3.83250	7757
3.83317	7753
3.83383	7749
3.83450	7745
3.83517	7742
3.83583	7738
3.83650	7734
3.83717	7730
3.83783	7727
3.83850	7723
3.83917	7719
3.83983	7716
3.84050	7712
3.84117	7708
3.84183	7705
3.84250	7701
3.84317	7698
3.84383	7694
3.84450	7691
3.84517	7687
3.84583	7684
3.84650	7680
3.84717	7677
3.84783	7674
3.84850	7670
3.84917	7667
3.84983	7664
3.85050	7661
3.85117	7658
3.85183	7655
3.85250	7652
3.85317	7649
3.85383	7646
3.85450	7643
3.85517	7640
3.85583	7637
3.85650	7635
3.85717	7632
3.85783	7629
3.85850	7626
3.85917	7623
3.85983	7620
3.86050	7618
3.86117	7615
3.86183	7612
3.86250	7609
3.86317	7607
3.86383	7604
3.86450	7601
3.86517	7599
3.86583	7596
3.86650	7593
3.86717	7591
3.86783	7588
3.86850	7586
3.86917	7583
3.86983	7580
3.87050	7578
3.87117	7575
3.87183	7573
3.87250	7570
3.87317	7567
3.87383	7565
3.87450	7562
3.87517	7560
3.87583	7557
3.87650	7555
3.87717	7552
3.87783	7550
3.87850	7547
3.87917	7545
3.87983	7542
3.88050	7540
3.88117	7537
3.88183	7534
3.88250	7532
3.88317	7529
3.88383	7526
3.88450	7523
3.88517	7521
3.88583	7518
3.88650	7515
3.88717	7512
3.88783	7510
3.88850	7507
3.88917	7504
3.88983	7501
3.89050	7499
3.89117	7496
3.89183	7493
3.89250	7491
3.89317	7488
3.89383	7486
3.89450	7483
3.89517	7480
3.89583	7478
3.89650	7475
3.89717	7473
3.89783	7470
3.89850	7468
3.89917	7465
3.89983	7463
3.90050	7460
3.90117	7458
3.90183	7455
3.90250	7453
3.90317	7450
3.90383	7448
3.90450	7446
3.90517	7443
3.90583	7441
3.90650	7438
3.90717	7436
3.90783	7434
3.90850	7431
3.90917	7429
3.90983	7427
3.91050	7424
3.91117	7422
3.91183	7420
3.91250	7417
3.91317	7415
3.91383	7413
3.91450	7411
3.91517	7408
3.91583	7406
3.91650	7404
3.91717	7402
3.91783	7400
3.91850	7398
3.91917	7396
3.91983	7393
3.92050	7391
3.92117	7389
3.92183	7387
3.92250	7385
3.92317	7383
3.92383	7381
3.92450	7379
3.92517	7377
3.92583	7376
3.92650	7374
3.92717	7372
3.92783	7370
3.92850	7368
3.92917	7366
3.92983	7364
3.93050	7363
3.93117	7361
3.93183	7359
3.93250	7357
3.93317	7355
3.93383	7353
3.93450	7352
3.93517	7350
3.93583	7348
3.93650	7346
3.93717	7345
3.93783	7343
3.93850	7341
3.93917	7339
3.93983	7337
3.94050	7336
3.94117	7334
3.94183	7332
3.94250	7330
3.94317	7329
3.94383	7327
3.94450	7325
3.94517	7324
3.94583	7322
3.94650	7320
3.94717	7319
3.94783	7317
3.94850	7316
3.94917	7314
3.94983	7312
3.95050	7311
3.95117	7309
3.95183	7308
3.95250	7306
3.95317	7305
3.95383	7303
3.95450	7302
3.95517	7300
3.95583	7299
3.95650	7297
3.95717	7296
3.95783	7295
3.95850	7293
3.95917	7292
3.95983	7290
3.96050	7289
3.96117	7288
3.96183	7286
3.96250	7285
3.96317	7284
3.96383	7283
3.96450	7281
3.96517	7280
3.96583	7279
3.96650	7277
3.96717	7276
3.96783	7275
3.96850	7274
3.96917	7273
3.96983	7271
3.97050	7270
3.97117	7269
3.97183	7268
3.97250	7267
3.97317	7265
3.97383	7264
3.97450	7263
3.97517	7262
3.97583	7261
3.97650	7260
3.97717	7259
3.97783	7257
3.97850	7256
3.97917	7255
3.97983	7254
3.98050	7253
3.98117	7252
3.98183	7251
3.98250	7250
3.98317	7249
3.98383	7248
3.98450	7247
3.98517	7246
3.98583	7245
3.98650	7245
3.98717	7244
3.98783	7243
3.98850	7242
3.98917	7241
3.98983	7240
3.99050	7240
3.99117	7239
3.99183	7238
3.99250	7237
3.99317	7237
3.99383	7236
3.99450	7236
3.99517	7235
3.99583	7234
3.99650	7234
3.99717	7233
3.99783	7233
3.99850	7232
3.99917	7232
3.99983	7231
4.00050	7231
4.00117	7230
4.00183	7230
4.00250	7230
4.00317	7229
4.00383	7229
4.00450	7228
4.00517	7228
4.00583	7228
4.00650	7227
4.00717	7227
4.00783	7227
4.00850	7227
4.00917	7226
4.00983	7226
4.01050	7226
4.01117	7226
4.01183	7226
4.01250	7226
4.01317	7226
4.01383	7226
4.01450	7226
4.01517	7226
4.01583	7227
4.01650	7227
4.01717	7227
4.01783	7228
4.01850	7228
4.01917	7228
4.01983	7229
4.02050	7230
4.02117	7230
4.02183	7231
4.02250	7232
4.02317	7232
4.02383	7233
4.02450	7234
4.02517	7235
4.02583	7236
4.02650	7237
4.02717	7238
4.02783	7239
4.02850	7240
4.02917	7241
4.02983	7242
4.03050	7243
4.03117	7245
4.03183	7246
4.03250	7247
4.03317	7249
4.03383	7250
4.03450	7252
4.03517	7254
4.03583	7255
4.03650	7257
4.03717	7259
4.03783	7261
4.03850	7262
4.03917	7264
4.03983	7266
4.04050	7268
4.04117	7271
4.04183	7273
4.04250	7275
4.04317	7277
4.04383	7280
4.04450	7282
4.04517	7285
4.04583	7287
4.04650	7290
4.04717	7293
4.04783	7295
4.04850	7298
4.04917	7301
4.04983	7304
4.05050	7307
4.05117	7309
4.05183	7312
4.05250	7315
4.05317	7318
4.05383	7322
4.05450	7325
4.05517	7328
4.05583	7331
4.05650	7335
4.05717	7338
4.05783	7342
4.05850	7345
4.05917	7349
4.05983	7352
4.06050	7356
4.06117	7359
4.06183	7363
4.06250	7367
4.06317	7370
4.06383	7374
4.06450	7378
4.06517	7381
4.06583	7385
4.06650	7389
4.06717	7393
4.06783	7397
4.06850	7400
4.06917	7404
4.06983	7408
4.07050	7412
4.07117	7416
4.07183	7419
4.07250	7423
4.07317	7427
4.07383	7431
4.07450	7435
4.07517	7439
4.07583	7443
4.07650	7446
4.07717	7450
4.07783	7454
4.07850	7458
4.07917	7462
4.07983	7466
4.08050	7470
4.08117	7474
4.08183	7478
4.08250	7482
4.08317	7485
4.08383	7489
4.08450	7493
4.08517	7497
4.08583	7500
4.08650	7504
4.08717	7508
4.08783	7512
4.08850	7515
4.08917	7519
4.08983	7523
4.09050	7527
4.09117	7531
4.09183	7534
4.09250	7538
4.09317	7542
4.09383	7546
4.09450	7550
4.09517	7553
4.09583	7557
4.09650	7561
4.09717	7565
4.09783	7568
4.09850	7572
4.09917	7576
4.09983	7579
4.10050	7583
4.10117	7586
4.10183	7590
4.10250	7594
4.10317	7597
4.10383	7601
4.10450	7605
4.10517	7608
4.10583	7612
4.10650	7615
4.10717	7619
4.10783	7622
4.10850	7626
4.10917	7630
4.10983	7633
4.11050	7637
4.11117	7640
4.11183	7644
4.11250	7648
4.11317	7651
4.11383	7655
4.11450	7659
4.11517	7662
4.11583	7666
4.11650	7670
4.11717	7673
4.11783	7677
4.11850	7681
4.11917	7685
4.11983	7689
4.12050	7692
4.12117	7696
4.12183	7700
4.12250	7704
4.12317	7708
4.12383	7712
4.12450	7716
4.12517	7720
4.12583	7725
4.12650	7729
4.12717	7733
4.12783	7738
4.12850	7742
4.12917	7746
4.12983	7751
4.13050	7755
4.13117	7760
4.13183	7764
4.13250	7769
4.13317	7774
4.13383	7779
4.13450	7784
4.13517	7789
4.13583	7794
4.13650	7799
4.13717	7804
4.13783	7810
4.13850	7815
4.13917	7821
4.13983	7827
4.14050	7832
4.14117	7838
4.14183	7844
4.14250	7851
4.14317	7857
4.14383	7863
4.14450	7870
4.14517	7877
4.14583	7884
4.14650	7891
4.14717	7899
4.14783	7906
4.14850	7914
4.14917	7922
4.14983	7930
4.15050	7938
4.15117	7947
4.15183	7956
4.15250	7964
4.15317	7973
4.15383	7983
4.15450	7992
4.15517	8002
4.15583	8012
4.15650	8022
4.15717	8032
4.15783	8043
4.15850	8054
4.15917	8065
4.15983	8076
4.16050	8088
4.16117	8100
4.16183	8112
4.16250	8125
4.16317	8138
4.16383	8151
4.16450	8164
4.16517	8178
4.16583	8192
4.16650	8206
4.16717	8221
4.16783	8236
4.16850	8252
4.16917	8267
4.16983	8283
4.17050	8300
4.17117	8317
4.17183	8334
4.17250	8352
4.17317	8370
4.17383	8389
4.17450	8408
4.17517	8427
4.17583	8447
4.17650	8467
4.17717	8488
4.17783	8509
4.17850	8530
4.17917	8552
4.17983	8575
4.18050	8598
4.18117	8622
4.18183	8646
4.18250	8670
4.18317	8696
4.18383	8721
4.18450	8748
4.18517	8775
4.18583	8802
4.18650	8830
4.18717	8859
4.18783	8888
4.18850	8918
4.18917	8949
4.18983	8980
4.19050	9012
4.19117	9045
4.19183	9078
4.19250	9112
4.19317	9146
4.19383	9182
4.19450	9218
4.19517	9254
4.19583	9292
4.19650	9330
4.19717	9369
4.19783	9409
4.19850	9449
4.19917	9491
4.19983	9533
4.20050	9576
4.20117	9621
4.20183	9666
4.20250	9712
4.20317	9759
4.20383	9807
4.20450	9856
4.20517	9907
4.20583	9958
4.20650	10011
4.20717	10064
4.20783	10119
4.20850	10176
4.20917	10233
4.20983	10292
4.21050	10352
4.21117	10413
4.21183	10476
4.21250	10540
4.21317	10606
4.21383	10673
4.21450	10741
4.21517	10812
4.21583	10883
4.21650	10956
4.21717	11031
4.21783	11108
4.21850	11186
4.21917	11265
4.21983	11346
4.22050	11429
4.22117	11514
4.22183	11601
4.22250	11689
4.22317	11779
4.22383	11871
4.22450	11965
4.22517	12060
4.22583	12158
4.22650	12258
4.22717	12360
4.22783	12465
4.22850	12571
4.22917	12680
4.22983	12792
4.23050	12905
4.23117	13021
4.23183	13139
4.23250	13260
4.23317	13383
4.23383	13509
4.23450	13637
4.23517	13768
4.23583	13901
4.23650	14037
4.23717	14176
4.23783	14317
4.23850	14461
4.23917	14608
4.23983	14758
4.24050	14910
4.24117	15065
4.24183	15222
4.24250	15382
4.24317	15545
4.24383	15710
4.24450	15879
4.24517	16050
4.24583	16223
4.24650	16399
4.24717	16578
4.24783	16760
4.24850	16944
4.24917	17130
4.24983	17319
4.25050	17511
4.25117	17706
4.25183	17903
4.25250	18103
4.25317	18306
4.25383	18512
4.25450	18720
4.25517	18932
4.25583	19146
4.25650	19363
4.25717	19583
4.25783	19806
4.25850	20031
4.25917	20259
4.25983	20489
4.26050	20722
4.26117	20957
4.26183	21194
4.26250	21433
4.26317	21675
4.26383	21918
4.26450	22163
4.26517	22410
4.26583	22658
4.26650	22907
4.26717	23158
4.26783	23410
4.26850	23663
4.26917	23916
4.26983	24170
4.27050	24424
4.27117	24679
4.27183	24934
4.27250	25189
4.27317	25445
4.27383	25700
4.27450	25955
4.27517	26210
4.27583	26465
4.27650	26720
4.27717	26975
4.27783	27229
4.27850	27483
4.27917	27736
4.27983	27989
4.28050	28241
4.28117	28492
4.28183	28742
4.28250	28992
4.28317	29240
4.28383	29488
4.28450	29734
4.28517	29978
4.28583	30221
4.28650	30462
4.28717	30702
4.28783	30939
4.28850	31175
4.28917	31409
4.28983	31641
4.29050	31870
4.29117	32098
4.29183	32324
4.29250	32547
4.29317	32769
4.29383	32988
4.29450	33205
4.29517	33419
4.29583	33631
4.29650	33840
4.29717	34046
4.29783	34249
4.29850	34450
4.29917	34647
4.29983	34842
4.30050	35033
4.30117	35220
4.30183	35404
4.30250	35585
4.30317	35762
4.30383	35936
4.30450	36105
4.30517	36272
4.30583	36434
4.30650	36593
4.30717	36748
4.30783	36899
4.30850	37046
4.30917	37189
4.30983	37327
4.31050	37462
4.31117	37593
4.31183	37720
4.31250	37842
4.31317	37961
4.31383	38076
4.31450	38186
4.31517	38293
4.31583	38395
4.31650	38494
4.31717	38589
4.31783	38679
4.31850	38766
4.31917	38848
4.31983	38927
4.32050	39002
4.32117	39073
4.32183	39139
4.32250	39202
4.32317	39261
4.32383	39316
4.32450	39368
4.32517	39415
4.32583	39458
4.32650	39498
4.32717	39533
4.32783	39564
4.32850	39592
4.32917	39615
4.32983	39634
4.33050	39649
4.33117	39660
4.33183	39666
4.33250	39669
4.33317	39667
4.33383	39662
4.33450	39652
4.33517	39638
4.33583	39620
4.33650	39598
4.33717	39571
4.33783	39541
4.33850	39506
4.33917	39468
4.33983	39426
4.34050	39380
4.34117	39329
4.34183	39275
4.34250	39218
4.34317	39156
4.34383	39090
4.34450	39021
4.34517	38947
4.34583	38869
4.34650	38788
4.34717	38702
4.34783	38613
4.34850	38520
4.34917	38423
4.34983	38322
4.35050	38217
4.35117	38108
4.35183	37996
4.35250	37881
4.35317	37761
4.35383	37638
4.35450	37512
4.35517	37383
4.35583	37250
4.35650	37115
4.35717	36977
4.35783	36835
4.35850	36691
4.35917	36545
4.35983	36396
4.36050	36245
4.36117	36091
4.36183	35935
4.36250	35777
4.36317	35617
4.36383	35456
4.36450	35292
4.36517	35127
4.36583	34960
4.36650	34792
4.36717	34622
4.36783	34451
4.36850	34278
4.36917	34104
4.36983	33929
4.37050	33753
4.37117	33575
4.37183	33397
4.37250	33219
4.37317	33039
4.37383	32859
4.37450	32678
4.37517	32497
4.37583	32316
4.37650	32135
4.37717	31953
4.37783	31771
4.37850	31589
4.37917	31407
4.37983	31226
4.38050	31044
4.38117	30863
4.38183	30683
4.38250	30503
4.38317	30323
4.38383	30145
4.38450	29967
4.38517	29791
4.38583	29615
4.38650	29441
4.38717	29267
4.38783	29095
4.38850	28924
4.38917	28754
4.38983	28585
4.39050	28418
4.39117	28253
4.39183	28089
4.39250	27927
4.39317	27766
4.39383	27607
4.39450	27450
4.39517	27294
4.39583	27141
4.39650	26989
4.39717	26839
4.39783	26692
4.39850	26546
4.39917	26403
4.39983	26261
4.40050	26122
4.40117	25985
4.40183	25850
4.40250	25718
4.40317	25588
4.40383	25460
4.40450	25334
4.40517	25210
4.40583	25089
4.40650	24970
4.40717	24854
4.40783	24739
4.40850	24627
4.40917	24517
4.40983	24410
4.41050	24305
4.41117	24202
4.41183	24101
4.41250	24002
4.41317	23906
4.41383	23812
4.41450	23720
4.41517	23630
4.41583	23542
4.41650	23456
4.41717	23372
4.41783	23291
4.41850	23211
4.41917	23133
4.41983	23057
4.42050	22983
4.42117	22911
4.42183	22840
4.42250	22772
4.42317	22705
4.42383	22639
4.42450	22576
4.42517	22514
4.42583	22453
4.42650	22394
4.42717	22336
4.42783	22280
4.42850	22225
4.42917	22171
4.42983	22119
4.43050	22068
4.43117	22018
4.43183	21969
4.43250	21921
4.43317	21875
4.43383	21829
4.43450	21785
4.43517	21741
4.43583	21699
4.43650	21657
4.43717	21616
4.43783	21576
4.43850	21536
4.43917	21497
4.43983	21459
4.44050	21421
4.44117	21383
4.44183	21346
4.44250	21310
4.44317	21274
4.44383	21238
4.44450	21203
4.44517	21168
4.44583	21133
4.44650	21099
4.44717	21064
4.44783	21030
4.44850	20996
4.44917	20963
4.44983	20929
4.45050	20895
4.45117	20862
4.45183	20828
4.45250	20794
4.45317	20760
4.45383	20726
4.45450	20691
4.45517	20657
4.45583	20622
4.45650	20586
4.45717	20550
4.45783	20514
4.45850	20478
4.45917	20441
4.45983	20404
4.46050	20366
4.46117	20327
4.46183	20289
4.46250	20249
4.46317	20209
4.46383	20169
4.46450	20127
4.46517	20086
4.46583	20043
4.46650	20000
4.46717	19956
4.46783	19911
4.46850	19866
4.46917	19820
4.46983	19774
4.47050	19726
4.47117	19679
4.47183	19630
4.47250	19581
4.47317	19532
4.47383	19481
4.47450	19430
4.47517	19379
4.47583	19327
4.47650	19274
4.47717	19221
4.47783	19168
4.47850	19114
4.47917	19059
4.47983	19004
4.48050	18948
4.48117	18893
4.48183	18836
4.48250	18780
4.48317	18723
4.48383	18666
4.48450	18608
4.48517	18551
4.48583	18493
4.48650	18435
4.48717	18376
4.48783	18318
4.48850	18259
4.48917	18200
4.48983	18140
4.49050	18081
4.49117	18021
4.49183	17961
4.49250	17902
4.49317	17842
4.49383	17781
4.49450	17721
4.49517	17661
4.49583	17601
4.49650	17540
4.49717	17480
4.49783	17420
4.49850	17360
4.49917	17299
4.49983	17239
4.50050	17179
4.50117	17120
4.50183	17060
4.50250	17001
4.50317	16942
4.50383	16883
4.50450	16824
4.50517	16766
4.50583	16708
4.50650	16651
4.50717	16594
4.50783	16537
4.50850	16481
4.50917	16426
4.50983	16371
4.51050	16317
4.51117	16263
4.51183	16209
4.51250	16157
4.51317	16105
4.51383	16054
4.51450	16003
4.51517	15953
4.51583	15904
4.51650	15856
4.51717	15808
4.51783	15761
4.51850	15716
4.51917	15671
4.51983	15627
4.52050	15585
4.52117	15543
4.52183	15503
4.52250	15463
4.52317	15425
4.52383	15388
4.52450	15352
4.52517	15317
4.52583	15284
4.52650	15251
4.52717	15220
4.52783	15190
4.52850	15161
4.52917	15134
4.52983	15108
4.53050	15083
4.53117	15060
4.53183	15038
4.53250	15017
4.53317	14998
4.53383	14980
4.53450	14963
4.53517	14948
4.53583	14935
4.53650	14923
4.53717	14912
4.53783	14903
4.53850	14896
4.53917	14890
4.53983	14886
4.54050	14883
4.54117	14882
4.54183	14882
4.54250	14884
4.54317	14888
4.54383	14893
4.54450	14900
4.54517	14909
4.54583	14919
4.54650	14931
4.54717	14944
4.54783	14959
4.54850	14976
4.54917	14994
4.54983	15014
4.55050	15036
4.55117	15059
4.55183	15084
4.55250	15111
4.55317	15139
4.55383	15169
4.55450	15200
4.55517	15233
4.55583	15268
4.55650	15304
4.55717	15341
4.55783	15380
4.55850	15421
4.55917	15463
4.55983	15506
4.56050	15552
4.56117	15598
4.56183	15646
4.56250	15696
4.56317	15746
4.56383	15799
4.56450	15852
4.56517	15907
4.56583	15963
4.56650	16021
4.56717	16079
4.56783	16139
4.56850	16200
4.56917	16261
4.56983	16324
4.57050	16387
4.57117	16452
4.57183	16517
4.57250	16582
4.57317	16649
4.57383	16716
4.57450	16783
4.57517	16851
4.57583	16919
4.57650	16988
4.57717	17057
4.57783	17126
4.57850	17196
4.57917	17265
4.57983	17335
4.58050	17405
4.58117	17474
4.58183	17544
4.58250	17613
4.58317	17682
4.58383	17751
4.58450	17820
4.58517	17888
4.58583	17956
4.58650	18023
4.58717	18090
4.58783	18156
4.58850	18222
4.58917	18287
4.58983	18352
4.59050	18416
4.59117	18479
4.59183	18541
4.59250	18603
4.59317	18664
4.59383	18724
4.59450	18783
4.59517	18842
4.59583	18899
4.59650	18956
4.59717	19011
4.59783	19065
4.59850	19118
4.59917	19170
4.59983	19221
4.60050	19270
4.60117	19318
4.60183	19365
4.60250	19410
4.60317	19453
4.60383	19496
4.60450	19536
4.60517	19575
4.60583	19613
4.60650	19649
4.60717	19683
4.60783	19716
4.60850	19747
4.60917	19777
4.60983	19805
4.61050	19832
4.61117	19857
4.61183	19880
4.61250	19901
4.61317	19921
4.61383	19939
4.61450	19956
4.61517	19970
4.61583	19983
4.61650	19994
4.61717	20003
4.61783	20011
4.61850	20017
4.61917	20021
4.61983	20024
4.62050	20025
4.62117	20024
4.62183	20022
4.62250	20019
4.62317	20014
4.62383	20007
4.62450	19999
4.62517	19990
4.62583	19979
4.62650	19967
4.62717	19954
4.62783	19939
4.62850	19923
4.62917	19905
4.62983	19886
4.63050	19867
4.63117	19845
4.63183	19823
4.63250	19800
4.63317	19775
4.63383	19749
4.63450	19723
4.63517	19695
4.63583	19666
4.63650	19636
4.63717	19605
4.63783	19574
4.63850	19541
4.63917	19508
4.63983	19473
4.64050	19438
4.64117	19402
4.64183	19366
4.64250	19329
4.64317	19291
4.64383	19252
4.64450	19213
4.64517	19173
4.64583	19133
4.64650	19092
4.64717	19050
4.64783	19008
4.64850	18965
4.64917	18922
4.64983	18878
4.65050	18834
4.65117	18790
4.65183	18745
4.65250	18699
4.65317	18654
4.65383	18608
4.65450	18562
4.65517	18515
4.65583	18469
4.65650	18422
4.65717	18374
4.65783	18327
4.65850	18279
4.65917	18231
4.65983	18183
4.66050	18135
4.66117	18087
4.66183	18039
4.66250	17990
4.66317	17942
4.66383	17893
4.66450	17845
4.66517	17796
4.66583	17748
4.66650	17699
4.66717	17650
4.66783	17602
4.66850	17553
4.66917	17505
4.66983	17456
4.67050	17408
4.67117	17359
4.67183	17311
4.67250	17263
4.67317	17215
4.67383	17167
4.67450	17120
4.67517	17072
4.67583	17025
4.67650	16978
4.67717	16931
4.67783	16884
4.67850	16837
4.67917	16791
4.67983	16745
4.68050	16700
4.68117	16654
4.68183	16609
4.68250	16564
4.68317	16520
4.68383	16476
4.68450	16432
4.68517	16388
4.68583	16345
4.68650	16302
4.68717	16259
4.68783	16217
4.68850	16175
4.68917	16133
4.68983	16091
4.69050	16050
4.69117	16008
4.69183	15967
4.69250	15927
4.69317	15886
4.69383	15846
4.69450	15807
4.69517	15767
4.69583	15728
4.69650	15689
4.69717	15650
4.69783	15612
4.69850	15574
4.69917	15536
4.69983	15499
4.70050	15462
4.70117	15425
4.70183	15388
4.70250	15352
4.70317	15316
4.70383	15280
4.70450	15245
4.70517	15210
4.70583	15175
4.70650	15141
4.70717	15107
4.70783	15073
4.70850	15040
4.70917	15007
4.70983	14974
4.71050	14941
4.71117	14909
4.71183	14878
4.71250	14846
4.71317	14815
4.71383	14784
4.71450	14754
4.71517	14724
4.71583	14694
4.71650	14665
4.71717	14636
4.71783	14607
4.71850	14579
4.71917	14551
4.71983	14523
4.72050	14495
4.72117	14468
4.72183	14441
4.72250	14415
4.72317	14389
4.72383	14363
4.72450	14337
4.72517	14312
4.72583	14287
4.72650	14262
4.72717	14238
4.72783	14214
4.72850	14190
4.72917	14166
4.72983	14143
4.73050	14119
4.73117	14097
4.73183	14074
4.73250	14051
4.73317	14029
4.73383	14007
4.73450	13986
4.73517	13965
4.73583	13943
4.73650	13923
4.73717	13902
4.73783	13882
4.73850	13861
4.73917	13841
4.73983	13821
4.74050	13802
4.74117	13782
4.74183	13763
4.74250	13744
4.74317	13725
4.74383	13707
4.74450	13688
4.74517	13670
4.74583	13652
4.74650	13634
4.74717	13616
4.74783	13599
4.74850	13581
4.74917	13564
4.74983	13547
4.75050	13530
4.75117	13513
4.75183	13497
4.75250	13480
4.75317	13464
4.75383	13448
4.75450	13432
4.75517	13416
4.75583	13401
4.75650	13385
4.75717	13369
4.75783	13354
4.75850	13339
4.75917	13324
4.75983	13308
4.76050	13293
4.76117	13278
4.76183	13263
4.76250	13249
4.76317	13234
4.76383	13219
4.76450	13205
4.76517	13190
4.76583	13176
4.76650	13161
4.76717	13147
4.76783	13133
4.76850	13119
4.76917	13105
4.76983	13091
4.77050	13077
4.77117	13064
4.77183	13050
4.77250	13036
4.77317	13023
4.77383	13009
4.77450	12996
4.77517	12983
4.77583	12969
4.77650	12956
4.77717	12943
4.77783	12930
4.77850	12917
4.77917	12905
4.77983	12892
4.78050	12880
4.78117	12867
4.78183	12855
4.78250	12843
4.78317	12831
4.78383	12819
4.78450	12806
4.78517	12795
4.78583	12783
4.78650	12771
4.78717	12759
4.78783	12748
4.78850	12736
4.78917	12725
4.78983	12713
4.79050	12702
4.79117	12691
4.79183	12680
4.79250	12669
4.79317	12658
4.79383	12647
4.79450	12636
4.79517	12625
4.79583	12614
4.79650	12603
4.79717	12592
4.79783	12582
4.79850	12571
4.79917	12560
4.79983	12550
4.80050	12539
4.80117	12529
4.80183	12518
4.80250	12508
4.80317	12497
4.80383	12487
4.80450	12477
4.80517	12466
4.80583	12456
4.80650	12446
4.80717	12436
4.80783	12426
4.80850	12416
4.80917	12406
4.80983	12397
4.81050	12387
4.81117	12378
4.81183	12368
4.81250	12359
4.81317	12349
4.81383	12340
4.81450	12331
4.81517	12321
4.81583	12312
4.81650	12303
4.81717	12294
4.81783	12285
4.81850	12276
4.81917	12267
4.81983	12258
4.82050	12249
4.82117	12240
4.82183	12231
4.82250	12223
4.82317	12214
4.82383	12205
4.82450	12196
4.82517	12187
4.82583	12179
4.82650	12170
4.82717	12161
4.82783	12153
4.82850	12144
4.82917	12135
4.82983	12127
4.83050	12118
4.83117	12110
4.83183	12101
4.83250	12093
4.83317	12084
4.83383	12076
4.83450	12067
4.83517	12059
4.83583	12051
4.83650	12043
4.83717	12034
4.83783	12026
4.83850	12018
4.83917	12010
4.83983	12002
4.84050	11994
4.84117	11986
4.84183	11978
4.84250	11971
4.84317	11963
4.84383	11955
4.84450	11948
4.84517	11940
4.84583	11933
4.84650	11926
4.84717	11918
4.84783	11911
4.84850	11904
4.84917	11897
4.84983	11890
4.85050	11882
4.85117	11875
4.85183	11868
4.85250	11861
4.85317	11854
4.85383	11847
4.85450	11839
4.85517	11832
4.85583	11825
4.85650	11818
4.85717	11810
4.85783	11803
4.85850	11796
4.85917	11789
4.85983	11781
4.86050	11774
4.86117	11767
4.86183	11760
4.86250	11752
4.86317	11745
4.86383	11738
4.86450	11731
4.86517	11724
4.86583	11716
4.86650	11709
4.86717	11702
4.86783	11695
4.86850	11688
4.86917	11681
4.86983	11674
4.87050	11667
4.87117	11660
4.87183	11653
4.87250	11646
4.87317	11639
4.87383	11632
4.87450	11625
4.87517	11618
4.87583	11611
4.87650	11605
4.87717	11598
4.87783	11591
4.87850	11585
4.87917	11578
4.87983	11571
4.88050	11564
4.88117	11558
4.88183	11551
4.88250	11544
4.88317	11538
4.88383	11531
4.88450	11524
4.88517	11518
4.88583	11511
4.88650	11504
4.88717	11498
4.88783	11491
4.88850	11485
4.88917	11478
4.88983	11472
4.89050	11465
4.89117	11459
4.89183	11453
4.89250	11446
4.89317	11440
4.89383	11433
4.89450	11427
4.89517	11421
4.89583	11414
4.89650	11408
4.89717	11402
4.89783	11395
4.89850	11389
4.89917	11383
4.89983	11377
4.90050	11370
4.90117	11364
4.90183	11358
4.90250	11352
4.90317	11346
4.90383	11339
4.90450	11333
4.90517	11327
4.90583	11321
4.90650	11315
4.90717	11308
4.90783	11302
4.90850	11296
4.90917	11290
4.90983	11283
4.91050	11277
4.91117	11271
4.91183	11265
4.91250	11258
4.91317	11252
4.91383	11246
4.91450	11240
4.91517	11233
4.91583	11227
4.91650	11221
4.91717	11215
4.91783	11209
4.91850	11203
4.91917	11197
4.91983	11191
4.92050	11185
4.92117	11179
4.92183	11173
4.92250	11168
4.92317	11162
4.92383	11156
4.92450	11151
4.92517	11145
4.92583	11139
4.92650	11134
4.92717	11128
4.92783	11123
4.92850	11117
4.92917	11112
4.92983	11106
4.93050	11101
4.93117	11096
4.93183	11090
4.93250	11085
4.93317	11080
4.93383	11075
4.93450	11070
4.93517	11064
4.93583	11059
4.93650	11054
4.93717	11049
4.93783	11044
4.93850	11039
4.93917	11033
4.93983	11028
4.94050	11023
4.94117	11018
4.94183	11012
4.94250	11007
4.94317	11002
4.94383	10997
4.94450	10992
4.94517	10987
4.94583	10982
4.94650	10977
4.94717	10972
4.94783	10968
4.94850	10963
4.94917	10958
4.94983	10953
4.95050	10949
4.95117	10944
4.95183	10940
4.95250	10935
4.95317	10931
4.95383	10926
4.95450	10922
4.95517	10917
4.95583	10913
4.95650	10908
4.95717	10904
4.95783	10899
4.95850	10894
4.95917	10890
4.95983	10885
4.96050	10880
4.96117	10876
4.96183	10871
4.96250	10866
4.96317	10862
4.96383	10857
4.96450	10853
4.96517	10848
4.96583	10843
4.96650	10839
4.96717	10834
4.96783	10830
4.96850	10825
4.96917	10821
4.96983	10816
4.97050	10811
4.97117	10807
4.97183	10802
4.97250	10797
4.97317	10793
4.97383	10788
4.97450	10783
4.97517	10779
4.97583	10774
4.97650	10770
4.97717	10765
4.97783	10760
4.97850	10755
4.97917	10751
4.97983	10746
4.98050	10741
4.98117	10736
4.98183	10731
4.98250	10726
4.98317	10721
4.98383	10716
4.98450	10711
4.98517	10705
4.98583	10700
4.98650	10695
4.98717	10690
4.98783	10684
4.98850	10679
4.98917	10674
4.98983	10669
4.99050	10663
4.99117	10658
4.99183	10653
4.99250	10647
4.99317	10642
4.99383	10636
4.99450	10631
4.99517	10625
4.99583	10620
4.99650	10614
4.99717	10609
4.99783	10604
4.99850	10599
4.99917	10594
4.99983	10589
5.00050	10584
5.00117	10579
5.00183	10574
5.00250	10569
5.00317	10564
5.00383	10560
5.00450	10555
5.00517	10550
5.00583	10545
5.00650	10541
5.00717	10536
5.00783	10531
5.00850	10526
5.00917	10522
5.00983	10517
5.01050	10512
5.01117	10508
5.01183	10503
5.01250	10499
5.01317	10494
5.01383	10490
5.01450	10485
5.01517	10480
5.01583	10476
5.01650	10471
5.01717	10467
5.01783	10462
5.01850	10458
5.01917	10453
5.01983	10448
5.02050	10444
5.02117	10439
5.02183	10435
5.02250	10430
5.02317	10426
5.02383	10421
5.02450	10417
5.02517	10413
5.02583	10408
5.02650	10404
5.02717	10399
5.02783	10395
5.02850	10390
5.02917	10386
5.02983	10381
5.03050	10377
5.03117	10373
5.03183	10368
5.03250	10364
5.03317	10360
5.03383	10356
5.03450	10351
5.03517	10347
5.03583	10343
5.03650	10339
5.03717	10335
5.03783	10331
5.03850	10327
5.03917	10323
5.03983	10318
5.04050	10314
5.04117	10310
5.04183	10306
5.04250	10302
5.04317	10298
5.04383	10293
5.04450	10289
5.04517	10285
5.04583	10281
5.04650	10277
5.04717	10272
5.04783	10268
5.04850	10264
5.04917	10260
5.04983	10256
5.05050	10252
5.05117	10247
5.05183	10243
5.05250	10239
5.05317	10235
5.05383	10231
5.05450	10227
5.05517	10222
5.05583	10218
5.05650	10214
5.05717	10210
5.05783	10206
5.05850	10202
5.05917	10198
5.05983	10194
5.06050	10190
5.06117	10186
5.06183	10182
5.06250	10178
5.06317	10174
5.06383	10170
5.06450	10165
5.06517	10161
5.06583	10157
5.06650	10153
5.06717	10149
5.06783	10145
5.06850	10140
5.06917	10136
5.06983	10132
5.07050	10128
5.07117	10124
5.07183	10120
5.07250	10116
5.07317	10112
5.07383	10108
5.07450	10104
5.07517	10100
5.07583	10096
5.07650	10092
5.07717	10089
5.07783	10085
5.07850	10081
5.07917	10078
5.07983	10074
5.08050	10071
5.08117	10068
5.08183	10064
5.08250	10061
5.08317	10058
5.08383	10055
5.08450	10052
5.08517	10050
5.08583	10047
5.08650	10044
5.08717	10042
5.08783	10039
5.08850	10036
5.08917	10034
5.08983	10032
5.09050	10030
5.09117	10027
5.09183	10025
5.09250	10024
5.09317	10022
5.09383	10020
5.09450	10019
5.09517	10017
5.09583	10016
5.09650	10015
5.09717	10015
5.09783	10014
5.09850	10013
5.09917	10013
5.09983	10013
5.10050	10013
5.10117	10013
5.10183	10014
5.10250	10015
5.10317	10016
5.10383	10017
5.10450	10018
5.10517	10020
5.10583	10022
5.10650	10025
5.10717	10027
5.10783	10030
5.10850	10034
5.10917	10037
5.10983	10041
5.11050	10046
5.11117	10051
5.11183	10056
5.11250	10062
5.11317	10068
5.11383	10075
5.11450	10082
5.11517	10090
5.11583	10098
5.11650	10107
5.11717	10116
5.11783	10126
5.11850	10136
5.11917	10148
5.11983	10159
5.12050	10172
5.12117	10185
5.12183	10199
5.12250	10213
5.12317	10228
5.12383	10244
5.12450	10261
5.12517	10279
5.12583	10297
5.12650	10316
5.12717	10336
5.12783	10357
5.12850	10379
5.12917	10401
5.12983	10425
5.13050	10450
5.13117	10475
5.13183	10502
5.13250	10530
5.13317	10558
5.13383	10588
5.13450	10619
5.13517	10652
5.13583	10685
5.13650	10720
5.13717	10756
5.13783	10793
5.13850	10832
5.13917	10872
5.13983	10913
5.14050	10956
5.14117	11000
5.14183	11046
5.14250	11093
5.14317	11142
5.14383	11192
5.14450	11244
5.14517	11298
5.14583	11353
5.14650	11410
5.14717	11468
5.14783	11529
5.14850	11591
5.14917	11655
5.14983	11721
5.15050	11790
5.15117	11860
5.15183	11932
5.15250	12005
5.15317	12082
5.15383	12160
5.15450	12240
5.15517	12322
5.15583	12406
5.15650	12493
5.15717	12582
5.15783	12673
5.15850	12766
5.15917	12861
5.15983	12959
5.16050	13059
5.16117	13161
5.16183	13265
5.16250	13372
5.16317	13481
5.16383	13593
5.16450	13706
5.16517	13822
5.16583	13940
5.16650	14061
5.16717	14184
5.16783	14309
5.16850	14436
5.16917	14566
5.16983	14698
5.17050	14832
5.17117	14968
5.17183	15107
5.17250	15248
5.17317	15391
5.17383	15536
5.17450	15684
5.17517	15834
5.17583	15985
5.17650	16139
5.17717	16295
5.17783	16453
5.17850	16613
5.17917	16774
5.17983	16938
5.18050	17103
5.18117	17270
5.18183	17439
5.18250	17609
5.18317	17781
5.18383	17954
5.18450	18129
5.18517	18305
5.18583	18482
5.18650	18660
5.18717	18840
5.18783	19020
5.18850	19201
5.18917	19384
5.18983	19567
5.19050	19751
5.19117	19936
5.19183	20122
5.19250	20309
5.19317	20496
5.19383	20685
5.19450	20873
5.19517	21063
5.19583	21253
5.19650	21443
5.19717	21634
5.19783	21825
5.19850	22016
5.19917	22207
5.19983	22398
5.20050	22589
5.20117	22780
5.20183	22970
5.20250	23161
5.20317	23350
5.20383	23539
5.20450	23727
5.20517	23914
5.20583	24100
5.20650	24285
5.20717	24469
5.20783	24652
5.20850	24833
5.20917	25013
5.20983	25191
5.21050	25367
5.21117	25542
5.21183	25715
5.21250	25886
5.21317	26055
5.21383	26221
5.21450	26386
5.21517	26548
5.21583	26707
5.21650	26863
5.21717	27017
5.21783	27168
5.21850	27316
5.21917	27461
5.21983	27603
5.22050	27742
5.22117	27878
5.22183	28011
5.22250	28140
5.22317	28267
5.22383	28390
5.22450	28510
5.22517	28626
5.22583	28739
5.22650	28849
5.22717	28956
5.22783	29059
5.22850	29158
5.22917	29254
5.22983	29347
5.23050	29435
5.23117	29520
5.23183	29602
5.23250	29679
5.23317	29753
5.23383	29823
5.23450	29889
5.23517	29952
5.23583	30010
5.23650	30064
5.23717	30114
5.23783	30160
5.23850	30203
5.23917	30241
5.23983	30275
5.24050	30305
5.24117	30331
5.24183	30353
5.24250	30372
5.24317	30386
5.24383	30396
5.24450	30402
5.24517	30404
5.24583	30402
5.24650	30397
5.24717	30387
5.24783	30374
5.24850	30357
5.24917	30336
5.24983	30312
5.25050	30284
5.25117	30252
5.25183	30216
5.25250	30177
5.25317	30135
5.25383	30089
5.25450	30040
5.25517	29987
5.25583	29931
5.25650	29872
5.25717	29810
5.25783	29744
5.25850	29676
5.25917	29604
5.25983	29530
5.26050	29453
5.26117	29373
5.26183	29290
5.26250	29205
5.26317	29117
5.26383	29027
5.26450	28934
5.26517	28838
5.26583	28741
5.26650	28641
5.26717	28539
5.26783	28435
5.26850	28328
5.26917	28220
5.26983	28110
5.27050	27998
5.27117	27885
5.27183	27770
5.27250	27653
5.27317	27534
5.27383	27415
5.27450	27294
5.27517	27172
5.27583	27048
5.27650	26924
5.27717	26798
5.27783	26672
5.27850	26545
5.27917	26417
5.27983	26288
5.28050	26159
5.28117	26029
5.28183	25899
5.28250	25768
5.28317	25637
5.28383	25506
5.28450	25374
5.28517	25243
5.28583	25111
5.28650	24979
5.28717	24848
5.28783	24716
5.28850	24584
5.28917	24453
5.28983	24322
5.29050	24190
5.29117	24060
5.29183	23929
5.29250	23799
5.29317	23669
5.29383	23539
5.29450	23410
5.29517	23281
5.29583	23152
5.29650	23025
5.29717	22897
5.29783	22770
5.29850	22644
5.29917	22519
5.29983	22394
5.30050	22270
5.30117	22147
5.30183	22024
5.30250	21903
5.30317	21782
5.30383	21662
5.30450	21543
5.30517	21425
5.30583	21308
5.30650	21192
5.30717	21077
5.30783	20962
5.30850	20849
5.30917	20736
5.30983	20625
5.31050	20515
5.31117	20405
5.31183	20297
5.31250	20189
5.31317	20083
5.31383	19977
5.31450	19873
5.31517	19770
5.31583	19667
5.31650	19566
5.31717	19466
5.31783	19366
5.31850	19268
5.31917	19171
5.31983	19075
5.32050	18979
5.32117	18885
5.32183	18792
5.32250	18700
5.32317	18609
5.32383	18519
5.32450	18430
5.32517	18342
5.32583	18255
5.32650	18169
5.32717	18084
5.32783	18001
5.32850	17918
5.32917	17836
5.32983	17755
5.33050	17675
5.33117	17596
5.33183	17518
5.33250	17441
5.33317	17364
5.33383	17289
5.33450	17215
5.33517	17141
5.33583	17068
5.33650	16997
5.33717	16926
5.33783	16856
5.33850	16787
5.33917	16718
5.33983	16651
5.34050	16585
5.34117	16519
5.34183	16454
5.34250	16390
5.34317	16327
5.34383	16265
5.34450	16203
5.34517	16142
5.34583	16083
5.34650	16023
5.34717	15965
5.34783	15908
5.34850	15851
5.34917	15795
5.34983	15740
5.35050	15685
5.35117	15632
5.35183	15578
5.35250	15526
5.35317	15474
5.35383	15423
5.35450	15373
5.35517	15323
5.35583	15274
5.35650	15226
5.35717	15178
5.35783	15130
5.35850	15084
5.35917	15038
5.35983	14992
5.36050	14947
5.36117	14903
5.36183	14859
5.36250	14816
5.36317	14773
5.36383	14730
5.36450	14689
5.36517	14647
5.36583	14606
5.36650	14566
5.36717	14526
5.36783	14487
5.36850	14448
5.36917	14409
5.36983	14372
5.37050	14334
5.37117	14297
5.37183	14261
5.37250	14225
5.37317	14189
5.37383	14154
5.37450	14119
5.37517	14085
5.37583	14051
5.37650	14018
5.37717	13985
5.37783	13953
5.37850	13920
5.37917	13888
5.37983	13857
5.38050	13826
5.38117	13795
5.38183	13764
5.38250	13734
5.38317	13703
5.38383	13674
5.38450	13644
5.38517	13615
5.38583	13586
5.38650	13557
5.38717	13528
5.38783	13500
5.38850	13472
5.38917	13444
5.38983	13417
5.39050	13390
5.39117	13363
5.39183	13336
5.39250	13310
5.39317	13284
5.39383	13258
5.39450	13232
5.39517	13207
5.39583	13182
5.39650	13157
5.39717	13132
5.39783	13107
5.39850	13083
5.39917	13059
5.39983	13035
5.40050	13012
5.40117	12988
5.40183	12965
5.40250	12942
5.40317	12920
5.40383	12897
5.40450	12875
5.40517	12853
5.40583	12831
5.40650	12810
5.40717	12788
5.40783	12767
5.40850	12746
5.40917	12725
5.40983	12705
5.41050	12684
5.41117	12664
5.41183	12644
5.41250	12624
5.41317	12604
5.41383	12584
5.41450	12565
5.41517	12545
5.41583	12526
5.41650	12507
5.41717	12488
5.41783	12470
5.41850	12451
5.41917	12433
5.41983	12415
5.42050	12397
5.42117	12379
5.42183	12361
5.42250	12344
5.42317	12326
5.42383	12309
5.42450	12292
5.42517	12275
5.42583	12258
5.42650	12241
5.42717	12225
5.42783	12208
5.42850	12192
5.42917	12175
5.42983	12159
5.43050	12143
5.43117	12126
5.43183	12110
5.43250	12094
5.43317	12079
5.43383	12063
5.43450	12047
5.43517	12032
5.43583	12016
5.43650	12001
5.43717	11986
5.43783	11971
5.43850	11956
5.43917	11941
5.43983	11926
5.44050	11912
5.44117	11897
5.44183	11883
5.44250	11868
5.44317	11854
5.44383	11840
5.44450	11826
5.44517	11812
5.44583	11798
5.44650	11784
5.44717	11770
5.44783	11756
5.44850	11742
5.44917	11729
5.44983	11715
5.45050	11702
5.45117	11688
5.45183	11675
5.45250	11662
5.45317	11648
5.45383	11635
5.45450	11622
5.45517	11609
5.45583	11596
5.45650	11584
5.45717	11571
5.45783	11558
5.45850	11546
5.45917	11534
5.45983	11521
5.46050	11509
5.46117	11497
5.46183	11485
5.46250	11473
5.46317	11461
5.46383	11449
5.46450	11437
5.46517	11426
5.46583	11414
5.46650	11403
5.46717	11391
5.46783	11380
5.46850	11368
5.46917	11357
5.46983	11345
5.47050	11334
5.47117	11323
5.47183	11312
5.47250	11300
5.47317	11289
5.47383	11278
5.47450	11267
5.47517	11256
5.47583	11245
5.47650	11234
5.47717	11223
5.47783	11213
5.47850	11202
5.47917	11191
5.47983	11180
5.48050	11170
5.48117	11159
5.48183	11149
5.48250	11138
5.48317	11127
5.48383	11117
5.48450	11106
5.48517	11096
5.48583	11085
5.48650	11075
5.48717	11065
5.48783	11054
5.48850	11044
5.48917	11034
5.48983	11023
5.49050	11013
5.49117	11003
5.49183	10993
5.49250	10983
5.49317	10973
5.49383	10963
5.49450	10953
5.49517	10943
5.49583	10933
5.49650	10924
5.49717	10914
5.49783	10904
5.49850	10895
5.49917	10885
5.49983	10875
5.50050	10866
5.50117	10856
5.50183	10847
5.50250	10837
5.50317	10828
5.50383	10818
5.50450	10809
5.50517	10799
5.50583	10790
5.50650	10780
5.50717	10771
5.50783	10761
5.50850	10752
5.50917	10742
5.50983	10733
5.51050	10724
5.51117	10715
5.51183	10705
5.51250	10696
5.51317	10687
5.51383	10678
5.51450	10669
5.51517	10660
5.51583	10651
5.51650	10642
5.51717	10633
5.51783	10624
5.51850	10615
5.51917	10606
5.51983	10597
5.52050	10588
5.52117	10579
5.52183	10571
5.52250	10562
5.52317	10553
5.52383	10544
5.52450	10536
5.52517	10527
5.52583	10518
5.52650	10509
5.52717	10501
5.52783	10492
5.52850	10484
5.52917	10475
5.52983	10466
5.53050	10458
5.53117	10450
5.53183	10441
5.53250	10433
5.53317	10425
5.53383	10416
5.53450	10408
5.53517	10400
5.53583	10392
5.53650	10384
5.53717	10376
5.53783	10368
5.53850	10360
5.53917	10353
5.53983	10345
5.54050	10337
5.54117	10330
5.54183	10322
5.54250	10315
5.54317	10308
5.54383	10300
5.54450	10293
5.54517	10286
5.54583	10279
5.54650	10272
5.54717	10265
5.54783	10258
5.54850	10251
5.54917	10244
5.54983	10238
5.55050	10231
5.55117	10225
5.55183	10219
5.55250	10212
5.55317	10206
5.55383	10200
5.55450	10194
5.55517	10188
5.55583	10182
5.55650	10176
5.55717	10171
5.55783	10165
5.55850	10159
5.55917	10153
5.55983	10148
5.56050	10142
5.56117	10136
5.56183	10131
5.56250	10125
5.56317	10120
5.56383	10114
5.56450	10109
5.56517	10103
5.56583	10098
5.56650	10092
5.56717	10087
5.56783	10082
5.56850	10076
5.56917	10071
5.56983	10066
5.57050	10061
5.57117	10055
5.57183	10050
5.57250	10045
5.57317	10040
5.57383	10035
5.57450	10030
5.57517	10025
5.57583	10021
5.57650	10016
5.57717	10011
5.57783	10006
5.57850	10001
5.57917	9997
5.57983	9992
5.58050	9987
5.58117	9982
5.58183	9978
5.58250	9973
5.58317	9968
5.58383	9964
5.58450	9959
5.58517	9954
5.58583	9949
5.58650	9945
5.58717	9940
5.58783	9935
5.58850	9931
5.58917	9926
5.58983	9922
5.59050	9917
5.59117	9912
5.59183	9908
5.59250	9903
5.59317	9899
5.59383	9894
5.59450	9890
5.59517	9885
5.59583	9881
5.59650	9876
5.59717	9871
5.59783	9867
5.59850	9863
5.59917	9858
5.59983	9854
5.60050	9849
5.60117	9845
5.60183	9841
5.60250	9836
5.60317	9832
5.60383	9827
5.60450	9823
5.60517	9819
5.60583	9814
5.60650	9810
5.60717	9805
5.60783	9801
5.60850	9797
5.60917	9792
5.60983	9788
5.61050	9784
5.61117	9779
5.61183	9775
5.61250	9771
5.61317	9767
5.61383	9763
5.61450	9758
5.61517	9754
5.61583	9750
5.61650	9746
5.61717	9742
5.61783	9738
5.61850	9734
5.61917	9730
5.61983	9726
5.62050	9722
5.62117	9718
5.62183	9714
5.62250	9710
5.62317	9706
5.62383	9702
5.62450	9698
5.62517	9694
5.62583	9690
5.62650	9687
5.62717	9683
5.62783	9679
5.62850	9675
5.62917	9671
5.62983	9667
5.63050	9663
5.63117	9659
5.63183	9655
5.63250	9651
5.63317	9647
5.63383	9643
5.63450	9640
5.63517	9636
5.63583	9632
5.63650	9628
5.63717	9624
5.63783	9620
5.63850	9617
5.63917	9613
5.63983	9609
5.64050	9606
5.64117	9602
5.64183	9598
5.64250	9595
5.64317	9591
5.64383	9588
5.64450	9584
5.64517	9580
5.64583	9577
5.64650	9573
5.64717	9570
5.64783	9566
5.64850	9563
5.64917	9559
5.64983	9556
5.65050	9552
5.65117	9549
5.65183	9545
5.65250	9542
5.65317	9539
5.65383	9535
5.65450	9532
5.65517	9529
5.65583	9525
5.65650	9522
5.65717	9518
5.65783	9515
5.65850	9512
5.65917	9508
5.65983	9505
5.66050	9502
5.66117	9498
5.66183	9495
5.66250	9492
5.66317	9488
5.66383	9485
5.66450	9482
5.66517	9478
5.66583	9475
5.66650	9472
5.66717	9468
5.66783	9465
5.66850	9462
5.66917	9458
5.66983	9455
5.67050	9452
5.67117	9448
5.67183	9445
5.67250	9442
5.67317	9438
5.67383	9435
5.67450	9432
5.67517	9429
5.67583	9425
5.67650	9422
5.67717	9419
5.67783	9416
5.67850	9413
5.67917	9409
5.67983	9406
5.68050	9403
5.68117	9400
5.68183	9396
5.68250	9393
5.68317	9390
5.68383	9387
5.68450	9383
5.68517	9380
5.68583	9377
5.68650	9374
5.68717	9370
5.68783	9367
5.68850	9364
5.68917	9361
5.68983	9358
5.69050	9355
5.69117	9352
5.69183	9349
5.69250	9346
5.69317	9343
5.69383	9340
5.69450	9337
5.69517	9335
5.69583	9332
5.69650	9329
5.69717	9326
5.69783	9324
5.69850	9321
5.69917	9318
5.69983	9316
5.70050	9313
5.70117	9311
5.70183	9308
5.70250	9306
5.70317	9303
5.70383	9301
5.70450	9298
5.70517	9296
5.70583	9293
5.70650	9291
5.70717	9289
5.70783	9287
5.70850	9285
5.70917	9283
5.70983	9281
5.71050	9279
5.71117	9277
5.71183	9275
5.71250	9273
5.71317	9272
5.71383	9270
5.71450	9268
5.71517	9267
5.71583	9265
5.71650	9264
5.71717	9262
5.71783	9261
5.71850	9260
5.71917	9258
5.71983	9257
5.72050	9256
5.72117	9255
5.72183	9254
5.72250	9253
5.72317	9252
5.72383	9251
5.72450	9250
5.72517	9249
5.72583	9248
5.72650	9247
5.72717	9247
5.72783	9246
5.72850	9245
5.72917	9245
5.72983	9244
5.73050	9244
5.73117	9243
5.73183	9243
5.73250	9243
5.73317	9243
5.73383	9242
5.73450	9242
5.73517	9242
5.73583	9242
5.73650	9243
5.73717	9243
5.73783	9243
5.73850	9243
5.73917	9243
5.73983	9244
5.74050	9244
5.74117	9245
5.74183	9245
5.74250	9246
5.74317	9246
5.74383	9247
5.74450	9248
5.74517	9249
5.74583	9250
5.74650	9251
5.74717	9252
5.74783	9254
5.74850	9255
5.74917	9256
5.74983	9258
5.75050	9259
5.75117	9261
5.75183	9262
5.75250	9264
5.75317	9265
5.75383	9267
5.75450	9269
5.75517	9270
5.75583	9272
5.75650	9274
5.75717	9276
5.75783	9278
5.75850	9280
5.75917	9282
5.75983	9284
5.76050	9287
5.76117	9289
5.76183	9291
5.76250	9293
5.76317	9296
5.76383	9298
5.76450	9300
5.76517	9303
5.76583	9305
5.76650	9307
5.76717	9310
5.76783	9312
5.76850	9314
5.76917	9317
5.76983	9320
5.77050	9322
5.77117	9325
5.77183	9327
5.77250	9330
5.77317	9333
5.77383	9335
5.77450	9338
5.77517	9341
5.77583	9344
5.77650	9346
5.77717	9349
5.77783	9352
5.77850	9355
5.77917	9358
5.77983	9361
5.78050	9365
5.78117	9368
5.78183	9371
5.78250	9375
5.78317	9378
5.78383	9382
5.78450	9385
5.78517	9389
5.78583	9392
5.78650	9396
5.78717	9400
5.78783	9404
5.78850	9408
5.78917	9411
5.78983	9415
5.79050	9419
5.79117	9423
5.79183	9427
5.79250	9431
5.79317	9435
5.79383	9439
5.79450	9444
5.79517	9448
5.79583	9452
5.79650	9456
5.79717	9460
5.79783	9464
5.79850	9468
5.79917	9472
5.79983	9477
5.80050	9481
5.80117	9485
5.80183	9489
5.80250	9493
5.80317	9498
5.80383	9502
5.80450	9506
5.80517	9511
5.80583	9515
5.80650	9520
5.80717	9524
5.80783	9529
5.80850	9533
5.80917	9538
5.80983	9542
5.81050	9547
5.81117	9552
5.81183	9557
5.81250	9561
5.81317	9566
5.81383	9571
5.81450	9576
5.81517	9581
5.81583	9585
5.81650	9590
5.81717	9595
5.81783	9600
5.81850	9605
5.81917	9610
5.81983	9614
5.82050	9619
5.82117	9624
5.82183	9629
5.82250	9634
5.82317	9638
5.82383	9643
5.82450	9648
5.82517	9653
5.82583	9657
5.82650	9662
5.82717	9667
5.82783	9672
5.82850	9676
5.82917	9681
5.82983	9686
5.83050	9691
5.83117	9695
5.83183	9700
5.83250	9705
5.83317	9709
5.83383	9714
5.83450	9719
5.83517	9723
5.83583	9728
5.83650	9733
5.83717	9737
5.83783	9742
5.83850	9746
5.83917	9750
5.83983	9755
5.84050	9759
5.84117	9763
5.84183	9767
5.84250	9771
5.84317	9775
5.84383	9779
5.84450	9783
5.84517	9786
5.84583	9790
5.84650	9793
5.84717	9797
5.84783	9800
5.84850	9803
5.84917	9807
5.84983	9810
5.85050	9813
5.85117	9815
5.85183	9818
5.85250	9821
5.85317	9824
5.85383	9826
5.85450	9829
5.85517	9831
5.85583	9833
5.85650	9835
5.85717	9838
5.85783	9840
5.85850	9842
5.85917	9843
5.85983	9845
5.86050	9847
5.86117	9848
5.86183	9850
5.86250	9851
5.86317	9852
5.86383	9853
5.86450	9854
5.86517	9855
5.86583	9856
5.86650	9857
5.86717	9857
5.86783	9858
5.86850	9858
5.86917	9858
5.86983	9859
5.87050	9859
5.87117	9859
5.87183	9859
5.87250	9858
5.87317	9858
5.87383	9857
5.87450	9857
5.87517	9856
5.87583	9855
5.87650	9855
5.87717	9854
5.87783	9852
5.87850	9851
5.87917	9850
5.87983	9849
5.88050	9847
5.88117	9846
5.88183	9844
5.88250	9842
5.88317	9840
5.88383	9838
5.88450	9836
5.88517	9834
5.88583	9831
5.88650	9829
5.88717	9826
5.88783	9823
5.88850	9820
5.88917	9818
5.88983	9815
5.89050	9811
5.89117	9808
5.89183	9805
5.89250	9802
5.89317	9798
5.89383	9795
5.89450	9791
5.89517	9788
5.89583	9784
5.89650	9781
5.89717	9777
5.89783	9773
5.89850	9769
5.89917	9765
5.89983	9761
5.90050	9757
5.90117	9753
5.90183	9749
5.90250	9745
5.90317	9740
5.90383	9736
5.90450	9731
5.90517	9727
5.90583	9722
5.90650	9717
5.90717	9712
5.90783	9708
5.90850	9703
5.90917	9698
5.90983	9693
5.91050	9688
5.91117	9683
5.91183	9678
5.91250	9673
5.91317	9668
5.91383	9663
5.91450	9658
5.91517	9653
5.91583	9648
5.91650	9643
5.91717	9638
5.91783	9633
5.91850	9628
5.91917	9623
5.91983	9618
5.92050	9613
5.92117	9609
5.92183	9604
5.92250	9599
5.92317	9594
5.92383	9589
5.92450	9584
5.92517	9580
5.92583	9575
5.92650	9570
5.92717	9565
5.92783	9560
5.92850	9555
5.92917	9550
5.92983	9545
5.93050	9540
5.93117	9535
5.93183	9530
5.93250	9525
5.93317	9520
5.93383	9515
5.93450	9510
5.93517	9505
5.93583	9500
5.93650	9495
5.93717	9490
5.93783	9485
5.93850	9480
5.93917	9475
5.93983	9470
5.94050	9465
5.94117	9460
5.94183	9455
5.94250	9450
5.94317	9445
5.94383	9440
5.94450	9436
5.94517	9431
5.94583	9426
5.94650	9421
5.94717	9416
5.94783	9412
5.94850	9407
5.94917	9402
5.94983	9398
5.95050	9393
5.95117	9388
5.95183	9384
5.95250	9379
5.95317	9374
5.95383	9369
5.95450	9365
5.95517	9360
5.95583	9355
5.95650	9351
5.95717	9346
5.95783	9342
5.95850	9337
5.95917	9333
5.95983	9328
5.96050	9324
5.96117	9319
5.96183	9315
5.96250	9310
5.96317	9306
5.96383	9301
5.96450	9297
5.96517	9293
5.96583	9289
5.96650	9284
5.96717	9280
5.96783	9276
5.96850	9272
5.96917	9268
5.96983	9263
5.97050	9259
5.97117	9255
5.97183	9251
5.97250	9247
5.97317	9243
5.97383	9239
5.97450	9235
5.97517	9231
5.97583	9227
5.97650	9223
5.97717	9220
5.97783	9216
5.97850	9212
5.97917	9209
5.97983	9205
5.98050	9201
5.98117	9198
5.98183	9194
5.98250	9191
5.98317	9187
5.98383	9183
5.98450	9180
5.98517	9176
5.98583	9173
5.98650	9169
5.98717	9166
5.98783	9162
5.98850	9159
5.98917	9156
5.98983	9152
5.99050	9149
5.99117	9146
5.99183	9142
5.99250	9139
5.99317	9136
5.99383	9132
5.99450	9129
5.99517	9126
5.99583	9123
5.99650	9119
5.99717	9116
5.99783	9113
5.99850	9110
5.99917	9107
5.99983	9104
6.00050	9100
6.00117	9097
6.00183	9094
6.00250	9091
6.00317	9088
6.00383	9085
6.00450	9082
6.00517	9079
6.00583	9076
6.00650	9073
6.00717	9070
6.00783	9067
6.00850	9064
6.00917	9061
6.00983	9058
6.01050	9055
6.01117	9052
6.01183	9049
6.01250	9046
6.01317	9042
6.01383	9039
6.01450	9036
6.01517	9033
6.01583	9030
6.01650	9027
6.01717	9024
6.01783	9021
6.01850	9018
6.01917	9015
6.01983	9012
6.02050	9009
6.02117	9005
6.02183	9002
6.02250	8999
6.02317	8996
6.02383	8992
6.02450	8989
6.02517	8986
6.02583	8983
6.02650	8979
6.02717	8976
6.02783	8973
6.02850	8970
6.02917	8966
6.02983	8963
6.03050	8960
6.03117	8957
6.03183	8953
6.03250	8950
6.03317	8947
6.03383	8944
6.03450	8941
6.03517	8938
6.03583	8935
6.03650	8932
6.03717	8929
6.03783	8926
6.03850	8923
6.03917	8920
6.03983	8917
6.04050	8914
6.04117	8911
6.04183	8908
6.04250	8905
6.04317	8902
6.04383	8899
6.04450	8896
6.04517	8894
6.04583	8891
6.04650	8888
6.04717	8885
6.04783	8882
6.04850	8879
6.04917	8876
6.04983	8873
6.05050	8870
6.05117	8868
6.05183	8865
6.05250	8862
6.05317	8859
6.05383	8857
6.05450	8854
6.05517	8851
6.05583	8848
6.05650	8846
6.05717	8843
6.05783	8840
6.05850	8838
6.05917	8835
6.05983	8833
6.06050	8830
6.06117	8828
6.06183	8825
6.06250	8823
6.06317	8820
6.06383	8818
6.06450	8815
6.06517	8813
6.06583	8810
6.06650	8808
6.06717	8806
6.06783	8803
6.06850	8801
6.06917	8799
6.06983	8796
6.07050	8794
6.07117	8792
6.07183	8789
6.07250	8787
6.07317	8785
6.07383	8783
6.07450	8780
6.07517	8778
6.07583	8776
6.07650	8773
6.07717	8771
6.07783	8769
6.07850	8767
6.07917	8764
6.07983	8762
6.08050	8759
6.08117	8757
6.08183	8755
6.08250	8752
6.08317	8750
6.08383	8748
6.08450	8746
6.08517	8743
6.08583	8741
6.08650	8739
6.08717	8736
6.08783	8734
6.08850	8732
6.08917	8729
6.08983	8727
6.09050	8725
6.09117	8722
6.09183	8720
6.09250	8718
6.09317	8715
6.09383	8713
6.09450	8710
6.09517	8708
6.09583	8706
6.09650	8703
6.09717	8701
6.09783	8699
6.09850	8696
6.09917	8694
6.09983	8691
6.10050	8689
6.10117	8687
6.10183	8684
6.10250	8682
6.10317	8680
6.10383	8677
6.10450	8675
6.10517	8673
6.10583	8671
6.10650	8669
6.10717	8666
6.10783	8664
6.10850	8662
6.10917	8660
6.10983	8658
6.11050	8656
6.11117	8654
6.11183	8652
6.11250	8650
6.11317	8648
6.11383	8647
6.11450	8645
6.11517	8643
6.11583	8641
6.11650	8640
6.11717	8638
6.11783	8636
6.11850	8634
6.11917	8633
6.11983	8631
6.12050	8629
6.12117	8628
6.12183	8626
6.12250	8625
6.12317	8623
6.12383	8621
6.12450	8620
6.12517	8618
6.12583	8617
6.12650	8615
6.12717	8614
6.12783	8612
6.12850	8611
6.12917	8609
6.12983	8608
6.13050	8606
6.13117	8605
6.13183	8603
6.13250	8602
6.13317	8601
6.13383	8599
6.13450	8598
6.13517	8596
6.13583	8595
6.13650	8594
6.13717	8592
6.13783	8591
6.13850	8589
6.13917	8588
6.13983	8586
6.14050	8585
6.14117	8583
6.14183	8582
6.14250	8580
6.14317	8579
6.14383	8577
6.14450	8576
6.14517	8574
6.14583	8573
6.14650	8571
6.14717	8570
6.14783	8568
6.14850	8567
6.14917	8565
6.14983	8564
6.15050	8563
6.15117	8562
6.15183	8560
6.15250	8559
6.15317	8558
6.15383	8557
6.15450	8556
6.15517	8555
6.15583	8554
6.15650	8553
6.15717	8552
6.15783	8551
6.15850	8550
6.15917	8549
6.15983	8548
6.16050	8547
6.16117	8547
6.16183	8546
6.16250	8545
6.16317	8544
6.16383	8543
6.16450	8542
6.16517	8542
6.16583	8541
6.16650	8540
6.16717	8539
6.16783	8539
6.16850	8538
6.16917	8537
6.16983	8537
6.17050	8536
6.17117	8536
6.17183	8535
6.17250	8534
6.17317	8534
6.17383	8533
6.17450	8533
6.17517	8532
6.17583	8532
6.17650	8532
6.17717	8531
6.17783	8531
6.17850	8530
6.17917	8530
6.17983	8530
6.18050	8530
6.18117	8530
6.18183	8530
6.18250	8530
6.18317	8530
6.18383	8530
6.18450	8530
6.18517	8530
6.18583	8530
6.18650	8530
6.18717	8531
6.18783	8531
6.18850	8532
6.18917	8532
6.18983	8533
6.19050	8533
6.19117	8534
6.19183	8534
6.19250	8535
6.19317	8536
6.19383	8536
6.19450	8537
6.19517	8537
6.19583	8538
6.19650	8539
6.19717	8540
6.19783	8541
6.19850	8541
6.19917	8542
6.19983	8543
6.20050	8545
6.20117	8546
6.20183	8547
6.20250	8548
6.20317	8549
6.20383	8551
6.20450	8552
6.20517	8554
6.20583	8555
6.20650	8557
6.20717	8558
6.20783	8560
6.20850	8561
6.20917	8563
6.20983	8565
6.21050	8566
6.21117	8568
6.21183	8570
6.21250	8572
6.21317	8573
6.21383	8575
6.21450	8577
6.21517	8579
6.21583	8581
6.21650	8583
6.21717	8585
6.21783	8587
6.21850	8589
6.21917	8591
6.21983	8593
6.22050	8595
6.22117	8598
6.22183	8600
6.22250	8602
6.22317	8604
6.22383	8607
6.22450	8609
6.22517	8611
6.22583	8614
6.22650	8616
6.22717	8618
6.22783	8621
6.22850	8623
6.22917	8626
6.22983	8628
6.23050	8631
6.23117	8633
6.23183	8636
6.23250	8638
6.23317	8641
6.23383	8644
6.23450	8646
6.23517	8649
6.23583	8651
6.23650	8654
6.23717	8656
6.23783	8659
6.23850	8661
6.23917	8664
6.23983	8667
6.24050	8669
6.24117	8672
6.24183	8674
6.24250	8677
6.24317	8680
6.24383	8683
6.24450	8685
6.24517	8688
6.24583	8691
6.24650	8693
6.24717	8696
6.24783	8699
6.24850	8702
6.24917	8704
6.24983	8707
6.25050	8710
6.25117	8713
6.25183	8715
6.25250	8718
6.25317	8721
6.25383	8723
6.25450	8726
6.25517	8728
6.25583	8731
6.25650	8733
6.25717	8736
6.25783	8738
6.25850	8740
6.25917	8742
6.25983	8745
6.26050	8747
6.26117	8749
6.26183	8751
6.26250	8753
6.26317	8754
6.26383	8756
6.26450	8758
6.26517	8760
6.26583	8761
6.26650	8763
6.26717	8764
6.26783	8765
6.26850	8767
6.26917	8768
6.26983	8769
6.27050	8770
6.27117	8772
6.27183	8773
6.27250	8774
6.27317	8775
6.27383	8776
6.27450	8777
6.27517	8777
6.27583	8778
6.27650	8779
6.27717	8779
6.27783	8780
6.27850	8780
6.27917	8780
6.27983	8781
6.28050	8781
6.28117	8781
6.28183	8781
6.28250	8781
6.28317	8781
6.28383	8781
6.28450	8781
6.28517	8781
6.28583	8781
6.28650	8780
6.28717	8780
6.28783	8779
6.28850	8779
6.28917	8778
6.28983	8778
6.29050	8777
6.29117	8776
6.29183	8775
6.29250	8774
6.29317	8773
6.29383	8772
6.29450	8770
6.29517	8769
6.29583	8768
6.29650	8766
6.29717	8765
6.29783	8764
6.29850	8762
6.29917	8760
6.29983	8759
6.30050	8757
6.30117	8755
6.30183	8754
6.30250	8752
6.30317	8750
6.30383	8748
6.30450	8746
6.30517	8744
6.30583	8742
6.30650	8740
6.30717	8738
6.30783	8736
6.30850	8733
6.30917	8731
6.30983	8729
6.31050	8726
6.31117	8724
6.31183	8721
6.31250	8719
6.31317	8716
6.31383	8714
6.31450	8711
6.31517	8708
6.31583	8705
6.31650	8703
6.31717	8700
6.31783	8697
6.31850	8694
6.31917	8691
6.31983	8688
6.32050	8685
6.32117	8682
6.32183	8679
6.32250	8675
6.32317	8672
6.32383	8669
6.32450	8665
6.32517	8662
6.32583	8659
6.32650	8655
6.32717	8652
6.32783	8648
6.32850	8644
6.32917	8641
6.32983	8637
6.33050	8634
6.33117	8630
6.33183	8626
6.33250	8622
6.33317	8618
6.33383	8615
6.33450	8611
6.33517	8607
6.33583	8603
6.33650	8599
6.33717	8595
6.33783	8591
6.33850	8587
6.33917	8583
6.33983	8579
6.34050	8575
6.34117	8571
6.34183	8567
6.34250	8563
6.34317	8559
6.34383	8555
6.34450	8551
6.34517	8547
6.34583	8543
6.34650	8538
6.34717	8534
6.34783	8530
6.34850	8526
6.34917	8521
6.34983	8517
6.35050	8512
6.35117	8508
6.35183	8504
6.35250	8499
6.35317	8495
6.35383	8490
6.35450	8485
6.35517	8481
6.35583	8476
6.35650	8472
6.35717	8467
6.35783	8462
6.35850	8458
6.35917	8453
6.35983	8448
6.36050	8444
6.36117	8439
6.36183	8434
6.36250	8430
6.36317	8425
6.36383	8421
6.36450	8416
6.36517	8412
6.36583	8407
6.36650	8403
6.36717	8399
6.36783	8394
6.36850	8390
6.36917	8386
6.36983	8382
6.37050	8377
6.37117	8373
6.37183	8369
6.37250	8365
6.37317	8361
6.37383	8357
6.37450	8353
6.37517	8348
6.37583	8344
6.37650	8340
6.37717	8336
6.37783	8332
6.37850	8328
6.37917	8325
6.37983	8321
6.38050	8317
6.38117	8313
6.38183	8309
6.38250	8306
6.38317	8302
6.38383	8298
6.38450	8295
6.38517	8291
6.38583	8287
6.38650	8283
6.38717	8280
6.38783	8276
6.38850	8273
6.38917	8269
6.38983	8266
6.39050	8262
6.39117	8259
6.39183	8255
6.39250	8252
6.39317	8248
6.39383	8245
6.39450	8242
6.39517	8238
6.39583	8235
6.39650	8232
6.39717	8228
6.39783	8225
6.39850	8220
6.39917	8219
6.39983	8215

