[Header]
Application Name	LabSolutions
Version	5.73
Data File Name	C:\LabSolutions\Data\Project1\stephen\2016-01-06\7.gcd
Output Date	1/11/2016
Output Time	1:19:40 PM

[Configuration]
Instrument Name	WEISSTA-PC-Instrument1
Instrument #	1
Line #	1
# of Detectors	1
Detector ID	DET#2
Detector Name	DFID1
# of Channels	1

[Chromatogram (Ch1)]
Interval(msec)	40
# of Points	9599
Start Time(min)	0.001
End Time(min)	6.399
R.Time (min)	Intensity
0.00067	14
0.00133	14
0.00200	14
0.00267	15
0.00333	15
0.00400	15
0.00467	15
0.00533	15
0.00600	15
0.00667	15
0.00733	15
0.00800	15
0.00867	14
0.00933	13
0.01000	12
0.01067	11
0.01133	9
0.01200	6
0.01267	3
0.01333	0
0.01400	-4
0.01467	-8
0.01533	-13
0.01600	-18
0.01667	-24
0.01733	-30
0.01800	-36
0.01867	-43
0.01933	-49
0.02000	-56
0.02067	-63
0.02133	-70
0.02200	-77
0.02267	-83
0.02333	-90
0.02400	-96
0.02467	-103
0.02533	-109
0.02600	-115
0.02667	-120
0.02733	-126
0.02800	-131
0.02867	-136
0.02933	-141
0.03000	-145
0.03067	-149
0.03133	-153
0.03200	-157
0.03267	-160
0.03333	-164
0.03400	-167
0.03467	-169
0.03533	-172
0.03600	-174
0.03667	-176
0.03733	-178
0.03800	-180
0.03867	-181
0.03933	-183
0.04000	-184
0.04067	-185
0.04133	-186
0.04200	-187
0.04267	-187
0.04333	-188
0.04400	-188
0.04467	-188
0.04533	-189
0.04600	-189
0.04667	-189
0.04733	-189
0.04800	-189
0.04867	-188
0.04933	-188
0.05000	-188
0.05067	-187
0.05133	-187
0.05200	-186
0.05267	-186
0.05333	-185
0.05400	-185
0.05467	-184
0.05533	-183
0.05600	-183
0.05667	-182
0.05733	-181
0.05800	-181
0.05867	-180
0.05933	-179
0.06000	-178
0.06067	-178
0.06133	-177
0.06200	-176
0.06267	-175
0.06333	-175
0.06400	-174
0.06467	-173
0.06533	-172
0.06600	-171
0.06667	-171
0.06733	-170
0.06800	-169
0.06867	-168
0.06933	-168
0.07000	-167
0.07067	-166
0.07133	-165
0.07200	-165
0.07267	-164
0.07333	-163
0.07400	-163
0.07467	-162
0.07533	-162
0.07600	-161
0.07667	-161
0.07733	-160
0.07800	-160
0.07867	-159
0.07933	-159
0.08000	-159
0.08067	-158
0.08133	-158
0.08200	-158
0.08267	-157
0.08333	-157
0.08400	-157
0.08467	-157
0.08533	-157
0.08600	-156
0.08667	-156
0.08733	-156
0.08800	-156
0.08867	-154
0.08933	-148
0.09000	-136
0.09067	-113
0.09133	-76
0.09200	-20
0.09267	56
0.09333	159
0.09400	313
0.09467	504
0.09533	723
0.09600	964
0.09667	1236
0.09733	1598
0.09800	2010
0.09867	2462
0.09933	2956
0.10000	3537
0.10067	4231
0.10133	4999
0.10200	5863
0.10267	6756
0.10333	7703
0.10400	8730
0.10467	9777
0.10533	10930
0.10600	12132
0.10667	13352
0.10733	14603
0.10800	15846
0.10867	17085
0.10933	18414
0.11000	19901
0.11067	21499
0.11133	23169
0.11200	24778
0.11267	26373
0.11333	27945
0.11400	29490
0.11467	31060
0.11533	32589
0.11600	34009
0.11667	35304
0.11733	36515
0.11800	37679
0.11867	38808
0.11933	39919
0.12000	40995
0.12067	42033
0.12133	43054
0.12200	44053
0.12267	45028
0.12333	45995
0.12400	46946
0.12467	47819
0.12533	48607
0.12600	49323
0.12667	50019
0.12733	50679
0.12800	51250
0.12867	51778
0.12933	52235
0.13000	52624
0.13067	52966
0.13133	53244
0.13200	53485
0.13267	53688
0.13333	53841
0.13400	53923
0.13467	53962
0.13533	53976
0.13600	54123
0.13667	54873
0.13733	57551
0.13800	65206
0.13867	84103
0.13933	125088
0.14000	206785
0.14067	355115
0.14133	602221
0.14200	980303
0.14267	1520910
0.14333	2251352
0.14400	3195375
0.14467	4369739
0.14533	5786117
0.14600	7450805
0.14667	9367052
0.14733	11528115
0.14800	13908211
0.14867	16494560
0.14933	19317899
0.15000	22409691
0.15067	25775242
0.15133	29398238
0.15200	33252822
0.15267	37310066
0.15333	41540927
0.15400	45917941
0.15467	50415788
0.15533	55010286
0.15600	59679624
0.15667	64403118
0.15733	69161817
0.15800	73937694
0.15867	78713715
0.15933	83473850
0.16000	88203971
0.16067	92888630
0.16133	97514062
0.16200	102067433
0.16267	106536833
0.16333	110910974
0.16400	115179258
0.16467	119332156
0.16533	123360169
0.16600	127254668
0.16667	131008097
0.16733	134613980
0.16800	138066745
0.16867	141361466
0.16933	144493906
0.17000	147461231
0.17067	150262074
0.17133	152896216
0.17200	155363042
0.17267	157661633
0.17333	159790249
0.17400	161747532
0.17467	163532395
0.17533	165144695
0.17600	166584885
0.17667	167854290
0.17733	168954832
0.17800	169889204
0.17867	170660673
0.17933	171273050
0.18000	171730097
0.18067	172035998
0.18133	172195179
0.18200	172212183
0.18267	172091768
0.18333	171838746
0.18400	171458116
0.18467	170954772
0.18533	170333790
0.18600	169600125
0.18667	168758808
0.18733	167814796
0.18800	166773134
0.18867	165638779
0.18933	164416809
0.19000	163112201
0.19067	161729944
0.19133	160274865
0.19200	158751733
0.19267	157165216
0.19333	155519892
0.19400	153820202
0.19467	152070444
0.19533	150274785
0.19600	148437212
0.19667	146561581
0.19733	144651653
0.19800	142711102
0.19867	140743474
0.19933	138752259
0.20000	136740850
0.20067	134712680
0.20133	132671260
0.20200	130619981
0.20267	128561744
0.20333	126498757
0.20400	124432777
0.20467	122365354
0.20533	120297911
0.20600	118231906
0.20667	116168777
0.20733	114110006
0.20800	112057071
0.20867	110011480
0.20933	107974714
0.21000	105948213
0.21067	103933367
0.21133	101931506
0.21200	99943892
0.21267	97971715
0.21333	96016100
0.21400	94078104
0.21467	92158724
0.21533	90258878
0.21600	88379421
0.21667	86521131
0.21733	84684725
0.21800	82870847
0.21867	81080095
0.21933	79312999
0.22000	77570042
0.22067	75851641
0.22133	74158168
0.22200	72489942
0.22267	70847238
0.22333	69230281
0.22400	67639262
0.22467	66074332
0.22533	64535611
0.22600	63023172
0.22667	61537056
0.22733	60077275
0.22800	58643814
0.22867	57236628
0.22933	55855647
0.23000	54500771
0.23067	53171878
0.23133	51868825
0.23200	50591448
0.23267	49339566
0.23333	48112978
0.23400	46911468
0.23467	45734804
0.23533	44582740
0.23600	43455016
0.23667	42351364
0.23733	41271507
0.23800	40215152
0.23867	39182001
0.23933	38171747
0.24000	37184077
0.24067	36218670
0.24133	35275203
0.24200	34353348
0.24267	33452770
0.24333	32573132
0.24400	31714094
0.24467	30875314
0.24533	30056448
0.24600	29257151
0.24667	28477081
0.24733	27715890
0.24800	26973233
0.24867	26248763
0.24933	25542132
0.25000	24852998
0.25067	24181017
0.25133	23525850
0.25200	22887158
0.25267	22264604
0.25333	21657853
0.25400	21066575
0.25467	20490443
0.25533	19929134
0.25600	19382329
0.25667	18849712
0.25733	18330972
0.25800	17825800
0.25867	17333896
0.25933	16854961
0.26000	16388700
0.26067	15934823
0.26133	15493045
0.26200	15063086
0.26267	14644669
0.26333	14237522
0.26400	13841379
0.26467	13455975
0.26533	13081051
0.26600	12716353
0.26667	12361633
0.26733	12016646
0.26800	11681153
0.26867	11354917
0.26933	11037708
0.27000	10729299
0.27067	10429468
0.27133	10138000
0.27200	9854681
0.27267	9579304
0.27333	9311664
0.27400	9051563
0.27467	8798804
0.27533	8553196
0.27600	8314553
0.27667	8082691
0.27733	7857432
0.27800	7638601
0.27867	7426027
0.27933	7219543
0.28000	7018987
0.28067	6824200
0.28133	6635027
0.28200	6451318
0.28267	6272922
0.28333	6099697
0.28400	5931502
0.28467	5768198
0.28533	5609653
0.28600	5455736
0.28667	5306318
0.28733	5161276
0.28800	5020487
0.28867	4883835
0.28933	4751203
0.29000	4622479
0.29067	4497555
0.29133	4376324
0.29200	4258682
0.29267	4144527
0.29333	4033761
0.29400	3926289
0.29467	3822018
0.29533	3720856
0.29600	3622715
0.29667	3527509
0.29733	3435155
0.29800	3345569
0.29867	3258674
0.29933	3174391
0.30000	3092646
0.30067	3013367
0.30133	2936479
0.30200	2861915
0.30267	2789607
0.30333	2719490
0.30400	2651500
0.30467	2585575
0.30533	2521655
0.30600	2459680
0.30667	2399595
0.30733	2341343
0.30800	2284870
0.30867	2230124
0.30933	2177054
0.31000	2125610
0.31067	2075746
0.31133	2027414
0.31200	1980569
0.31267	1935168
0.31333	1891168
0.31400	1848527
0.31467	1807206
0.31533	1767165
0.31600	1728368
0.31667	1690777
0.31733	1654357
0.31800	1619074
0.31867	1584894
0.31933	1551787
0.32000	1519721
0.32067	1488669
0.32133	1458601
0.32200	1429491
0.32267	1401314
0.32333	1374045
0.32400	1347660
0.32467	1322134
0.32533	1297449
0.32600	1273582
0.32667	1250516
0.32733	1228233
0.32800	1206718
0.32867	1185958
0.32933	1165938
0.33000	1146646
0.33067	1128072
0.33133	1110205
0.33200	1093036
0.33267	1076557
0.33333	1060762
0.33400	1045644
0.33467	1031196
0.33533	1017413
0.33600	1004292
0.33667	991830
0.33733	980022
0.33800	968866
0.33867	958359
0.33933	948500
0.34000	939287
0.34067	930722
0.34133	922808
0.34200	915549
0.34267	908953
0.34333	903030
0.34400	897796
0.34467	893272
0.34533	889484
0.34600	886473
0.34667	884282
0.34733	882960
0.34800	882556
0.34867	883118
0.34933	884688
0.35000	887299
0.35067	890973
0.35133	895720
0.35200	901539
0.35267	908419
0.35333	916342
0.35400	925277
0.35467	935191
0.35533	946041
0.35600	957785
0.35667	970375
0.35733	983766
0.35800	997907
0.35867	1012752
0.35933	1028246
0.36000	1044340
0.36067	1060980
0.36133	1078115
0.36200	1095695
0.36267	1113674
0.36333	1132007
0.36400	1150649
0.36467	1169559
0.36533	1188700
0.36600	1208037
0.36667	1227538
0.36733	1247175
0.36800	1266925
0.36867	1286769
0.36933	1306696
0.37000	1326697
0.37067	1346771
0.37133	1366921
0.37200	1387155
0.37267	1407484
0.37333	1427919
0.37400	1448471
0.37467	1469145
0.37533	1489940
0.37600	1510850
0.37667	1531861
0.37733	1552957
0.37800	1574124
0.37867	1595344
0.37933	1616598
0.38000	1637864
0.38067	1659123
0.38133	1680352
0.38200	1701532
0.38267	1722637
0.38333	1743647
0.38400	1764542
0.38467	1785304
0.38533	1805916
0.38600	1826361
0.38667	1846624
0.38733	1866691
0.38800	1886542
0.38867	1906155
0.38933	1925505
0.39000	1944561
0.39067	1963291
0.39133	1981658
0.39200	1999621
0.39267	2017134
0.39333	2034150
0.39400	2050620
0.39467	2066492
0.39533	2081714
0.39600	2096223
0.39667	2109951
0.39733	2122826
0.39800	2134773
0.39867	2145716
0.39933	2155575
0.40000	2164277
0.40067	2171742
0.40133	2177898
0.40200	2182674
0.40267	2186006
0.40333	2187832
0.40400	2188104
0.40467	2186776
0.40533	2183823
0.40600	2179223
0.40667	2172977
0.40733	2165092
0.40800	2155592
0.40867	2144514
0.40933	2131904
0.41000	2117819
0.41067	2102323
0.41133	2085488
0.41200	2067387
0.41267	2048099
0.41333	2027705
0.41400	2006286
0.41467	1983922
0.41533	1960692
0.41600	1936675
0.41667	1911945
0.41733	1886576
0.41800	1860639
0.41867	1834200
0.41933	1807325
0.42000	1780076
0.42067	1752511
0.42133	1724686
0.42200	1696653
0.42267	1668463
0.42333	1640162
0.42400	1611795
0.42467	1583401
0.42533	1555021
0.42600	1526689
0.42667	1498439
0.42733	1470302
0.42800	1442307
0.42867	1414481
0.42933	1386848
0.43000	1359430
0.43067	1332250
0.43133	1305325
0.43200	1278674
0.43267	1252311
0.43333	1226251
0.43400	1200506
0.43467	1175089
0.43533	1150010
0.43600	1125276
0.43667	1100898
0.43733	1076881
0.43800	1053233
0.43867	1029958
0.43933	1007062
0.44000	984547
0.44067	962416
0.44133	940672
0.44200	919315
0.44267	898347
0.44333	877767
0.44400	857576
0.44467	837770
0.44533	818350
0.44600	799313
0.44667	780658
0.44733	762382
0.44800	744484
0.44867	726960
0.44933	709808
0.45000	693025
0.45067	676608
0.45133	660554
0.45200	644857
0.45267	629515
0.45333	614523
0.45400	599876
0.45467	585571
0.45533	571601
0.45600	557963
0.45667	544651
0.45733	531660
0.45800	518985
0.45867	506622
0.45933	494565
0.46000	482808
0.46067	471349
0.46133	460180
0.46200	449299
0.46267	438699
0.46333	428377
0.46400	418329
0.46467	408550
0.46533	399036
0.46600	389782
0.46667	380785
0.46733	372041
0.46800	363545
0.46867	355292
0.46933	347276
0.47000	339492
0.47067	331932
0.47133	324591
0.47200	317464
0.47267	310545
0.47333	303828
0.47400	297308
0.47467	290980
0.47533	284837
0.47600	278875
0.47667	273088
0.47733	267471
0.47800	262019
0.47867	256727
0.47933	251590
0.48000	246604
0.48067	241765
0.48133	237066
0.48200	232505
0.48267	228077
0.48333	223778
0.48400	219605
0.48467	215552
0.48533	211617
0.48600	207796
0.48667	204085
0.48733	200482
0.48800	196981
0.48867	193582
0.48933	190279
0.49000	187070
0.49067	183953
0.49133	180923
0.49200	177979
0.49267	175117
0.49333	172334
0.49400	169629
0.49467	166997
0.49533	164438
0.49600	161948
0.49667	159525
0.49733	157168
0.49800	154873
0.49867	152640
0.49933	150465
0.50000	148347
0.50067	146284
0.50133	144275
0.50200	142317
0.50267	140408
0.50333	138548
0.50400	136735
0.50467	134966
0.50533	133242
0.50600	131559
0.50667	129917
0.50733	128314
0.50800	126750
0.50867	125223
0.50933	123732
0.51000	122275
0.51067	120852
0.51133	119461
0.51200	118102
0.51267	116774
0.51333	115474
0.51400	114203
0.51467	112960
0.51533	111744
0.51600	110553
0.51667	109388
0.51733	108247
0.51800	107129
0.51867	106035
0.51933	104962
0.52000	103911
0.52067	102881
0.52133	101871
0.52200	100880
0.52267	99909
0.52333	98956
0.52400	98021
0.52467	97103
0.52533	96202
0.52600	95318
0.52667	94449
0.52733	93596
0.52800	92758
0.52867	91934
0.52933	91124
0.53000	90328
0.53067	89546
0.53133	88776
0.53200	88019
0.53267	87274
0.53333	86541
0.53400	85820
0.53467	85110
0.53533	84410
0.53600	83722
0.53667	83044
0.53733	82376
0.53800	81718
0.53867	81069
0.53933	80430
0.54000	79800
0.54067	79180
0.54133	78568
0.54200	77964
0.54267	77369
0.54333	76782
0.54400	76203
0.54467	75632
0.54533	75068
0.54600	74512
0.54667	73964
0.54733	73423
0.54800	72889
0.54867	72362
0.54933	71842
0.55000	71329
0.55067	70822
0.55133	70323
0.55200	69830
0.55267	69343
0.55333	68863
0.55400	68389
0.55467	67922
0.55533	67461
0.55600	67005
0.55667	66556
0.55733	66113
0.55800	65675
0.55867	65243
0.55933	64816
0.56000	64395
0.56067	63978
0.56133	63567
0.56200	63160
0.56267	62758
0.56333	62361
0.56400	61968
0.56467	61579
0.56533	61194
0.56600	60814
0.56667	60437
0.56733	60065
0.56800	59695
0.56867	59330
0.56933	58968
0.57000	58609
0.57067	58254
0.57133	57902
0.57200	57554
0.57267	57209
0.57333	56866
0.57400	56527
0.57467	56191
0.57533	55858
0.57600	55528
0.57667	55201
0.57733	54877
0.57800	54556
0.57867	54237
0.57933	53921
0.58000	53608
0.58067	53297
0.58133	52989
0.58200	52683
0.58267	52380
0.58333	52079
0.58400	51781
0.58467	51485
0.58533	51191
0.58600	50900
0.58667	50611
0.58733	50325
0.58800	50041
0.58867	49759
0.58933	49479
0.59000	49201
0.59067	48926
0.59133	48653
0.59200	48382
0.59267	48114
0.59333	47848
0.59400	47584
0.59467	47322
0.59533	47062
0.59600	46804
0.59667	46549
0.59733	46295
0.59800	46044
0.59867	45795
0.59933	45548
0.60000	45303
0.60067	45061
0.60133	44820
0.60200	44582
0.60267	44345
0.60333	44111
0.60400	43879
0.60467	43649
0.60533	43421
0.60600	43195
0.60667	42971
0.60733	42750
0.60800	42530
0.60867	42312
0.60933	42097
0.61000	41883
0.61067	41672
0.61133	41463
0.61200	41255
0.61267	41050
0.61333	40847
0.61400	40646
0.61467	40448
0.61533	40251
0.61600	40056
0.61667	39864
0.61733	39673
0.61800	39485
0.61867	39298
0.61933	39114
0.62000	38931
0.62067	38751
0.62133	38572
0.62200	38395
0.62267	38220
0.62333	38046
0.62400	37874
0.62467	37703
0.62533	37534
0.62600	37367
0.62667	37201
0.62733	37037
0.62800	36874
0.62867	36712
0.62933	36552
0.63000	36393
0.63067	36235
0.63133	36079
0.63200	35924
0.63267	35770
0.63333	35618
0.63400	35466
0.63467	35317
0.63533	35168
0.63600	35021
0.63667	34875
0.63733	34730
0.63800	34587
0.63867	34445
0.63933	34305
0.64000	34166
0.64067	34028
0.64133	33892
0.64200	33757
0.64267	33624
0.64333	33492
0.64400	33361
0.64467	33232
0.64533	33104
0.64600	32977
0.64667	32851
0.64733	32727
0.64800	32604
0.64867	32482
0.64933	32360
0.65000	32240
0.65067	32121
0.65133	32002
0.65200	31884
0.65267	31767
0.65333	31650
0.65400	31534
0.65467	31418
0.65533	31303
0.65600	31188
0.65667	31073
0.65733	30959
0.65800	30845
0.65867	30731
0.65933	30617
0.66000	30504
0.66067	30391
0.66133	30278
0.66200	30165
0.66267	30053
0.66333	29940
0.66400	29828
0.66467	29716
0.66533	29604
0.66600	29492
0.66667	29380
0.66733	29269
0.66800	29158
0.66867	29047
0.66933	28936
0.67000	28825
0.67067	28715
0.67133	28604
0.67200	28494
0.67267	28385
0.67333	28275
0.67400	28166
0.67467	28057
0.67533	27949
0.67600	27841
0.67667	27733
0.67733	27626
0.67800	27519
0.67867	27413
0.67933	27308
0.68000	27203
0.68067	27100
0.68133	26997
0.68200	26895
0.68267	26795
0.68333	26695
0.68400	26597
0.68467	26501
0.68533	26406
0.68600	26313
0.68667	26222
0.68733	26133
0.68800	26047
0.68867	25963
0.68933	25881
0.69000	25803
0.69067	25727
0.69133	25655
0.69200	25586
0.69267	25521
0.69333	25460
0.69400	25403
0.69467	25350
0.69533	25301
0.69600	25257
0.69667	25216
0.69733	25180
0.69800	25147
0.69867	25119
0.69933	25094
0.70000	25072
0.70067	25054
0.70133	25038
0.70200	25025
0.70267	25014
0.70333	25004
0.70400	24996
0.70467	24989
0.70533	24982
0.70600	24974
0.70667	24966
0.70733	24957
0.70800	24946
0.70867	24934
0.70933	24919
0.71000	24903
0.71067	24883
0.71133	24861
0.71200	24836
0.71267	24808
0.71333	24776
0.71400	24742
0.71467	24704
0.71533	24663
0.71600	24619
0.71667	24572
0.71733	24522
0.71800	24469
0.71867	24413
0.71933	24355
0.72000	24293
0.72067	24230
0.72133	24164
0.72200	24096
0.72267	24025
0.72333	23953
0.72400	23880
0.72467	23804
0.72533	23727
0.72600	23649
0.72667	23570
0.72733	23489
0.72800	23407
0.72867	23325
0.72933	23242
0.73000	23158
0.73067	23073
0.73133	22988
0.73200	22902
0.73267	22816
0.73333	22730
0.73400	22644
0.73467	22557
0.73533	22471
0.73600	22384
0.73667	22298
0.73733	22211
0.73800	22125
0.73867	22039
0.73933	21953
0.74000	21867
0.74067	21782
0.74133	21696
0.74200	21612
0.74267	21527
0.74333	21443
0.74400	21360
0.74467	21276
0.74533	21194
0.74600	21112
0.74667	21030
0.74733	20949
0.74800	20868
0.74867	20788
0.74933	20709
0.75000	20630
0.75067	20552
0.75133	20474
0.75200	20397
0.75267	20321
0.75333	20245
0.75400	20170
0.75467	20096
0.75533	20022
0.75600	19949
0.75667	19877
0.75733	19805
0.75800	19734
0.75867	19664
0.75933	19594
0.76000	19525
0.76067	19456
0.76133	19388
0.76200	19321
0.76267	19254
0.76333	19188
0.76400	19123
0.76467	19058
0.76533	18994
0.76600	18930
0.76667	18867
0.76733	18805
0.76800	18743
0.76867	18682
0.76933	18621
0.77000	18561
0.77067	18502
0.77133	18443
0.77200	18385
0.77267	18327
0.77333	18270
0.77400	18213
0.77467	18157
0.77533	18102
0.77600	18047
0.77667	17992
0.77733	17938
0.77800	17885
0.77867	17832
0.77933	17780
0.78000	17728
0.78067	17677
0.78133	17626
0.78200	17576
0.78267	17526
0.78333	17477
0.78400	17428
0.78467	17379
0.78533	17331
0.78600	17284
0.78667	17237
0.78733	17190
0.78800	17144
0.78867	17098
0.78933	17053
0.79000	17008
0.79067	16964
0.79133	16919
0.79200	16876
0.79267	16832
0.79333	16789
0.79400	16747
0.79467	16704
0.79533	16662
0.79600	16621
0.79667	16580
0.79733	16539
0.79800	16498
0.79867	16458
0.79933	16419
0.80000	16379
0.80067	16340
0.80133	16301
0.80200	16263
0.80267	16225
0.80333	16187
0.80400	16150
0.80467	16112
0.80533	16075
0.80600	16039
0.80667	16003
0.80733	15966
0.80800	15931
0.80867	15895
0.80933	15860
0.81000	15825
0.81067	15790
0.81133	15756
0.81200	15722
0.81267	15688
0.81333	15655
0.81400	15622
0.81467	15589
0.81533	15557
0.81600	15525
0.81667	15493
0.81733	15462
0.81800	15431
0.81867	15400
0.81933	15369
0.82000	15339
0.82067	15309
0.82133	15279
0.82200	15250
0.82267	15221
0.82333	15192
0.82400	15163
0.82467	15135
0.82533	15107
0.82600	15079
0.82667	15051
0.82733	15024
0.82800	14997
0.82867	14970
0.82933	14943
0.83000	14916
0.83067	14890
0.83133	14863
0.83200	14837
0.83267	14811
0.83333	14785
0.83400	14759
0.83467	14734
0.83533	14708
0.83600	14683
0.83667	14657
0.83733	14632
0.83800	14607
0.83867	14582
0.83933	14558
0.84000	14533
0.84067	14508
0.84133	14484
0.84200	14459
0.84267	14435
0.84333	14411
0.84400	14387
0.84467	14362
0.84533	14338
0.84600	14314
0.84667	14290
0.84733	14266
0.84800	14242
0.84867	14219
0.84933	14195
0.85000	14171
0.85067	14148
0.85133	14124
0.85200	14101
0.85267	14077
0.85333	14054
0.85400	14030
0.85467	14007
0.85533	13984
0.85600	13961
0.85667	13938
0.85733	13915
0.85800	13892
0.85867	13869
0.85933	13846
0.86000	13823
0.86067	13800
0.86133	13777
0.86200	13755
0.86267	13732
0.86333	13710
0.86400	13687
0.86467	13665
0.86533	13643
0.86600	13620
0.86667	13598
0.86733	13576
0.86800	13554
0.86867	13532
0.86933	13510
0.87000	13488
0.87067	13467
0.87133	13445
0.87200	13423
0.87267	13402
0.87333	13380
0.87400	13359
0.87467	13338
0.87533	13317
0.87600	13295
0.87667	13274
0.87733	13254
0.87800	13233
0.87867	13212
0.87933	13191
0.88000	13171
0.88067	13150
0.88133	13129
0.88200	13109
0.88267	13089
0.88333	13069
0.88400	13048
0.88467	13029
0.88533	13009
0.88600	12989
0.88667	12969
0.88733	12950
0.88800	12931
0.88867	12911
0.88933	12892
0.89000	12873
0.89067	12854
0.89133	12835
0.89200	12816
0.89267	12798
0.89333	12779
0.89400	12760
0.89467	12742
0.89533	12724
0.89600	12706
0.89667	12688
0.89733	12670
0.89800	12652
0.89867	12634
0.89933	12616
0.90000	12599
0.90067	12581
0.90133	12564
0.90200	12546
0.90267	12529
0.90333	12512
0.90400	12495
0.90467	12478
0.90533	12461
0.90600	12444
0.90667	12427
0.90733	12410
0.90800	12393
0.90867	12377
0.90933	12360
0.91000	12344
0.91067	12327
0.91133	12311
0.91200	12295
0.91267	12278
0.91333	12262
0.91400	12246
0.91467	12230
0.91533	12214
0.91600	12198
0.91667	12182
0.91733	12166
0.91800	12150
0.91867	12134
0.91933	12118
0.92000	12103
0.92067	12087
0.92133	12072
0.92200	12056
0.92267	12041
0.92333	12026
0.92400	12010
0.92467	11995
0.92533	11980
0.92600	11965
0.92667	11950
0.92733	11935
0.92800	11920
0.92867	11905
0.92933	11891
0.93000	11876
0.93067	11862
0.93133	11847
0.93200	11833
0.93267	11818
0.93333	11804
0.93400	11790
0.93467	11776
0.93533	11762
0.93600	11748
0.93667	11734
0.93733	11720
0.93800	11706
0.93867	11692
0.93933	11678
0.94000	11665
0.94067	11651
0.94133	11637
0.94200	11623
0.94267	11609
0.94333	11596
0.94400	11582
0.94467	11568
0.94533	11554
0.94600	11541
0.94667	11527
0.94733	11513
0.94800	11500
0.94867	11486
0.94933	11473
0.95000	11459
0.95067	11446
0.95133	11432
0.95200	11419
0.95267	11405
0.95333	11392
0.95400	11379
0.95467	11365
0.95533	11352
0.95600	11339
0.95667	11326
0.95733	11313
0.95800	11300
0.95867	11287
0.95933	11274
0.96000	11261
0.96067	11249
0.96133	11237
0.96200	11225
0.96267	11213
0.96333	11201
0.96400	11189
0.96467	11177
0.96533	11166
0.96600	11154
0.96667	11143
0.96733	11132
0.96800	11120
0.96867	11109
0.96933	11098
0.97000	11087
0.97067	11076
0.97133	11065
0.97200	11054
0.97267	11043
0.97333	11032
0.97400	11021
0.97467	11010
0.97533	10999
0.97600	10988
0.97667	10977
0.97733	10966
0.97800	10955
0.97867	10944
0.97933	10933
0.98000	10921
0.98067	10910
0.98133	10898
0.98200	10887
0.98267	10875
0.98333	10863
0.98400	10851
0.98467	10840
0.98533	10828
0.98600	10816
0.98667	10804
0.98733	10792
0.98800	10779
0.98867	10767
0.98933	10755
0.99000	10743
0.99067	10731
0.99133	10718
0.99200	10706
0.99267	10693
0.99333	10681
0.99400	10669
0.99467	10656
0.99533	10644
0.99600	10631
0.99667	10619
0.99733	10606
0.99800	10594
0.99867	10581
0.99933	10569
1.00000	10557
1.00067	10544
1.00133	10532
1.00200	10520
1.00267	10507
1.00333	10495
1.00400	10483
1.00467	10471
1.00533	10458
1.00600	10446
1.00667	10434
1.00733	10422
1.00800	10410
1.00867	10398
1.00933	10386
1.01000	10374
1.01067	10362
1.01133	10350
1.01200	10339
1.01267	10327
1.01333	10316
1.01400	10304
1.01467	10293
1.01533	10282
1.01600	10271
1.01667	10260
1.01733	10249
1.01800	10238
1.01867	10227
1.01933	10217
1.02000	10207
1.02067	10196
1.02133	10186
1.02200	10176
1.02267	10167
1.02333	10157
1.02400	10148
1.02467	10138
1.02533	10129
1.02600	10120
1.02667	10111
1.02733	10102
1.02800	10094
1.02867	10085
1.02933	10077
1.03000	10068
1.03067	10060
1.03133	10052
1.03200	10043
1.03267	10035
1.03333	10027
1.03400	10019
1.03467	10010
1.03533	10002
1.03600	9994
1.03667	9986
1.03733	9977
1.03800	9969
1.03867	9961
1.03933	9952
1.04000	9944
1.04067	9936
1.04133	9927
1.04200	9919
1.04267	9910
1.04333	9902
1.04400	9893
1.04467	9885
1.04533	9876
1.04600	9867
1.04667	9858
1.04733	9850
1.04800	9841
1.04867	9832
1.04933	9823
1.05000	9814
1.05067	9805
1.05133	9796
1.05200	9787
1.05267	9777
1.05333	9768
1.05400	9759
1.05467	9750
1.05533	9740
1.05600	9731
1.05667	9722
1.05733	9712
1.05800	9703
1.05867	9694
1.05933	9684
1.06000	9675
1.06067	9666
1.06133	9656
1.06200	9647
1.06267	9638
1.06333	9628
1.06400	9619
1.06467	9610
1.06533	9600
1.06600	9591
1.06667	9582
1.06733	9572
1.06800	9563
1.06867	9554
1.06933	9544
1.07000	9535
1.07067	9526
1.07133	9517
1.07200	9508
1.07267	9498
1.07333	9489
1.07400	9480
1.07467	9471
1.07533	9462
1.07600	9453
1.07667	9444
1.07733	9435
1.07800	9426
1.07867	9417
1.07933	9408
1.08000	9399
1.08067	9390
1.08133	9381
1.08200	9373
1.08267	9364
1.08333	9355
1.08400	9346
1.08467	9338
1.08533	9329
1.08600	9320
1.08667	9312
1.08733	9303
1.08800	9294
1.08867	9286
1.08933	9277
1.09000	9269
1.09067	9260
1.09133	9252
1.09200	9243
1.09267	9235
1.09333	9227
1.09400	9218
1.09467	9210
1.09533	9202
1.09600	9193
1.09667	9185
1.09733	9177
1.09800	9169
1.09867	9161
1.09933	9152
1.10000	9144
1.10067	9136
1.10133	9128
1.10200	9120
1.10267	9112
1.10333	9104
1.10400	9096
1.10467	9088
1.10533	9080
1.10600	9073
1.10667	9065
1.10733	9057
1.10800	9049
1.10867	9041
1.10933	9034
1.11000	9026
1.11067	9019
1.11133	9011
1.11200	9003
1.11267	8996
1.11333	8988
1.11400	8981
1.11467	8973
1.11533	8966
1.11600	8959
1.11667	8951
1.11733	8944
1.11800	8937
1.11867	8930
1.11933	8922
1.12000	8915
1.12067	8908
1.12133	8901
1.12200	8895
1.12267	8888
1.12333	8881
1.12400	8874
1.12467	8868
1.12533	8861
1.12600	8855
1.12667	8848
1.12733	8842
1.12800	8836
1.12867	8830
1.12933	8824
1.13000	8818
1.13067	8812
1.13133	8807
1.13200	8801
1.13267	8796
1.13333	8791
1.13400	8786
1.13467	8781
1.13533	8776
1.13600	8771
1.13667	8767
1.13733	8762
1.13800	8758
1.13867	8754
1.13933	8750
1.14000	8746
1.14067	8743
1.14133	8739
1.14200	8736
1.14267	8733
1.14333	8730
1.14400	8727
1.14467	8724
1.14533	8721
1.14600	8718
1.14667	8716
1.14733	8713
1.14800	8710
1.14867	8707
1.14933	8705
1.15000	8702
1.15067	8699
1.15133	8696
1.15200	8693
1.15267	8690
1.15333	8687
1.15400	8684
1.15467	8681
1.15533	8677
1.15600	8674
1.15667	8670
1.15733	8667
1.15800	8663
1.15867	8659
1.15933	8655
1.16000	8651
1.16067	8647
1.16133	8643
1.16200	8639
1.16267	8634
1.16333	8630
1.16400	8625
1.16467	8621
1.16533	8616
1.16600	8611
1.16667	8606
1.16733	8601
1.16800	8596
1.16867	8591
1.16933	8585
1.17000	8580
1.17067	8575
1.17133	8569
1.17200	8564
1.17267	8558
1.17333	8553
1.17400	8547
1.17467	8541
1.17533	8536
1.17600	8530
1.17667	8524
1.17733	8518
1.17800	8512
1.17867	8506
1.17933	8501
1.18000	8495
1.18067	8489
1.18133	8483
1.18200	8477
1.18267	8472
1.18333	8466
1.18400	8460
1.18467	8454
1.18533	8448
1.18600	8442
1.18667	8437
1.18733	8431
1.18800	8425
1.18867	8419
1.18933	8414
1.19000	8408
1.19067	8402
1.19133	8397
1.19200	8391
1.19267	8386
1.19333	8380
1.19400	8375
1.19467	8370
1.19533	8365
1.19600	8360
1.19667	8354
1.19733	8349
1.19800	8344
1.19867	8339
1.19933	8334
1.20000	8330
1.20067	8325
1.20133	8320
1.20200	8315
1.20267	8311
1.20333	8306
1.20400	8302
1.20467	8298
1.20533	8293
1.20600	8289
1.20667	8285
1.20733	8281
1.20800	8277
1.20867	8273
1.20933	8269
1.21000	8266
1.21067	8262
1.21133	8258
1.21200	8255
1.21267	8251
1.21333	8248
1.21400	8245
1.21467	8241
1.21533	8238
1.21600	8235
1.21667	8232
1.21733	8229
1.21800	8226
1.21867	8223
1.21933	8221
1.22000	8218
1.22067	8216
1.22133	8213
1.22200	8211
1.22267	8208
1.22333	8206
1.22400	8204
1.22467	8201
1.22533	8199
1.22600	8197
1.22667	8195
1.22733	8193
1.22800	8191
1.22867	8189
1.22933	8187
1.23000	8185
1.23067	8184
1.23133	8182
1.23200	8180
1.23267	8178
1.23333	8176
1.23400	8174
1.23467	8173
1.23533	8171
1.23600	8169
1.23667	8168
1.23733	8166
1.23800	8165
1.23867	8163
1.23933	8161
1.24000	8160
1.24067	8158
1.24133	8157
1.24200	8155
1.24267	8154
1.24333	8152
1.24400	8151
1.24467	8149
1.24533	8148
1.24600	8147
1.24667	8145
1.24733	8144
1.24800	8142
1.24867	8141
1.24933	8140
1.25000	8138
1.25067	8137
1.25133	8135
1.25200	8134
1.25267	8133
1.25333	8131
1.25400	8130
1.25467	8129
1.25533	8128
1.25600	8126
1.25667	8125
1.25733	8124
1.25800	8123
1.25867	8122
1.25933	8121
1.26000	8120
1.26067	8119
1.26133	8118
1.26200	8117
1.26267	8117
1.26333	8116
1.26400	8116
1.26467	8116
1.26533	8116
1.26600	8116
1.26667	8116
1.26733	8116
1.26800	8117
1.26867	8117
1.26933	8118
1.27000	8119
1.27067	8120
1.27133	8121
1.27200	8123
1.27267	8124
1.27333	8126
1.27400	8128
1.27467	8131
1.27533	8133
1.27600	8136
1.27667	8139
1.27733	8142
1.27800	8146
1.27867	8150
1.27933	8154
1.28000	8158
1.28067	8162
1.28133	8167
1.28200	8172
1.28267	8178
1.28333	8183
1.28400	8189
1.28467	8195
1.28533	8201
1.28600	8207
1.28667	8214
1.28733	8220
1.28800	8226
1.28867	8233
1.28933	8239
1.29000	8246
1.29067	8252
1.29133	8258
1.29200	8264
1.29267	8270
1.29333	8276
1.29400	8282
1.29467	8287
1.29533	8293
1.29600	8298
1.29667	8302
1.29733	8306
1.29800	8310
1.29867	8314
1.29933	8317
1.30000	8320
1.30067	8323
1.30133	8325
1.30200	8327
1.30267	8329
1.30333	8330
1.30400	8331
1.30467	8332
1.30533	8332
1.30600	8332
1.30667	8331
1.30733	8330
1.30800	8329
1.30867	8328
1.30933	8326
1.31000	8324
1.31067	8322
1.31133	8319
1.31200	8317
1.31267	8313
1.31333	8310
1.31400	8306
1.31467	8303
1.31533	8298
1.31600	8294
1.31667	8289
1.31733	8285
1.31800	8280
1.31867	8275
1.31933	8269
1.32000	8264
1.32067	8258
1.32133	8253
1.32200	8247
1.32267	8241
1.32333	8235
1.32400	8228
1.32467	8222
1.32533	8215
1.32600	8209
1.32667	8202
1.32733	8195
1.32800	8188
1.32867	8181
1.32933	8174
1.33000	8167
1.33067	8159
1.33133	8152
1.33200	8145
1.33267	8137
1.33333	8129
1.33400	8122
1.33467	8114
1.33533	8106
1.33600	8098
1.33667	8090
1.33733	8082
1.33800	8075
1.33867	8067
1.33933	8059
1.34000	8051
1.34067	8043
1.34133	8035
1.34200	8027
1.34267	8019
1.34333	8011
1.34400	8003
1.34467	7995
1.34533	7987
1.34600	7979
1.34667	7971
1.34733	7963
1.34800	7955
1.34867	7947
1.34933	7939
1.35000	7931
1.35067	7923
1.35133	7915
1.35200	7907
1.35267	7899
1.35333	7891
1.35400	7884
1.35467	7876
1.35533	7868
1.35600	7861
1.35667	7853
1.35733	7845
1.35800	7838
1.35867	7831
1.35933	7823
1.36000	7816
1.36067	7809
1.36133	7802
1.36200	7794
1.36267	7787
1.36333	7780
1.36400	7773
1.36467	7766
1.36533	7760
1.36600	7753
1.36667	7746
1.36733	7740
1.36800	7733
1.36867	7727
1.36933	7720
1.37000	7714
1.37067	7708
1.37133	7702
1.37200	7696
1.37267	7691
1.37333	7685
1.37400	7679
1.37467	7674
1.37533	7668
1.37600	7663
1.37667	7658
1.37733	7652
1.37800	7647
1.37867	7642
1.37933	7637
1.38000	7632
1.38067	7627
1.38133	7623
1.38200	7618
1.38267	7613
1.38333	7609
1.38400	7604
1.38467	7600
1.38533	7595
1.38600	7591
1.38667	7586
1.38733	7582
1.38800	7578
1.38867	7573
1.38933	7569
1.39000	7565
1.39067	7561
1.39133	7557
1.39200	7553
1.39267	7548
1.39333	7544
1.39400	7540
1.39467	7536
1.39533	7532
1.39600	7528
1.39667	7524
1.39733	7520
1.39800	7516
1.39867	7512
1.39933	7508
1.40000	7504
1.40067	7499
1.40133	7495
1.40200	7491
1.40267	7487
1.40333	7483
1.40400	7478
1.40467	7474
1.40533	7470
1.40600	7465
1.40667	7461
1.40733	7457
1.40800	7452
1.40867	7448
1.40933	7444
1.41000	7439
1.41067	7435
1.41133	7431
1.41200	7426
1.41267	7422
1.41333	7418
1.41400	7414
1.41467	7409
1.41533	7405
1.41600	7401
1.41667	7397
1.41733	7393
1.41800	7388
1.41867	7384
1.41933	7381
1.42000	7377
1.42067	7373
1.42133	7369
1.42200	7365
1.42267	7361
1.42333	7358
1.42400	7354
1.42467	7351
1.42533	7347
1.42600	7343
1.42667	7340
1.42733	7336
1.42800	7333
1.42867	7330
1.42933	7326
1.43000	7323
1.43067	7319
1.43133	7316
1.43200	7312
1.43267	7309
1.43333	7306
1.43400	7302
1.43467	7299
1.43533	7296
1.43600	7292
1.43667	7289
1.43733	7286
1.43800	7282
1.43867	7279
1.43933	7276
1.44000	7273
1.44067	7269
1.44133	7266
1.44200	7263
1.44267	7260
1.44333	7256
1.44400	7253
1.44467	7250
1.44533	7247
1.44600	7244
1.44667	7241
1.44733	7238
1.44800	7235
1.44867	7232
1.44933	7229
1.45000	7226
1.45067	7223
1.45133	7220
1.45200	7218
1.45267	7215
1.45333	7212
1.45400	7209
1.45467	7206
1.45533	7203
1.45600	7200
1.45667	7198
1.45733	7195
1.45800	7192
1.45867	7189
1.45933	7186
1.46000	7183
1.46067	7181
1.46133	7178
1.46200	7175
1.46267	7172
1.46333	7170
1.46400	7167
1.46467	7165
1.46533	7162
1.46600	7160
1.46667	7157
1.46733	7155
1.46800	7152
1.46867	7150
1.46933	7148
1.47000	7145
1.47067	7143
1.47133	7141
1.47200	7138
1.47267	7136
1.47333	7134
1.47400	7132
1.47467	7130
1.47533	7127
1.47600	7125
1.47667	7123
1.47733	7121
1.47800	7119
1.47867	7117
1.47933	7114
1.48000	7112
1.48067	7110
1.48133	7108
1.48200	7106
1.48267	7104
1.48333	7101
1.48400	7099
1.48467	7097
1.48533	7095
1.48600	7093
1.48667	7090
1.48733	7088
1.48800	7086
1.48867	7083
1.48933	7081
1.49000	7079
1.49067	7076
1.49133	7074
1.49200	7072
1.49267	7069
1.49333	7067
1.49400	7064
1.49467	7062
1.49533	7059
1.49600	7057
1.49667	7054
1.49733	7052
1.49800	7049
1.49867	7046
1.49933	7044
1.50000	7041
1.50067	7038
1.50133	7036
1.50200	7033
1.50267	7030
1.50333	7028
1.50400	7025
1.50467	7022
1.50533	7020
1.50600	7017
1.50667	7014
1.50733	7012
1.50800	7009
1.50867	7006
1.50933	7004
1.51000	7001
1.51067	6999
1.51133	6996
1.51200	6994
1.51267	6991
1.51333	6989
1.51400	6986
1.51467	6984
1.51533	6981
1.51600	6979
1.51667	6976
1.51733	6974
1.51800	6971
1.51867	6969
1.51933	6966
1.52000	6964
1.52067	6961
1.52133	6959
1.52200	6957
1.52267	6954
1.52333	6952
1.52400	6949
1.52467	6947
1.52533	6945
1.52600	6942
1.52667	6940
1.52733	6938
1.52800	6935
1.52867	6933
1.52933	6930
1.53000	6928
1.53067	6926
1.53133	6923
1.53200	6921
1.53267	6918
1.53333	6916
1.53400	6913
1.53467	6911
1.53533	6908
1.53600	6906
1.53667	6904
1.53733	6901
1.53800	6899
1.53867	6897
1.53933	6895
1.54000	6893
1.54067	6891
1.54133	6888
1.54200	6886
1.54267	6884
1.54333	6882
1.54400	6880
1.54467	6878
1.54533	6877
1.54600	6875
1.54667	6873
1.54733	6871
1.54800	6869
1.54867	6867
1.54933	6866
1.55000	6864
1.55067	6862
1.55133	6860
1.55200	6858
1.55267	6856
1.55333	6855
1.55400	6853
1.55467	6851
1.55533	6849
1.55600	6847
1.55667	6845
1.55733	6843
1.55800	6841
1.55867	6839
1.55933	6837
1.56000	6835
1.56067	6834
1.56133	6832
1.56200	6830
1.56267	6828
1.56333	6826
1.56400	6824
1.56467	6823
1.56533	6821
1.56600	6819
1.56667	6817
1.56733	6815
1.56800	6813
1.56867	6811
1.56933	6809
1.57000	6807
1.57067	6805
1.57133	6802
1.57200	6800
1.57267	6798
1.57333	6796
1.57400	6795
1.57467	6793
1.57533	6791
1.57600	6789
1.57667	6787
1.57733	6785
1.57800	6783
1.57867	6781
1.57933	6780
1.58000	6778
1.58067	6776
1.58133	6774
1.58200	6772
1.58267	6771
1.58333	6769
1.58400	6767
1.58467	6765
1.58533	6764
1.58600	6762
1.58667	6760
1.58733	6759
1.58800	6757
1.58867	6756
1.58933	6754
1.59000	6752
1.59067	6751
1.59133	6749
1.59200	6748
1.59267	6746
1.59333	6745
1.59400	6743
1.59467	6742
1.59533	6740
1.59600	6739
1.59667	6737
1.59733	6736
1.59800	6735
1.59867	6733
1.59933	6732
1.60000	6731
1.60067	6730
1.60133	6728
1.60200	6727
1.60267	6726
1.60333	6725
1.60400	6723
1.60467	6722
1.60533	6721
1.60600	6720
1.60667	6718
1.60733	6717
1.60800	6716
1.60867	6715
1.60933	6713
1.61000	6712
1.61067	6711
1.61133	6709
1.61200	6708
1.61267	6707
1.61333	6706
1.61400	6705
1.61467	6704
1.61533	6702
1.61600	6701
1.61667	6700
1.61733	6699
1.61800	6697
1.61867	6696
1.61933	6695
1.62000	6693
1.62067	6692
1.62133	6691
1.62200	6689
1.62267	6688
1.62333	6686
1.62400	6685
1.62467	6684
1.62533	6682
1.62600	6681
1.62667	6679
1.62733	6678
1.62800	6677
1.62867	6675
1.62933	6674
1.63000	6673
1.63067	6671
1.63133	6670
1.63200	6669
1.63267	6668
1.63333	6666
1.63400	6665
1.63467	6664
1.63533	6663
1.63600	6661
1.63667	6660
1.63733	6659
1.63800	6658
1.63867	6657
1.63933	6656
1.64000	6655
1.64067	6654
1.64133	6654
1.64200	6653
1.64267	6652
1.64333	6651
1.64400	6650
1.64467	6650
1.64533	6649
1.64600	6648
1.64667	6647
1.64733	6647
1.64800	6646
1.64867	6645
1.64933	6645
1.65000	6644
1.65067	6643
1.65133	6642
1.65200	6641
1.65267	6640
1.65333	6640
1.65400	6639
1.65467	6638
1.65533	6637
1.65600	6636
1.65667	6635
1.65733	6634
1.65800	6633
1.65867	6632
1.65933	6631
1.66000	6630
1.66067	6629
1.66133	6628
1.66200	6627
1.66267	6626
1.66333	6625
1.66400	6624
1.66467	6623
1.66533	6622
1.66600	6621
1.66667	6620
1.66733	6619
1.66800	6618
1.66867	6616
1.66933	6615
1.67000	6614
1.67067	6613
1.67133	6611
1.67200	6610
1.67267	6609
1.67333	6607
1.67400	6606
1.67467	6604
1.67533	6603
1.67600	6602
1.67667	6601
1.67733	6599
1.67800	6598
1.67867	6597
1.67933	6596
1.68000	6594
1.68067	6593
1.68133	6592
1.68200	6591
1.68267	6590
1.68333	6588
1.68400	6587
1.68467	6586
1.68533	6585
1.68600	6583
1.68667	6582
1.68733	6581
1.68800	6579
1.68867	6578
1.68933	6577
1.69000	6575
1.69067	6574
1.69133	6573
1.69200	6571
1.69267	6570
1.69333	6569
1.69400	6567
1.69467	6566
1.69533	6564
1.69600	6563
1.69667	6562
1.69733	6560
1.69800	6559
1.69867	6557
1.69933	6556
1.70000	6554
1.70067	6553
1.70133	6551
1.70200	6550
1.70267	6548
1.70333	6547
1.70400	6545
1.70467	6544
1.70533	6542
1.70600	6541
1.70667	6540
1.70733	6538
1.70800	6537
1.70867	6535
1.70933	6534
1.71000	6533
1.71067	6532
1.71133	6530
1.71200	6529
1.71267	6528
1.71333	6527
1.71400	6526
1.71467	6526
1.71533	6526
1.71600	6526
1.71667	6526
1.71733	6527
1.71800	6529
1.71867	6531
1.71933	6535
1.72000	6539
1.72067	6545
1.72133	6554
1.72200	6564
1.72267	6577
1.72333	6594
1.72400	6615
1.72467	6641
1.72533	6674
1.72600	6713
1.72667	6761
1.72733	6820
1.72800	6891
1.72867	6977
1.72933	7080
1.73000	7203
1.73067	7349
1.73133	7523
1.73200	7727
1.73267	7967
1.73333	8247
1.73400	8574
1.73467	8953
1.73533	9392
1.73600	9898
1.73667	10477
1.73733	11138
1.73800	11890
1.73867	12744
1.73933	13710
1.74000	14800
1.74067	16026
1.74133	17401
1.74200	18940
1.74267	20655
1.74333	22561
1.74400	24671
1.74467	26997
1.74533	29554
1.74600	32356
1.74667	35420
1.74733	38761
1.74800	42393
1.74867	46333
1.74933	50593
1.75000	55189
1.75067	60133
1.75133	65436
1.75200	71105
1.75267	77148
1.75333	83571
1.75400	90379
1.75467	97575
1.75533	105161
1.75600	113137
1.75667	121500
1.75733	130245
1.75800	139364
1.75867	148849
1.75933	158689
1.76000	168873
1.76067	179380
1.76133	190184
1.76200	201255
1.76267	212560
1.76333	224061
1.76400	235717
1.76467	247485
1.76533	259322
1.76600	271183
1.76667	283024
1.76733	294796
1.76800	306448
1.76867	317928
1.76933	329186
1.77000	340171
1.77067	350839
1.77133	361145
1.77200	371051
1.77267	380514
1.77333	389500
1.77400	397973
1.77467	405905
1.77533	413269
1.77600	420046
1.77667	426219
1.77733	431780
1.77800	436724
1.77867	441048
1.77933	444756
1.78000	447854
1.78067	450351
1.78133	452261
1.78200	453600
1.78267	454385
1.78333	454637
1.78400	454376
1.78467	453626
1.78533	452409
1.78600	450750
1.78667	448674
1.78733	446203
1.78800	443364
1.78867	440181
1.78933	436676
1.79000	432875
1.79067	428798
1.79133	424469
1.79200	419909
1.79267	415139
1.79333	410176
1.79400	405042
1.79467	399752
1.79533	394325
1.79600	388776
1.79667	383121
1.79733	377373
1.79800	371547
1.79867	365655
1.79933	359710
1.80000	353722
1.80067	347702
1.80133	341660
1.80200	335605
1.80267	329547
1.80333	323492
1.80400	317449
1.80467	311425
1.80533	305426
1.80600	299457
1.80667	293525
1.80733	287635
1.80800	281791
1.80867	275998
1.80933	270260
1.81000	264579
1.81067	258961
1.81133	253407
1.81200	247920
1.81267	242503
1.81333	237157
1.81400	231886
1.81467	226690
1.81533	221571
1.81600	216531
1.81667	211570
1.81733	206689
1.81800	201890
1.81867	197172
1.81933	192536
1.82000	187983
1.82067	183513
1.82133	179125
1.82200	174820
1.82267	170597
1.82333	166457
1.82400	162398
1.82467	158422
1.82533	154526
1.82600	150710
1.82667	146975
1.82733	143318
1.82800	139740
1.82867	136240
1.82933	132816
1.83000	129468
1.83067	126194
1.83133	122995
1.83200	119869
1.83267	116814
1.83333	113831
1.83400	110917
1.83467	108072
1.83533	105295
1.83600	102584
1.83667	99939
1.83733	97358
1.83800	94840
1.83867	92384
1.83933	89989
1.84000	87654
1.84067	85377
1.84133	83158
1.84200	80995
1.84267	78887
1.84333	76834
1.84400	74833
1.84467	72884
1.84533	70986
1.84600	69138
1.84667	67338
1.84733	65586
1.84800	63881
1.84867	62221
1.84933	60606
1.85000	59034
1.85067	57504
1.85133	56016
1.85200	54569
1.85267	53161
1.85333	51792
1.85400	50460
1.85467	49166
1.85533	47907
1.85600	46683
1.85667	45494
1.85733	44337
1.85800	43213
1.85867	42121
1.85933	41060
1.86000	40028
1.86067	39026
1.86133	38052
1.86200	37107
1.86267	36188
1.86333	35295
1.86400	34428
1.86467	33586
1.86533	32769
1.86600	31974
1.86667	31203
1.86733	30454
1.86800	29727
1.86867	29021
1.86933	28336
1.87000	27670
1.87067	27024
1.87133	26397
1.87200	25788
1.87267	25197
1.87333	24624
1.87400	24067
1.87467	23526
1.87533	23002
1.87600	22493
1.87667	21999
1.87733	21520
1.87800	21055
1.87867	20604
1.87933	20166
1.88000	19741
1.88067	19329
1.88133	18929
1.88200	18541
1.88267	18165
1.88333	17800
1.88400	17446
1.88467	17103
1.88533	16770
1.88600	16447
1.88667	16134
1.88733	15831
1.88800	15536
1.88867	15251
1.88933	14974
1.89000	14706
1.89067	14445
1.89133	14193
1.89200	13948
1.89267	13711
1.89333	13481
1.89400	13259
1.89467	13042
1.89533	12833
1.89600	12630
1.89667	12433
1.89733	12242
1.89800	12057
1.89867	11877
1.89933	11703
1.90000	11534
1.90067	11371
1.90133	11212
1.90200	11058
1.90267	10909
1.90333	10764
1.90400	10624
1.90467	10488
1.90533	10357
1.90600	10229
1.90667	10105
1.90733	9984
1.90800	9868
1.90867	9755
1.90933	9645
1.91000	9538
1.91067	9435
1.91133	9335
1.91200	9237
1.91267	9143
1.91333	9051
1.91400	8962
1.91467	8876
1.91533	8792
1.91600	8711
1.91667	8632
1.91733	8555
1.91800	8480
1.91867	8408
1.91933	8338
1.92000	8269
1.92067	8202
1.92133	8138
1.92200	8075
1.92267	8014
1.92333	7954
1.92400	7897
1.92467	7840
1.92533	7786
1.92600	7732
1.92667	7681
1.92733	7631
1.92800	7582
1.92867	7534
1.92933	7488
1.93000	7443
1.93067	7400
1.93133	7357
1.93200	7316
1.93267	7276
1.93333	7236
1.93400	7198
1.93467	7161
1.93533	7125
1.93600	7090
1.93667	7056
1.93733	7023
1.93800	6991
1.93867	6960
1.93933	6929
1.94000	6900
1.94067	6871
1.94133	6843
1.94200	6816
1.94267	6789
1.94333	6764
1.94400	6739
1.94467	6714
1.94533	6691
1.94600	6668
1.94667	6645
1.94733	6624
1.94800	6603
1.94867	6582
1.94933	6562
1.95000	6543
1.95067	6524
1.95133	6506
1.95200	6488
1.95267	6470
1.95333	6453
1.95400	6437
1.95467	6421
1.95533	6405
1.95600	6390
1.95667	6375
1.95733	6361
1.95800	6346
1.95867	6333
1.95933	6319
1.96000	6306
1.96067	6293
1.96133	6281
1.96200	6269
1.96267	6257
1.96333	6246
1.96400	6235
1.96467	6224
1.96533	6213
1.96600	6203
1.96667	6193
1.96733	6183
1.96800	6173
1.96867	6164
1.96933	6155
1.97000	6147
1.97067	6138
1.97133	6130
1.97200	6121
1.97267	6114
1.97333	6106
1.97400	6098
1.97467	6091
1.97533	6083
1.97600	6076
1.97667	6069
1.97733	6062
1.97800	6055
1.97867	6048
1.97933	6042
1.98000	6036
1.98067	6029
1.98133	6023
1.98200	6017
1.98267	6011
1.98333	6005
1.98400	5999
1.98467	5994
1.98533	5988
1.98600	5983
1.98667	5978
1.98733	5973
1.98800	5968
1.98867	5963
1.98933	5958
1.99000	5953
1.99067	5949
1.99133	5945
1.99200	5940
1.99267	5936
1.99333	5932
1.99400	5928
1.99467	5924
1.99533	5921
1.99600	5917
1.99667	5913
1.99733	5910
1.99800	5906
1.99867	5903
1.99933	5899
2.00000	5896
2.00067	5892
2.00133	5889
2.00200	5886
2.00267	5882
2.00333	5879
2.00400	5876
2.00467	5872
2.00533	5869
2.00600	5865
2.00667	5862
2.00733	5859
2.00800	5855
2.00867	5852
2.00933	5848
2.01000	5845
2.01067	5841
2.01133	5837
2.01200	5834
2.01267	5830
2.01333	5827
2.01400	5823
2.01467	5819
2.01533	5816
2.01600	5812
2.01667	5808
2.01733	5804
2.01800	5801
2.01867	5797
2.01933	5793
2.02000	5790
2.02067	5786
2.02133	5783
2.02200	5779
2.02267	5775
2.02333	5772
2.02400	5768
2.02467	5765
2.02533	5761
2.02600	5758
2.02667	5754
2.02733	5751
2.02800	5747
2.02867	5744
2.02933	5740
2.03000	5737
2.03067	5733
2.03133	5730
2.03200	5726
2.03267	5723
2.03333	5719
2.03400	5716
2.03467	5713
2.03533	5709
2.03600	5706
2.03667	5703
2.03733	5699
2.03800	5696
2.03867	5693
2.03933	5689
2.04000	5686
2.04067	5683
2.04133	5680
2.04200	5676
2.04267	5673
2.04333	5670
2.04400	5667
2.04467	5664
2.04533	5661
2.04600	5657
2.04667	5654
2.04733	5651
2.04800	5648
2.04867	5645
2.04933	5642
2.05000	5640
2.05067	5637
2.05133	5634
2.05200	5631
2.05267	5628
2.05333	5625
2.05400	5622
2.05467	5619
2.05533	5616
2.05600	5613
2.05667	5610
2.05733	5607
2.05800	5605
2.05867	5602
2.05933	5599
2.06000	5596
2.06067	5593
2.06133	5590
2.06200	5587
2.06267	5585
2.06333	5582
2.06400	5579
2.06467	5576
2.06533	5573
2.06600	5571
2.06667	5568
2.06733	5565
2.06800	5563
2.06867	5560
2.06933	5557
2.07000	5555
2.07067	5552
2.07133	5550
2.07200	5547
2.07267	5545
2.07333	5542
2.07400	5540
2.07467	5537
2.07533	5535
2.07600	5532
2.07667	5530
2.07733	5528
2.07800	5525
2.07867	5523
2.07933	5521
2.08000	5518
2.08067	5516
2.08133	5514
2.08200	5512
2.08267	5510
2.08333	5508
2.08400	5506
2.08467	5504
2.08533	5502
2.08600	5500
2.08667	5498
2.08733	5495
2.08800	5493
2.08867	5491
2.08933	5489
2.09000	5487
2.09067	5485
2.09133	5484
2.09200	5482
2.09267	5480
2.09333	5478
2.09400	5476
2.09467	5474
2.09533	5472
2.09600	5470
2.09667	5468
2.09733	5466
2.09800	5464
2.09867	5463
2.09933	5461
2.10000	5459
2.10067	5457
2.10133	5455
2.10200	5453
2.10267	5452
2.10333	5450
2.10400	5448
2.10467	5446
2.10533	5444
2.10600	5442
2.10667	5440
2.10733	5438
2.10800	5437
2.10867	5435
2.10933	5433
2.11000	5431
2.11067	5429
2.11133	5427
2.11200	5425
2.11267	5423
2.11333	5421
2.11400	5419
2.11467	5418
2.11533	5416
2.11600	5414
2.11667	5412
2.11733	5410
2.11800	5408
2.11867	5407
2.11933	5405
2.12000	5403
2.12067	5401
2.12133	5399
2.12200	5397
2.12267	5395
2.12333	5393
2.12400	5391
2.12467	5389
2.12533	5387
2.12600	5385
2.12667	5383
2.12733	5381
2.12800	5379
2.12867	5377
2.12933	5375
2.13000	5373
2.13067	5371
2.13133	5369
2.13200	5367
2.13267	5365
2.13333	5363
2.13400	5361
2.13467	5359
2.13533	5358
2.13600	5356
2.13667	5354
2.13733	5352
2.13800	5350
2.13867	5348
2.13933	5346
2.14000	5344
2.14067	5342
2.14133	5340
2.14200	5338
2.14267	5336
2.14333	5334
2.14400	5332
2.14467	5330
2.14533	5328
2.14600	5326
2.14667	5324
2.14733	5322
2.14800	5320
2.14867	5319
2.14933	5317
2.15000	5315
2.15067	5313
2.15133	5311
2.15200	5310
2.15267	5308
2.15333	5306
2.15400	5304
2.15467	5303
2.15533	5301
2.15600	5299
2.15667	5297
2.15733	5296
2.15800	5294
2.15867	5292
2.15933	5291
2.16000	5289
2.16067	5287
2.16133	5286
2.16200	5284
2.16267	5282
2.16333	5281
2.16400	5279
2.16467	5277
2.16533	5276
2.16600	5274
2.16667	5273
2.16733	5271
2.16800	5269
2.16867	5268
2.16933	5266
2.17000	5265
2.17067	5263
2.17133	5262
2.17200	5260
2.17267	5259
2.17333	5257
2.17400	5256
2.17467	5254
2.17533	5253
2.17600	5251
2.17667	5250
2.17733	5248
2.17800	5247
2.17867	5245
2.17933	5244
2.18000	5242
2.18067	5241
2.18133	5240
2.18200	5238
2.18267	5237
2.18333	5235
2.18400	5234
2.18467	5233
2.18533	5231
2.18600	5230
2.18667	5229
2.18733	5227
2.18800	5226
2.18867	5225
2.18933	5224
2.19000	5222
2.19067	5221
2.19133	5220
2.19200	5219
2.19267	5218
2.19333	5216
2.19400	5215
2.19467	5214
2.19533	5213
2.19600	5212
2.19667	5211
2.19733	5210
2.19800	5209
2.19867	5209
2.19933	5208
2.20000	5207
2.20067	5206
2.20133	5206
2.20200	5205
2.20267	5204
2.20333	5204
2.20400	5203
2.20467	5203
2.20533	5202
2.20600	5202
2.20667	5201
2.20733	5201
2.20800	5201
2.20867	5200
2.20933	5200
2.21000	5200
2.21067	5200
2.21133	5200
2.21200	5201
2.21267	5201
2.21333	5201
2.21400	5202
2.21467	5202
2.21533	5203
2.21600	5204
2.21667	5204
2.21733	5205
2.21800	5206
2.21867	5207
2.21933	5208
2.22000	5209
2.22067	5210
2.22133	5211
2.22200	5212
2.22267	5213
2.22333	5214
2.22400	5215
2.22467	5216
2.22533	5217
2.22600	5218
2.22667	5219
2.22733	5220
2.22800	5221
2.22867	5222
2.22933	5223
2.23000	5223
2.23067	5224
2.23133	5224
2.23200	5225
2.23267	5225
2.23333	5225
2.23400	5226
2.23467	5226
2.23533	5226
2.23600	5226
2.23667	5226
2.23733	5226
2.23800	5226
2.23867	5225
2.23933	5225
2.24000	5225
2.24067	5224
2.24133	5224
2.24200	5223
2.24267	5223
2.24333	5222
2.24400	5222
2.24467	5221
2.24533	5220
2.24600	5220
2.24667	5219
2.24733	5219
2.24800	5218
2.24867	5217
2.24933	5217
2.25000	5216
2.25067	5215
2.25133	5214
2.25200	5214
2.25267	5213
2.25333	5212
2.25400	5211
2.25467	5210
2.25533	5210
2.25600	5209
2.25667	5208
2.25733	5207
2.25800	5206
2.25867	5205
2.25933	5203
2.26000	5202
2.26067	5201
2.26133	5200
2.26200	5199
2.26267	5198
2.26333	5197
2.26400	5195
2.26467	5194
2.26533	5193
2.26600	5192
2.26667	5191
2.26733	5189
2.26800	5188
2.26867	5187
2.26933	5185
2.27000	5184
2.27067	5183
2.27133	5181
2.27200	5180
2.27267	5179
2.27333	5177
2.27400	5176
2.27467	5174
2.27533	5173
2.27600	5171
2.27667	5170
2.27733	5168
2.27800	5167
2.27867	5165
2.27933	5163
2.28000	5162
2.28067	5160
2.28133	5159
2.28200	5157
2.28267	5155
2.28333	5154
2.28400	5152
2.28467	5150
2.28533	5149
2.28600	5147
2.28667	5145
2.28733	5144
2.28800	5142
2.28867	5141
2.28933	5139
2.29000	5138
2.29067	5136
2.29133	5135
2.29200	5134
2.29267	5132
2.29333	5131
2.29400	5130
2.29467	5129
2.29533	5127
2.29600	5126
2.29667	5125
2.29733	5124
2.29800	5123
2.29867	5121
2.29933	5120
2.30000	5119
2.30067	5118
2.30133	5116
2.30200	5115
2.30267	5114
2.30333	5113
2.30400	5112
2.30467	5111
2.30533	5110
2.30600	5109
2.30667	5108
2.30733	5107
2.30800	5106
2.30867	5105
2.30933	5104
2.31000	5103
2.31067	5102
2.31133	5102
2.31200	5101
2.31267	5100
2.31333	5100
2.31400	5099
2.31467	5098
2.31533	5098
2.31600	5097
2.31667	5096
2.31733	5096
2.31800	5095
2.31867	5095
2.31933	5094
2.32000	5093
2.32067	5093
2.32133	5093
2.32200	5092
2.32267	5092
2.32333	5091
2.32400	5091
2.32467	5090
2.32533	5090
2.32600	5090
2.32667	5089
2.32733	5089
2.32800	5089
2.32867	5088
2.32933	5088
2.33000	5088
2.33067	5088
2.33133	5087
2.33200	5087
2.33267	5087
2.33333	5087
2.33400	5086
2.33467	5086
2.33533	5086
2.33600	5086
2.33667	5086
2.33733	5085
2.33800	5085
2.33867	5085
2.33933	5085
2.34000	5085
2.34067	5085
2.34133	5084
2.34200	5084
2.34267	5084
2.34333	5084
2.34400	5084
2.34467	5084
2.34533	5085
2.34600	5085
2.34667	5085
2.34733	5085
2.34800	5085
2.34867	5086
2.34933	5086
2.35000	5086
2.35067	5087
2.35133	5087
2.35200	5087
2.35267	5088
2.35333	5088
2.35400	5089
2.35467	5089
2.35533	5090
2.35600	5090
2.35667	5091
2.35733	5091
2.35800	5092
2.35867	5092
2.35933	5093
2.36000	5093
2.36067	5094
2.36133	5094
2.36200	5095
2.36267	5095
2.36333	5096
2.36400	5097
2.36467	5097
2.36533	5098
2.36600	5098
2.36667	5099
2.36733	5099
2.36800	5100
2.36867	5101
2.36933	5101
2.37000	5102
2.37067	5102
2.37133	5103
2.37200	5103
2.37267	5104
2.37333	5104
2.37400	5105
2.37467	5105
2.37533	5105
2.37600	5106
2.37667	5106
2.37733	5106
2.37800	5106
2.37867	5107
2.37933	5107
2.38000	5107
2.38067	5107
2.38133	5107
2.38200	5107
2.38267	5108
2.38333	5108
2.38400	5108
2.38467	5108
2.38533	5108
2.38600	5108
2.38667	5108
2.38733	5108
2.38800	5108
2.38867	5108
2.38933	5108
2.39000	5108
2.39067	5108
2.39133	5108
2.39200	5108
2.39267	5108
2.39333	5108
2.39400	5108
2.39467	5108
2.39533	5107
2.39600	5107
2.39667	5107
2.39733	5107
2.39800	5106
2.39867	5106
2.39933	5106
2.40000	5105
2.40067	5105
2.40133	5105
2.40200	5104
2.40267	5104
2.40333	5104
2.40400	5103
2.40467	5103
2.40533	5103
2.40600	5102
2.40667	5102
2.40733	5102
2.40800	5101
2.40867	5101
2.40933	5101
2.41000	5100
2.41067	5100
2.41133	5100
2.41200	5099
2.41267	5099
2.41333	5099
2.41400	5098
2.41467	5098
2.41533	5097
2.41600	5097
2.41667	5096
2.41733	5096
2.41800	5096
2.41867	5095
2.41933	5094
2.42000	5094
2.42067	5093
2.42133	5093
2.42200	5092
2.42267	5091
2.42333	5091
2.42400	5090
2.42467	5089
2.42533	5088
2.42600	5087
2.42667	5087
2.42733	5086
2.42800	5085
2.42867	5084
2.42933	5083
2.43000	5082
2.43067	5081
2.43133	5080
2.43200	5079
2.43267	5078
2.43333	5076
2.43400	5075
2.43467	5074
2.43533	5073
2.43600	5071
2.43667	5070
2.43733	5069
2.43800	5067
2.43867	5066
2.43933	5064
2.44000	5063
2.44067	5061
2.44133	5060
2.44200	5058
2.44267	5056
2.44333	5055
2.44400	5053
2.44467	5051
2.44533	5050
2.44600	5048
2.44667	5046
2.44733	5044
2.44800	5042
2.44867	5040
2.44933	5038
2.45000	5036
2.45067	5034
2.45133	5032
2.45200	5030
2.45267	5028
2.45333	5026
2.45400	5024
2.45467	5022
2.45533	5020
2.45600	5018
2.45667	5016
2.45733	5014
2.45800	5012
2.45867	5010
2.45933	5008
2.46000	5006
2.46067	5004
2.46133	5002
2.46200	5000
2.46267	4998
2.46333	4996
2.46400	4994
2.46467	4992
2.46533	4990
2.46600	4988
2.46667	4986
2.46733	4984
2.46800	4982
2.46867	4980
2.46933	4978
2.47000	4976
2.47067	4974
2.47133	4972
2.47200	4970
2.47267	4968
2.47333	4966
2.47400	4964
2.47467	4963
2.47533	4961
2.47600	4959
2.47667	4957
2.47733	4955
2.47800	4953
2.47867	4951
2.47933	4949
2.48000	4947
2.48067	4946
2.48133	4944
2.48200	4942
2.48267	4940
2.48333	4938
2.48400	4936
2.48467	4935
2.48533	4933
2.48600	4931
2.48667	4929
2.48733	4927
2.48800	4925
2.48867	4924
2.48933	4922
2.49000	4920
2.49067	4918
2.49133	4916
2.49200	4914
2.49267	4912
2.49333	4911
2.49400	4909
2.49467	4907
2.49533	4905
2.49600	4903
2.49667	4901
2.49733	4900
2.49800	4898
2.49867	4896
2.49933	4894
2.50000	4892
2.50067	4890
2.50133	4889
2.50200	4887
2.50267	4885
2.50333	4883
2.50400	4882
2.50467	4880
2.50533	4878
2.50600	4877
2.50667	4875
2.50733	4873
2.50800	4871
2.50867	4870
2.50933	4868
2.51000	4866
2.51067	4865
2.51133	4863
2.51200	4861
2.51267	4860
2.51333	4858
2.51400	4856
2.51467	4855
2.51533	4853
2.51600	4852
2.51667	4850
2.51733	4849
2.51800	4847
2.51867	4846
2.51933	4844
2.52000	4843
2.52067	4841
2.52133	4839
2.52200	4838
2.52267	4836
2.52333	4834
2.52400	4833
2.52467	4831
2.52533	4829
2.52600	4827
2.52667	4825
2.52733	4824
2.52800	4822
2.52867	4820
2.52933	4818
2.53000	4816
2.53067	4814
2.53133	4813
2.53200	4811
2.53267	4809
2.53333	4807
2.53400	4805
2.53467	4803
2.53533	4802
2.53600	4800
2.53667	4798
2.53733	4796
2.53800	4795
2.53867	4793
2.53933	4791
2.54000	4790
2.54067	4788
2.54133	4786
2.54200	4785
2.54267	4783
2.54333	4782
2.54400	4780
2.54467	4778
2.54533	4776
2.54600	4775
2.54667	4773
2.54733	4771
2.54800	4769
2.54867	4767
2.54933	4766
2.55000	4764
2.55067	4762
2.55133	4760
2.55200	4759
2.55267	4757
2.55333	4755
2.55400	4753
2.55467	4752
2.55533	4750
2.55600	4748
2.55667	4746
2.55733	4745
2.55800	4743
2.55867	4741
2.55933	4739
2.56000	4738
2.56067	4736
2.56133	4734
2.56200	4732
2.56267	4730
2.56333	4729
2.56400	4727
2.56467	4725
2.56533	4724
2.56600	4722
2.56667	4720
2.56733	4719
2.56800	4717
2.56867	4716
2.56933	4714
2.57000	4712
2.57067	4711
2.57133	4709
2.57200	4708
2.57267	4706
2.57333	4705
2.57400	4704
2.57467	4702
2.57533	4701
2.57600	4700
2.57667	4698
2.57733	4697
2.57800	4696
2.57867	4694
2.57933	4693
2.58000	4692
2.58067	4691
2.58133	4690
2.58200	4689
2.58267	4687
2.58333	4686
2.58400	4685
2.58467	4684
2.58533	4683
2.58600	4682
2.58667	4681
2.58733	4680
2.58800	4679
2.58867	4678
2.58933	4677
2.59000	4676
2.59067	4675
2.59133	4674
2.59200	4673
2.59267	4672
2.59333	4671
2.59400	4670
2.59467	4669
2.59533	4668
2.59600	4667
2.59667	4666
2.59733	4665
2.59800	4664
2.59867	4663
2.59933	4663
2.60000	4662
2.60067	4661
2.60133	4660
2.60200	4659
2.60267	4658
2.60333	4658
2.60400	4657
2.60467	4656
2.60533	4655
2.60600	4655
2.60667	4654
2.60733	4653
2.60800	4652
2.60867	4652
2.60933	4651
2.61000	4650
2.61067	4649
2.61133	4649
2.61200	4648
2.61267	4647
2.61333	4646
2.61400	4646
2.61467	4645
2.61533	4644
2.61600	4643
2.61667	4642
2.61733	4642
2.61800	4641
2.61867	4640
2.61933	4639
2.62000	4638
2.62067	4637
2.62133	4637
2.62200	4636
2.62267	4635
2.62333	4634
2.62400	4634
2.62467	4633
2.62533	4632
2.62600	4631
2.62667	4631
2.62733	4630
2.62800	4629
2.62867	4628
2.62933	4627
2.63000	4626
2.63067	4626
2.63133	4625
2.63200	4624
2.63267	4623
2.63333	4622
2.63400	4621
2.63467	4621
2.63533	4620
2.63600	4619
2.63667	4618
2.63733	4617
2.63800	4616
2.63867	4616
2.63933	4615
2.64000	4614
2.64067	4613
2.64133	4612
2.64200	4611
2.64267	4610
2.64333	4609
2.64400	4608
2.64467	4607
2.64533	4606
2.64600	4605
2.64667	4604
2.64733	4603
2.64800	4602
2.64867	4601
2.64933	4600
2.65000	4599
2.65067	4598
2.65133	4597
2.65200	4595
2.65267	4594
2.65333	4593
2.65400	4592
2.65467	4591
2.65533	4590
2.65600	4589
2.65667	4588
2.65733	4587
2.65800	4586
2.65867	4584
2.65933	4583
2.66000	4582
2.66067	4581
2.66133	4580
2.66200	4579
2.66267	4577
2.66333	4576
2.66400	4575
2.66467	4574
2.66533	4573
2.66600	4571
2.66667	4570
2.66733	4569
2.66800	4568
2.66867	4566
2.66933	4565
2.67000	4564
2.67067	4562
2.67133	4561
2.67200	4560
2.67267	4558
2.67333	4557
2.67400	4556
2.67467	4554
2.67533	4553
2.67600	4552
2.67667	4550
2.67733	4549
2.67800	4548
2.67867	4547
2.67933	4545
2.68000	4544
2.68067	4543
2.68133	4541
2.68200	4540
2.68267	4539
2.68333	4538
2.68400	4536
2.68467	4535
2.68533	4534
2.68600	4533
2.68667	4531
2.68733	4530
2.68800	4529
2.68867	4528
2.68933	4526
2.69000	4525
2.69067	4524
2.69133	4523
2.69200	4521
2.69267	4520
2.69333	4519
2.69400	4517
2.69467	4516
2.69533	4515
2.69600	4513
2.69667	4512
2.69733	4511
2.69800	4509
2.69867	4508
2.69933	4506
2.70000	4505
2.70067	4504
2.70133	4502
2.70200	4501
2.70267	4500
2.70333	4498
2.70400	4497
2.70467	4496
2.70533	4495
2.70600	4494
2.70667	4492
2.70733	4491
2.70800	4490
2.70867	4489
2.70933	4488
2.71000	4487
2.71067	4486
2.71133	4485
2.71200	4484
2.71267	4483
2.71333	4482
2.71400	4481
2.71467	4481
2.71533	4480
2.71600	4479
2.71667	4478
2.71733	4477
2.71800	4476
2.71867	4476
2.71933	4475
2.72000	4474
2.72067	4473
2.72133	4473
2.72200	4472
2.72267	4471
2.72333	4471
2.72400	4470
2.72467	4469
2.72533	4469
2.72600	4468
2.72667	4467
2.72733	4467
2.72800	4466
2.72867	4465
2.72933	4465
2.73000	4464
2.73067	4464
2.73133	4463
2.73200	4462
2.73267	4462
2.73333	4462
2.73400	4461
2.73467	4461
2.73533	4460
2.73600	4460
2.73667	4460
2.73733	4459
2.73800	4459
2.73867	4458
2.73933	4458
2.74000	4458
2.74067	4457
2.74133	4457
2.74200	4457
2.74267	4456
2.74333	4456
2.74400	4456
2.74467	4455
2.74533	4455
2.74600	4455
2.74667	4455
2.74733	4454
2.74800	4454
2.74867	4454
2.74933	4454
2.75000	4453
2.75067	4453
2.75133	4453
2.75200	4453
2.75267	4453
2.75333	4453
2.75400	4452
2.75467	4452
2.75533	4452
2.75600	4452
2.75667	4452
2.75733	4452
2.75800	4451
2.75867	4451
2.75933	4451
2.76000	4451
2.76067	4451
2.76133	4451
2.76200	4451
2.76267	4451
2.76333	4451
2.76400	4451
2.76467	4451
2.76533	4451
2.76600	4451
2.76667	4452
2.76733	4452
2.76800	4452
2.76867	4452
2.76933	4453
2.77000	4453
2.77067	4454
2.77133	4454
2.77200	4455
2.77267	4455
2.77333	4456
2.77400	4456
2.77467	4457
2.77533	4458
2.77600	4459
2.77667	4459
2.77733	4460
2.77800	4461
2.77867	4463
2.77933	4464
2.78000	4465
2.78067	4466
2.78133	4468
2.78200	4469
2.78267	4471
2.78333	4472
2.78400	4474
2.78467	4476
2.78533	4478
2.78600	4479
2.78667	4482
2.78733	4484
2.78800	4486
2.78867	4488
2.78933	4491
2.79000	4493
2.79067	4496
2.79133	4499
2.79200	4501
2.79267	4504
2.79333	4507
2.79400	4511
2.79467	4514
2.79533	4517
2.79600	4520
2.79667	4524
2.79733	4528
2.79800	4531
2.79867	4535
2.79933	4539
2.80000	4543
2.80067	4547
2.80133	4551
2.80200	4555
2.80267	4559
2.80333	4563
2.80400	4568
2.80467	4572
2.80533	4577
2.80600	4581
2.80667	4586
2.80733	4591
2.80800	4595
2.80867	4600
2.80933	4605
2.81000	4609
2.81067	4614
2.81133	4619
2.81200	4623
2.81267	4628
2.81333	4633
2.81400	4638
2.81467	4642
2.81533	4647
2.81600	4651
2.81667	4656
2.81733	4660
2.81800	4665
2.81867	4669
2.81933	4673
2.82000	4677
2.82067	4681
2.82133	4685
2.82200	4689
2.82267	4692
2.82333	4695
2.82400	4699
2.82467	4702
2.82533	4704
2.82600	4707
2.82667	4710
2.82733	4712
2.82800	4714
2.82867	4716
2.82933	4718
2.83000	4720
2.83067	4721
2.83133	4723
2.83200	4724
2.83267	4725
2.83333	4726
2.83400	4726
2.83467	4727
2.83533	4727
2.83600	4727
2.83667	4727
2.83733	4727
2.83800	4726
2.83867	4726
2.83933	4725
2.84000	4724
2.84067	4723
2.84133	4722
2.84200	4720
2.84267	4719
2.84333	4717
2.84400	4716
2.84467	4714
2.84533	4713
2.84600	4711
2.84667	4709
2.84733	4707
2.84800	4705
2.84867	4703
2.84933	4701
2.85000	4699
2.85067	4697
2.85133	4695
2.85200	4692
2.85267	4690
2.85333	4688
2.85400	4685
2.85467	4683
2.85533	4681
2.85600	4678
2.85667	4676
2.85733	4674
2.85800	4671
2.85867	4669
2.85933	4667
2.86000	4664
2.86067	4662
2.86133	4660
2.86200	4658
2.86267	4655
2.86333	4653
2.86400	4651
2.86467	4649
2.86533	4647
2.86600	4646
2.86667	4644
2.86733	4642
2.86800	4641
2.86867	4639
2.86933	4638
2.87000	4637
2.87067	4635
2.87133	4635
2.87200	4634
2.87267	4633
2.87333	4633
2.87400	4632
2.87467	4632
2.87533	4632
2.87600	4632
2.87667	4632
2.87733	4633
2.87800	4634
2.87867	4635
2.87933	4636
2.88000	4637
2.88067	4639
2.88133	4641
2.88200	4643
2.88267	4645
2.88333	4648
2.88400	4651
2.88467	4654
2.88533	4657
2.88600	4661
2.88667	4664
2.88733	4669
2.88800	4673
2.88867	4677
2.88933	4682
2.89000	4687
2.89067	4692
2.89133	4698
2.89200	4704
2.89267	4709
2.89333	4715
2.89400	4722
2.89467	4728
2.89533	4734
2.89600	4741
2.89667	4748
2.89733	4755
2.89800	4762
2.89867	4769
2.89933	4776
2.90000	4784
2.90067	4791
2.90133	4798
2.90200	4806
2.90267	4813
2.90333	4820
2.90400	4827
2.90467	4834
2.90533	4841
2.90600	4848
2.90667	4855
2.90733	4861
2.90800	4868
2.90867	4874
2.90933	4880
2.91000	4885
2.91067	4891
2.91133	4896
2.91200	4901
2.91267	4905
2.91333	4909
2.91400	4913
2.91467	4917
2.91533	4920
2.91600	4923
2.91667	4925
2.91733	4927
2.91800	4929
2.91867	4930
2.91933	4931
2.92000	4931
2.92067	4931
2.92133	4931
2.92200	4930
2.92267	4929
2.92333	4928
2.92400	4926
2.92467	4924
2.92533	4921
2.92600	4918
2.92667	4914
2.92733	4911
2.92800	4907
2.92867	4902
2.92933	4897
2.93000	4892
2.93067	4887
2.93133	4882
2.93200	4876
2.93267	4870
2.93333	4863
2.93400	4857
2.93467	4850
2.93533	4843
2.93600	4836
2.93667	4829
2.93733	4821
2.93800	4814
2.93867	4806
2.93933	4798
2.94000	4790
2.94067	4782
2.94133	4773
2.94200	4765
2.94267	4756
2.94333	4748
2.94400	4739
2.94467	4730
2.94533	4721
2.94600	4712
2.94667	4703
2.94733	4695
2.94800	4686
2.94867	4677
2.94933	4668
2.95000	4659
2.95067	4650
2.95133	4641
2.95200	4633
2.95267	4624
2.95333	4616
2.95400	4607
2.95467	4599
2.95533	4590
2.95600	4582
2.95667	4574
2.95733	4566
2.95800	4558
2.95867	4550
2.95933	4542
2.96000	4534
2.96067	4527
2.96133	4519
2.96200	4512
2.96267	4505
2.96333	4497
2.96400	4490
2.96467	4483
2.96533	4477
2.96600	4470
2.96667	4463
2.96733	4457
2.96800	4450
2.96867	4444
2.96933	4438
2.97000	4431
2.97067	4425
2.97133	4419
2.97200	4413
2.97267	4407
2.97333	4402
2.97400	4396
2.97467	4391
2.97533	4385
2.97600	4380
2.97667	4374
2.97733	4369
2.97800	4364
2.97867	4359
2.97933	4354
2.98000	4349
2.98067	4345
2.98133	4340
2.98200	4335
2.98267	4331
2.98333	4326
2.98400	4322
2.98467	4318
2.98533	4313
2.98600	4309
2.98667	4305
2.98733	4301
2.98800	4297
2.98867	4293
2.98933	4289
2.99000	4285
2.99067	4281
2.99133	4278
2.99200	4274
2.99267	4270
2.99333	4267
2.99400	4263
2.99467	4259
2.99533	4256
2.99600	4253
2.99667	4249
2.99733	4246
2.99800	4243
2.99867	4239
2.99933	4236
3.00000	4233
3.00067	4230
3.00133	4227
3.00200	4224
3.00267	4221
3.00333	4218
3.00400	4215
3.00467	4212
3.00533	4209
3.00600	4206
3.00667	4203
3.00733	4200
3.00800	4197
3.00867	4195
3.00933	4192
3.01000	4189
3.01067	4187
3.01133	4184
3.01200	4182
3.01267	4179
3.01333	4177
3.01400	4174
3.01467	4172
3.01533	4169
3.01600	4167
3.01667	4164
3.01733	4162
3.01800	4160
3.01867	4157
3.01933	4155
3.02000	4153
3.02067	4151
3.02133	4148
3.02200	4146
3.02267	4144
3.02333	4142
3.02400	4140
3.02467	4137
3.02533	4135
3.02600	4133
3.02667	4131
3.02733	4129
3.02800	4127
3.02867	4125
3.02933	4123
3.03000	4121
3.03067	4119
3.03133	4117
3.03200	4115
3.03267	4113
3.03333	4111
3.03400	4109
3.03467	4107
3.03533	4105
3.03600	4103
3.03667	4101
3.03733	4100
3.03800	4098
3.03867	4096
3.03933	4094
3.04000	4092
3.04067	4090
3.04133	4088
3.04200	4086
3.04267	4085
3.04333	4083
3.04400	4081
3.04467	4080
3.04533	4078
3.04600	4077
3.04667	4075
3.04733	4073
3.04800	4072
3.04867	4071
3.04933	4069
3.05000	4068
3.05067	4067
3.05133	4065
3.05200	4064
3.05267	4063
3.05333	4062
3.05400	4061
3.05467	4060
3.05533	4059
3.05600	4058
3.05667	4057
3.05733	4056
3.05800	4055
3.05867	4054
3.05933	4053
3.06000	4052
3.06067	4051
3.06133	4050
3.06200	4049
3.06267	4049
3.06333	4048
3.06400	4047
3.06467	4046
3.06533	4046
3.06600	4045
3.06667	4045
3.06733	4044
3.06800	4044
3.06867	4043
3.06933	4042
3.07000	4042
3.07067	4041
3.07133	4041
3.07200	4041
3.07267	4040
3.07333	4040
3.07400	4039
3.07467	4039
3.07533	4038
3.07600	4038
3.07667	4038
3.07733	4037
3.07800	4037
3.07867	4037
3.07933	4037
3.08000	4036
3.08067	4036
3.08133	4036
3.08200	4036
3.08267	4035
3.08333	4035
3.08400	4035
3.08467	4034
3.08533	4034
3.08600	4034
3.08667	4033
3.08733	4033
3.08800	4032
3.08867	4032
3.08933	4031
3.09000	4031
3.09067	4030
3.09133	4030
3.09200	4029
3.09267	4029
3.09333	4028
3.09400	4028
3.09467	4027
3.09533	4027
3.09600	4026
3.09667	4025
3.09733	4025
3.09800	4024
3.09867	4023
3.09933	4023
3.10000	4022
3.10067	4021
3.10133	4021
3.10200	4020
3.10267	4020
3.10333	4019
3.10400	4018
3.10467	4018
3.10533	4017
3.10600	4016
3.10667	4015
3.10733	4015
3.10800	4014
3.10867	4013
3.10933	4012
3.11000	4011
3.11067	4010
3.11133	4010
3.11200	4009
3.11267	4008
3.11333	4007
3.11400	4006
3.11467	4005
3.11533	4004
3.11600	4003
3.11667	4002
3.11733	4001
3.11800	4000
3.11867	3999
3.11933	3998
3.12000	3997
3.12067	3996
3.12133	3995
3.12200	3994
3.12267	3993
3.12333	3992
3.12400	3991
3.12467	3990
3.12533	3989
3.12600	3987
3.12667	3986
3.12733	3985
3.12800	3984
3.12867	3983
3.12933	3982
3.13000	3981
3.13067	3980
3.13133	3979
3.13200	3978
3.13267	3976
3.13333	3975
3.13400	3974
3.13467	3973
3.13533	3972
3.13600	3971
3.13667	3970
3.13733	3969
3.13800	3968
3.13867	3967
3.13933	3966
3.14000	3965
3.14067	3964
3.14133	3963
3.14200	3962
3.14267	3961
3.14333	3960
3.14400	3959
3.14467	3958
3.14533	3957
3.14600	3956
3.14667	3955
3.14733	3954
3.14800	3953
3.14867	3952
3.14933	3952
3.15000	3951
3.15067	3950
3.15133	3949
3.15200	3948
3.15267	3947
3.15333	3947
3.15400	3946
3.15467	3945
3.15533	3944
3.15600	3943
3.15667	3943
3.15733	3942
3.15800	3941
3.15867	3940
3.15933	3940
3.16000	3939
3.16067	3938
3.16133	3937
3.16200	3937
3.16267	3936
3.16333	3935
3.16400	3934
3.16467	3933
3.16533	3933
3.16600	3932
3.16667	3931
3.16733	3930
3.16800	3929
3.16867	3929
3.16933	3928
3.17000	3927
3.17067	3926
3.17133	3925
3.17200	3925
3.17267	3924
3.17333	3923
3.17400	3922
3.17467	3921
3.17533	3920
3.17600	3919
3.17667	3918
3.17733	3917
3.17800	3916
3.17867	3915
3.17933	3915
3.18000	3914
3.18067	3913
3.18133	3912
3.18200	3911
3.18267	3910
3.18333	3909
3.18400	3908
3.18467	3907
3.18533	3906
3.18600	3906
3.18667	3905
3.18733	3904
3.18800	3903
3.18867	3902
3.18933	3901
3.19000	3901
3.19067	3900
3.19133	3899
3.19200	3898
3.19267	3897
3.19333	3896
3.19400	3896
3.19467	3895
3.19533	3894
3.19600	3893
3.19667	3892
3.19733	3891
3.19800	3890
3.19867	3890
3.19933	3889
3.20000	3888
3.20067	3887
3.20133	3886
3.20200	3885
3.20267	3885
3.20333	3884
3.20400	3883
3.20467	3882
3.20533	3881
3.20600	3881
3.20667	3880
3.20733	3879
3.20800	3879
3.20867	3878
3.20933	3877
3.21000	3877
3.21067	3876
3.21133	3876
3.21200	3875
3.21267	3875
3.21333	3874
3.21400	3874
3.21467	3874
3.21533	3873
3.21600	3873
3.21667	3872
3.21733	3872
3.21800	3871
3.21867	3871
3.21933	3870
3.22000	3870
3.22067	3870
3.22133	3869
3.22200	3869
3.22267	3868
3.22333	3868
3.22400	3868
3.22467	3868
3.22533	3867
3.22600	3867
3.22667	3867
3.22733	3866
3.22800	3866
3.22867	3866
3.22933	3865
3.23000	3865
3.23067	3864
3.23133	3864
3.23200	3864
3.23267	3863
3.23333	3863
3.23400	3863
3.23467	3862
3.23533	3862
3.23600	3862
3.23667	3861
3.23733	3861
3.23800	3861
3.23867	3860
3.23933	3860
3.24000	3860
3.24067	3859
3.24133	3859
3.24200	3858
3.24267	3858
3.24333	3858
3.24400	3857
3.24467	3857
3.24533	3856
3.24600	3856
3.24667	3856
3.24733	3855
3.24800	3855
3.24867	3854
3.24933	3854
3.25000	3854
3.25067	3853
3.25133	3853
3.25200	3853
3.25267	3852
3.25333	3852
3.25400	3852
3.25467	3851
3.25533	3851
3.25600	3851
3.25667	3850
3.25733	3850
3.25800	3849
3.25867	3849
3.25933	3849
3.26000	3848
3.26067	3848
3.26133	3847
3.26200	3847
3.26267	3847
3.26333	3846
3.26400	3846
3.26467	3845
3.26533	3845
3.26600	3845
3.26667	3844
3.26733	3844
3.26800	3843
3.26867	3843
3.26933	3843
3.27000	3842
3.27067	3842
3.27133	3842
3.27200	3841
3.27267	3841
3.27333	3840
3.27400	3840
3.27467	3840
3.27533	3839
3.27600	3839
3.27667	3839
3.27733	3838
3.27800	3838
3.27867	3837
3.27933	3837
3.28000	3837
3.28067	3836
3.28133	3836
3.28200	3835
3.28267	3835
3.28333	3835
3.28400	3834
3.28467	3834
3.28533	3834
3.28600	3833
3.28667	3833
3.28733	3833
3.28800	3832
3.28867	3832
3.28933	3832
3.29000	3832
3.29067	3832
3.29133	3832
3.29200	3832
3.29267	3832
3.29333	3832
3.29400	3832
3.29467	3832
3.29533	3832
3.29600	3832
3.29667	3832
3.29733	3832
3.29800	3832
3.29867	3832
3.29933	3832
3.30000	3832
3.30067	3832
3.30133	3832
3.30200	3832
3.30267	3832
3.30333	3833
3.30400	3833
3.30467	3832
3.30533	3832
3.30600	3832
3.30667	3832
3.30733	3832
3.30800	3832
3.30867	3832
3.30933	3832
3.31000	3832
3.31067	3832
3.31133	3832
3.31200	3832
3.31267	3832
3.31333	3831
3.31400	3831
3.31467	3831
3.31533	3831
3.31600	3831
3.31667	3831
3.31733	3830
3.31800	3830
3.31867	3830
3.31933	3830
3.32000	3830
3.32067	3830
3.32133	3829
3.32200	3829
3.32267	3829
3.32333	3829
3.32400	3829
3.32467	3829
3.32533	3829
3.32600	3828
3.32667	3828
3.32733	3828
3.32800	3828
3.32867	3827
3.32933	3827
3.33000	3827
3.33067	3827
3.33133	3826
3.33200	3826
3.33267	3826
3.33333	3826
3.33400	3826
3.33467	3825
3.33533	3825
3.33600	3825
3.33667	3825
3.33733	3824
3.33800	3824
3.33867	3824
3.33933	3823
3.34000	3823
3.34067	3822
3.34133	3822
3.34200	3822
3.34267	3821
3.34333	3821
3.34400	3820
3.34467	3820
3.34533	3819
3.34600	3819
3.34667	3819
3.34733	3818
3.34800	3818
3.34867	3817
3.34933	3817
3.35000	3816
3.35067	3816
3.35133	3815
3.35200	3815
3.35267	3814
3.35333	3814
3.35400	3813
3.35467	3813
3.35533	3812
3.35600	3812
3.35667	3811
3.35733	3811
3.35800	3810
3.35867	3809
3.35933	3809
3.36000	3808
3.36067	3808
3.36133	3807
3.36200	3807
3.36267	3806
3.36333	3806
3.36400	3805
3.36467	3805
3.36533	3804
3.36600	3803
3.36667	3803
3.36733	3802
3.36800	3802
3.36867	3801
3.36933	3801
3.37000	3800
3.37067	3800
3.37133	3800
3.37200	3799
3.37267	3799
3.37333	3798
3.37400	3798
3.37467	3798
3.37533	3797
3.37600	3797
3.37667	3797
3.37733	3797
3.37800	3796
3.37867	3796
3.37933	3796
3.38000	3796
3.38067	3796
3.38133	3795
3.38200	3795
3.38267	3795
3.38333	3795
3.38400	3794
3.38467	3794
3.38533	3794
3.38600	3794
3.38667	3794
3.38733	3793
3.38800	3793
3.38867	3793
3.38933	3793
3.39000	3793
3.39067	3793
3.39133	3792
3.39200	3792
3.39267	3792
3.39333	3792
3.39400	3792
3.39467	3791
3.39533	3791
3.39600	3791
3.39667	3791
3.39733	3791
3.39800	3791
3.39867	3791
3.39933	3791
3.40000	3791
3.40067	3791
3.40133	3791
3.40200	3791
3.40267	3791
3.40333	3791
3.40400	3791
3.40467	3791
3.40533	3791
3.40600	3791
3.40667	3791
3.40733	3791
3.40800	3791
3.40867	3791
3.40933	3792
3.41000	3792
3.41067	3792
3.41133	3792
3.41200	3792
3.41267	3793
3.41333	3793
3.41400	3793
3.41467	3793
3.41533	3794
3.41600	3794
3.41667	3794
3.41733	3794
3.41800	3795
3.41867	3795
3.41933	3795
3.42000	3796
3.42067	3796
3.42133	3797
3.42200	3797
3.42267	3798
3.42333	3798
3.42400	3798
3.42467	3799
3.42533	3799
3.42600	3800
3.42667	3800
3.42733	3800
3.42800	3801
3.42867	3801
3.42933	3802
3.43000	3802
3.43067	3802
3.43133	3803
3.43200	3803
3.43267	3803
3.43333	3804
3.43400	3804
3.43467	3805
3.43533	3805
3.43600	3806
3.43667	3806
3.43733	3807
3.43800	3807
3.43867	3808
3.43933	3809
3.44000	3809
3.44067	3810
3.44133	3810
3.44200	3811
3.44267	3811
3.44333	3812
3.44400	3812
3.44467	3813
3.44533	3813
3.44600	3814
3.44667	3814
3.44733	3815
3.44800	3815
3.44867	3816
3.44933	3817
3.45000	3817
3.45067	3818
3.45133	3818
3.45200	3819
3.45267	3820
3.45333	3820
3.45400	3821
3.45467	3822
3.45533	3822
3.45600	3823
3.45667	3824
3.45733	3825
3.45800	3826
3.45867	3827
3.45933	3828
3.46000	3828
3.46067	3829
3.46133	3830
3.46200	3831
3.46267	3833
3.46333	3834
3.46400	3835
3.46467	3836
3.46533	3837
3.46600	3838
3.46667	3839
3.46733	3841
3.46800	3842
3.46867	3843
3.46933	3844
3.47000	3846
3.47067	3847
3.47133	3848
3.47200	3850
3.47267	3851
3.47333	3853
3.47400	3854
3.47467	3856
3.47533	3857
3.47600	3859
3.47667	3861
3.47733	3862
3.47800	3864
3.47867	3866
3.47933	3868
3.48000	3870
3.48067	3872
3.48133	3874
3.48200	3876
3.48267	3878
3.48333	3880
3.48400	3883
3.48467	3885
3.48533	3887
3.48600	3890
3.48667	3892
3.48733	3895
3.48800	3898
3.48867	3900
3.48933	3903
3.49000	3906
3.49067	3909
3.49133	3912
3.49200	3915
3.49267	3919
3.49333	3922
3.49400	3926
3.49467	3930
3.49533	3934
3.49600	3938
3.49667	3942
3.49733	3946
3.49800	3951
3.49867	3956
3.49933	3961
3.50000	3966
3.50067	3972
3.50133	3978
3.50200	3984
3.50267	3990
3.50333	3997
3.50400	4004
3.50467	4012
3.50533	4020
3.50600	4028
3.50667	4037
3.50733	4046
3.50800	4055
3.50867	4065
3.50933	4075
3.51000	4086
3.51067	4097
3.51133	4109
3.51200	4121
3.51267	4134
3.51333	4147
3.51400	4160
3.51467	4174
3.51533	4189
3.51600	4204
3.51667	4220
3.51733	4236
3.51800	4253
3.51867	4270
3.51933	4288
3.52000	4307
3.52067	4326
3.52133	4346
3.52200	4366
3.52267	4387
3.52333	4409
3.52400	4431
3.52467	4454
3.52533	4478
3.52600	4502
3.52667	4527
3.52733	4552
3.52800	4578
3.52867	4604
3.52933	4631
3.53000	4659
3.53067	4687
3.53133	4716
3.53200	4745
3.53267	4775
3.53333	4805
3.53400	4836
3.53467	4867
3.53533	4899
3.53600	4931
3.53667	4963
3.53733	4996
3.53800	5029
3.53867	5063
3.53933	5097
3.54000	5131
3.54067	5165
3.54133	5199
3.54200	5234
3.54267	5268
3.54333	5303
3.54400	5338
3.54467	5373
3.54533	5407
3.54600	5442
3.54667	5477
3.54733	5511
3.54800	5545
3.54867	5579
3.54933	5613
3.55000	5646
3.55067	5679
3.55133	5711
3.55200	5744
3.55267	5775
3.55333	5806
3.55400	5837
3.55467	5867
3.55533	5897
3.55600	5925
3.55667	5954
3.55733	5981
3.55800	6008
3.55867	6035
3.55933	6060
3.56000	6085
3.56067	6109
3.56133	6133
3.56200	6155
3.56267	6177
3.56333	6198
3.56400	6218
3.56467	6237
3.56533	6256
3.56600	6273
3.56667	6290
3.56733	6306
3.56800	6321
3.56867	6335
3.56933	6348
3.57000	6360
3.57067	6371
3.57133	6381
3.57200	6391
3.57267	6399
3.57333	6407
3.57400	6413
3.57467	6419
3.57533	6424
3.57600	6428
3.57667	6431
3.57733	6434
3.57800	6435
3.57867	6436
3.57933	6436
3.58000	6435
3.58067	6433
3.58133	6431
3.58200	6428
3.58267	6425
3.58333	6421
3.58400	6416
3.58467	6411
3.58533	6405
3.58600	6398
3.58667	6391
3.58733	6384
3.58800	6376
3.58867	6368
3.58933	6359
3.59000	6350
3.59067	6340
3.59133	6330
3.59200	6320
3.59267	6310
3.59333	6299
3.59400	6288
3.59467	6276
3.59533	6265
3.59600	6253
3.59667	6241
3.59733	6229
3.59800	6216
3.59867	6204
3.59933	6191
3.60000	6178
3.60067	6165
3.60133	6152
3.60200	6139
3.60267	6126
3.60333	6113
3.60400	6099
3.60467	6086
3.60533	6072
3.60600	6059
3.60667	6045
3.60733	6031
3.60800	6018
3.60867	6004
3.60933	5990
3.61000	5976
3.61067	5962
3.61133	5948
3.61200	5934
3.61267	5920
3.61333	5906
3.61400	5892
3.61467	5878
3.61533	5864
3.61600	5849
3.61667	5835
3.61733	5821
3.61800	5806
3.61867	5792
3.61933	5777
3.62000	5763
3.62067	5748
3.62133	5734
3.62200	5719
3.62267	5704
3.62333	5689
3.62400	5674
3.62467	5659
3.62533	5644
3.62600	5629
3.62667	5614
3.62733	5599
3.62800	5583
3.62867	5568
3.62933	5553
3.63000	5537
3.63067	5522
3.63133	5506
3.63200	5490
3.63267	5474
3.63333	5458
3.63400	5442
3.63467	5426
3.63533	5410
3.63600	5394
3.63667	5377
3.63733	5360
3.63800	5344
3.63867	5327
3.63933	5310
3.64000	5293
3.64067	5276
3.64133	5259
3.64200	5242
3.64267	5225
3.64333	5208
3.64400	5190
3.64467	5173
3.64533	5155
3.64600	5138
3.64667	5120
3.64733	5103
3.64800	5085
3.64867	5067
3.64933	5050
3.65000	5032
3.65067	5014
3.65133	4997
3.65200	4979
3.65267	4961
3.65333	4944
3.65400	4926
3.65467	4909
3.65533	4891
3.65600	4874
3.65667	4857
3.65733	4839
3.65800	4822
3.65867	4805
3.65933	4788
3.66000	4771
3.66067	4754
3.66133	4737
3.66200	4721
3.66267	4704
3.66333	4688
3.66400	4671
3.66467	4655
3.66533	4639
3.66600	4623
3.66667	4608
3.66733	4592
3.66800	4577
3.66867	4561
3.66933	4546
3.67000	4531
3.67067	4516
3.67133	4501
3.67200	4487
3.67267	4472
3.67333	4458
3.67400	4444
3.67467	4430
3.67533	4416
3.67600	4403
3.67667	4389
3.67733	4376
3.67800	4363
3.67867	4350
3.67933	4337
3.68000	4324
3.68067	4312
3.68133	4300
3.68200	4287
3.68267	4275
3.68333	4263
3.68400	4252
3.68467	4240
3.68533	4229
3.68600	4218
3.68667	4207
3.68733	4196
3.68800	4185
3.68867	4175
3.68933	4164
3.69000	4154
3.69067	4144
3.69133	4134
3.69200	4125
3.69267	4115
3.69333	4106
3.69400	4097
3.69467	4088
3.69533	4079
3.69600	4070
3.69667	4062
3.69733	4053
3.69800	4045
3.69867	4037
3.69933	4029
3.70000	4021
3.70067	4013
3.70133	4006
3.70200	3998
3.70267	3991
3.70333	3983
3.70400	3976
3.70467	3969
3.70533	3962
3.70600	3956
3.70667	3949
3.70733	3942
3.70800	3936
3.70867	3930
3.70933	3923
3.71000	3917
3.71067	3912
3.71133	3906
3.71200	3900
3.71267	3895
3.71333	3889
3.71400	3884
3.71467	3878
3.71533	3873
3.71600	3868
3.71667	3863
3.71733	3858
3.71800	3853
3.71867	3849
3.71933	3844
3.72000	3839
3.72067	3835
3.72133	3830
3.72200	3826
3.72267	3821
3.72333	3817
3.72400	3813
3.72467	3809
3.72533	3805
3.72600	3801
3.72667	3797
3.72733	3793
3.72800	3789
3.72867	3785
3.72933	3782
3.73000	3778
3.73067	3774
3.73133	3771
3.73200	3767
3.73267	3764
3.73333	3760
3.73400	3757
3.73467	3753
3.73533	3750
3.73600	3747
3.73667	3744
3.73733	3740
3.73800	3737
3.73867	3734
3.73933	3731
3.74000	3729
3.74067	3726
3.74133	3723
3.74200	3720
3.74267	3718
3.74333	3715
3.74400	3712
3.74467	3710
3.74533	3707
3.74600	3705
3.74667	3703
3.74733	3700
3.74800	3698
3.74867	3695
3.74933	3693
3.75000	3691
3.75067	3688
3.75133	3686
3.75200	3684
3.75267	3682
3.75333	3680
3.75400	3677
3.75467	3675
3.75533	3673
3.75600	3671
3.75667	3669
3.75733	3667
3.75800	3665
3.75867	3663
3.75933	3661
3.76000	3659
3.76067	3657
3.76133	3655
3.76200	3653
3.76267	3651
3.76333	3649
3.76400	3647
3.76467	3645
3.76533	3644
3.76600	3642
3.76667	3640
3.76733	3638
3.76800	3636
3.76867	3635
3.76933	3633
3.77000	3631
3.77067	3630
3.77133	3628
3.77200	3627
3.77267	3625
3.77333	3624
3.77400	3622
3.77467	3621
3.77533	3619
3.77600	3618
3.77667	3616
3.77733	3615
3.77800	3613
3.77867	3612
3.77933	3610
3.78000	3609
3.78067	3607
3.78133	3606
3.78200	3604
3.78267	3603
3.78333	3602
3.78400	3600
3.78467	3599
3.78533	3597
3.78600	3596
3.78667	3595
3.78733	3593
3.78800	3592
3.78867	3591
3.78933	3590
3.79000	3588
3.79067	3587
3.79133	3586
3.79200	3585
3.79267	3584
3.79333	3582
3.79400	3581
3.79467	3580
3.79533	3579
3.79600	3578
3.79667	3577
3.79733	3576
3.79800	3575
3.79867	3574
3.79933	3573
3.80000	3572
3.80067	3570
3.80133	3569
3.80200	3568
3.80267	3567
3.80333	3566
3.80400	3565
3.80467	3564
3.80533	3564
3.80600	3563
3.80667	3562
3.80733	3561
3.80800	3560
3.80867	3559
3.80933	3558
3.81000	3557
3.81067	3556
3.81133	3555
3.81200	3554
3.81267	3553
3.81333	3552
3.81400	3551
3.81467	3550
3.81533	3549
3.81600	3548
3.81667	3547
3.81733	3546
3.81800	3546
3.81867	3545
3.81933	3544
3.82000	3543
3.82067	3542
3.82133	3541
3.82200	3540
3.82267	3539
3.82333	3538
3.82400	3538
3.82467	3537
3.82533	3536
3.82600	3535
3.82667	3534
3.82733	3533
3.82800	3532
3.82867	3531
3.82933	3530
3.83000	3529
3.83067	3528
3.83133	3527
3.83200	3526
3.83267	3525
3.83333	3524
3.83400	3523
3.83467	3522
3.83533	3521
3.83600	3520
3.83667	3520
3.83733	3519
3.83800	3518
3.83867	3517
3.83933	3516
3.84000	3515
3.84067	3514
3.84133	3513
3.84200	3512
3.84267	3511
3.84333	3511
3.84400	3510
3.84467	3509
3.84533	3508
3.84600	3507
3.84667	3506
3.84733	3506
3.84800	3505
3.84867	3504
3.84933	3503
3.85000	3502
3.85067	3502
3.85133	3501
3.85200	3500
3.85267	3499
3.85333	3499
3.85400	3498
3.85467	3497
3.85533	3496
3.85600	3496
3.85667	3495
3.85733	3494
3.85800	3494
3.85867	3493
3.85933	3492
3.86000	3492
3.86067	3491
3.86133	3490
3.86200	3490
3.86267	3489
3.86333	3488
3.86400	3488
3.86467	3487
3.86533	3486
3.86600	3486
3.86667	3485
3.86733	3484
3.86800	3484
3.86867	3483
3.86933	3482
3.87000	3482
3.87067	3481
3.87133	3480
3.87200	3480
3.87267	3479
3.87333	3478
3.87400	3478
3.87467	3477
3.87533	3476
3.87600	3476
3.87667	3475
3.87733	3475
3.87800	3474
3.87867	3474
3.87933	3473
3.88000	3473
3.88067	3472
3.88133	3472
3.88200	3471
3.88267	3471
3.88333	3470
3.88400	3470
3.88467	3469
3.88533	3469
3.88600	3468
3.88667	3468
3.88733	3468
3.88800	3467
3.88867	3467
3.88933	3466
3.89000	3466
3.89067	3465
3.89133	3465
3.89200	3464
3.89267	3464
3.89333	3464
3.89400	3463
3.89467	3463
3.89533	3462
3.89600	3462
3.89667	3462
3.89733	3461
3.89800	3461
3.89867	3460
3.89933	3460
3.90000	3460
3.90067	3459
3.90133	3459
3.90200	3459
3.90267	3458
3.90333	3458
3.90400	3458
3.90467	3457
3.90533	3457
3.90600	3456
3.90667	3456
3.90733	3456
3.90800	3455
3.90867	3455
3.90933	3455
3.91000	3455
3.91067	3454
3.91133	3454
3.91200	3454
3.91267	3453
3.91333	3453
3.91400	3453
3.91467	3453
3.91533	3452
3.91600	3452
3.91667	3452
3.91733	3452
3.91800	3452
3.91867	3451
3.91933	3451
3.92000	3451
3.92067	3451
3.92133	3450
3.92200	3450
3.92267	3450
3.92333	3450
3.92400	3449
3.92467	3449
3.92533	3449
3.92600	3449
3.92667	3448
3.92733	3448
3.92800	3448
3.92867	3448
3.92933	3447
3.93000	3447
3.93067	3447
3.93133	3446
3.93200	3446
3.93267	3446
3.93333	3445
3.93400	3445
3.93467	3445
3.93533	3444
3.93600	3444
3.93667	3443
3.93733	3443
3.93800	3443
3.93867	3443
3.93933	3442
3.94000	3442
3.94067	3442
3.94133	3441
3.94200	3441
3.94267	3441
3.94333	3440
3.94400	3440
3.94467	3440
3.94533	3439
3.94600	3439
3.94667	3439
3.94733	3438
3.94800	3438
3.94867	3438
3.94933	3437
3.95000	3437
3.95067	3437
3.95133	3436
3.95200	3436
3.95267	3436
3.95333	3435
3.95400	3435
3.95467	3435
3.95533	3434
3.95600	3434
3.95667	3434
3.95733	3433
3.95800	3433
3.95867	3432
3.95933	3432
3.96000	3432
3.96067	3431
3.96133	3431
3.96200	3431
3.96267	3431
3.96333	3430
3.96400	3430
3.96467	3430
3.96533	3430
3.96600	3429
3.96667	3429
3.96733	3429
3.96800	3429
3.96867	3429
3.96933	3429
3.97000	3428
3.97067	3428
3.97133	3428
3.97200	3428
3.97267	3428
3.97333	3428
3.97400	3427
3.97467	3427
3.97533	3427
3.97600	3427
3.97667	3427
3.97733	3427
3.97800	3427
3.97867	3427
3.97933	3427
3.98000	3427
3.98067	3427
3.98133	3426
3.98200	3426
3.98267	3427
3.98333	3427
3.98400	3427
3.98467	3427
3.98533	3427
3.98600	3427
3.98667	3427
3.98733	3427
3.98800	3427
3.98867	3428
3.98933	3428
3.99000	3428
3.99067	3428
3.99133	3429
3.99200	3429
3.99267	3429
3.99333	3430
3.99400	3430
3.99467	3431
3.99533	3431
3.99600	3432
3.99667	3433
3.99733	3433
3.99800	3434
3.99867	3435
3.99933	3436
4.00000	3437
4.00067	3438
4.00133	3439
4.00200	3440
4.00267	3441
4.00333	3442
4.00400	3443
4.00467	3445
4.00533	3446
4.00600	3448
4.00667	3449
4.00733	3451
4.00800	3453
4.00867	3454
4.00933	3456
4.01000	3458
4.01067	3460
4.01133	3462
4.01200	3465
4.01267	3467
4.01333	3469
4.01400	3472
4.01467	3474
4.01533	3477
4.01600	3479
4.01667	3482
4.01733	3485
4.01800	3488
4.01867	3491
4.01933	3494
4.02000	3497
4.02067	3501
4.02133	3504
4.02200	3507
4.02267	3511
4.02333	3514
4.02400	3518
4.02467	3522
4.02533	3526
4.02600	3530
4.02667	3534
4.02733	3538
4.02800	3542
4.02867	3547
4.02933	3551
4.03000	3556
4.03067	3560
4.03133	3565
4.03200	3570
4.03267	3574
4.03333	3579
4.03400	3585
4.03467	3590
4.03533	3595
4.03600	3600
4.03667	3606
4.03733	3611
4.03800	3616
4.03867	3622
4.03933	3628
4.04000	3633
4.04067	3639
4.04133	3645
4.04200	3651
4.04267	3657
4.04333	3663
4.04400	3669
4.04467	3675
4.04533	3681
4.04600	3687
4.04667	3694
4.04733	3700
4.04800	3706
4.04867	3713
4.04933	3719
4.05000	3726
4.05067	3732
4.05133	3739
4.05200	3745
4.05267	3752
4.05333	3759
4.05400	3765
4.05467	3772
4.05533	3779
4.05600	3786
4.05667	3792
4.05733	3799
4.05800	3805
4.05867	3812
4.05933	3819
4.06000	3825
4.06067	3832
4.06133	3838
4.06200	3845
4.06267	3851
4.06333	3858
4.06400	3864
4.06467	3870
4.06533	3877
4.06600	3883
4.06667	3889
4.06733	3895
4.06800	3901
4.06867	3907
4.06933	3913
4.07000	3919
4.07067	3925
4.07133	3930
4.07200	3936
4.07267	3941
4.07333	3947
4.07400	3952
4.07467	3957
4.07533	3962
4.07600	3967
4.07667	3972
4.07733	3977
4.07800	3982
4.07867	3987
4.07933	3991
4.08000	3996
4.08067	4000
4.08133	4004
4.08200	4008
4.08267	4012
4.08333	4016
4.08400	4020
4.08467	4023
4.08533	4027
4.08600	4030
4.08667	4033
4.08733	4036
4.08800	4039
4.08867	4042
4.08933	4045
4.09000	4048
4.09067	4051
4.09133	4053
4.09200	4056
4.09267	4058
4.09333	4061
4.09400	4063
4.09467	4065
4.09533	4067
4.09600	4069
4.09667	4071
4.09733	4073
4.09800	4075
4.09867	4077
4.09933	4078
4.10000	4080
4.10067	4081
4.10133	4083
4.10200	4084
4.10267	4086
4.10333	4087
4.10400	4088
4.10467	4089
4.10533	4090
4.10600	4091
4.10667	4092
4.10733	4093
4.10800	4094
4.10867	4095
4.10933	4096
4.11000	4097
4.11067	4097
4.11133	4098
4.11200	4099
4.11267	4099
4.11333	4100
4.11400	4101
4.11467	4101
4.11533	4102
4.11600	4102
4.11667	4103
4.11733	4103
4.11800	4104
4.11867	4104
4.11933	4105
4.12000	4105
4.12067	4106
4.12133	4106
4.12200	4107
4.12267	4107
4.12333	4108
4.12400	4108
4.12467	4109
4.12533	4110
4.12600	4110
4.12667	4111
4.12733	4112
4.12800	4113
4.12867	4114
4.12933	4115
4.13000	4116
4.13067	4117
4.13133	4118
4.13200	4119
4.13267	4121
4.13333	4122
4.13400	4123
4.13467	4125
4.13533	4126
4.13600	4128
4.13667	4130
4.13733	4132
4.13800	4133
4.13867	4135
4.13933	4137
4.14000	4139
4.14067	4141
4.14133	4143
4.14200	4145
4.14267	4147
4.14333	4150
4.14400	4152
4.14467	4154
4.14533	4156
4.14600	4159
4.14667	4161
4.14733	4164
4.14800	4166
4.14867	4169
4.14933	4172
4.15000	4175
4.15067	4177
4.15133	4180
4.15200	4183
4.15267	4186
4.15333	4189
4.15400	4192
4.15467	4195
4.15533	4198
4.15600	4201
4.15667	4205
4.15733	4208
4.15800	4211
4.15867	4214
4.15933	4218
4.16000	4221
4.16067	4225
4.16133	4228
4.16200	4232
4.16267	4235
4.16333	4239
4.16400	4243
4.16467	4247
4.16533	4250
4.16600	4254
4.16667	4258
4.16733	4262
4.16800	4266
4.16867	4270
4.16933	4274
4.17000	4278
4.17067	4282
4.17133	4286
4.17200	4290
4.17267	4294
4.17333	4298
4.17400	4302
4.17467	4306
4.17533	4310
4.17600	4315
4.17667	4319
4.17733	4323
4.17800	4328
4.17867	4332
4.17933	4337
4.18000	4342
4.18067	4346
4.18133	4351
4.18200	4356
4.18267	4361
4.18333	4366
4.18400	4371
4.18467	4376
4.18533	4381
4.18600	4386
4.18667	4392
4.18733	4397
4.18800	4403
4.18867	4408
4.18933	4414
4.19000	4420
4.19067	4425
4.19133	4431
4.19200	4437
4.19267	4444
4.19333	4450
4.19400	4457
4.19467	4463
4.19533	4470
4.19600	4477
4.19667	4484
4.19733	4492
4.19800	4499
4.19867	4507
4.19933	4515
4.20000	4523
4.20067	4531
4.20133	4540
4.20200	4548
4.20267	4557
4.20333	4566
4.20400	4576
4.20467	4586
4.20533	4595
4.20600	4606
4.20667	4616
4.20733	4627
4.20800	4638
4.20867	4649
4.20933	4661
4.21000	4673
4.21067	4686
4.21133	4698
4.21200	4712
4.21267	4725
4.21333	4739
4.21400	4754
4.21467	4769
4.21533	4784
4.21600	4800
4.21667	4817
4.21733	4834
4.21800	4851
4.21867	4869
4.21933	4887
4.22000	4907
4.22067	4926
4.22133	4947
4.22200	4968
4.22267	4989
4.22333	5012
4.22400	5035
4.22467	5059
4.22533	5083
4.22600	5109
4.22667	5135
4.22733	5162
4.22800	5191
4.22867	5220
4.22933	5250
4.23000	5281
4.23067	5313
4.23133	5346
4.23200	5380
4.23267	5416
4.23333	5453
4.23400	5491
4.23467	5530
4.23533	5571
4.23600	5612
4.23667	5656
4.23733	5700
4.23800	5747
4.23867	5794
4.23933	5844
4.24000	5895
4.24067	5947
4.24133	6002
4.24200	6058
4.24267	6116
4.24333	6176
4.24400	6238
4.24467	6303
4.24533	6369
4.24600	6438
4.24667	6509
4.24733	6583
4.24800	6659
4.24867	6738
4.24933	6819
4.25000	6904
4.25067	6992
4.25133	7082
4.25200	7176
4.25267	7273
4.25333	7373
4.25400	7477
4.25467	7584
4.25533	7696
4.25600	7811
4.25667	7930
4.25733	8053
4.25800	8180
4.25867	8312
4.25933	8448
4.26000	8589
4.26067	8735
4.26133	8885
4.26200	9040
4.26267	9201
4.26333	9366
4.26400	9538
4.26467	9714
4.26533	9897
4.26600	10085
4.26667	10280
4.26733	10481
4.26800	10688
4.26867	10901
4.26933	11121
4.27000	11348
4.27067	11581
4.27133	11822
4.27200	12070
4.27267	12326
4.27333	12589
4.27400	12859
4.27467	13138
4.27533	13425
4.27600	13720
4.27667	14024
4.27733	14337
4.27800	14659
4.27867	14991
4.27933	15332
4.28000	15682
4.28067	16043
4.28133	16413
4.28200	16794
4.28267	17184
4.28333	17585
4.28400	17997
4.28467	18419
4.28533	18852
4.28600	19295
4.28667	19749
4.28733	20215
4.28800	20691
4.28867	21178
4.28933	21676
4.29000	22186
4.29067	22707
4.29133	23239
4.29200	23783
4.29267	24339
4.29333	24905
4.29400	25484
4.29467	26073
4.29533	26674
4.29600	27287
4.29667	27910
4.29733	28545
4.29800	29191
4.29867	29848
4.29933	30516
4.30000	31196
4.30067	31886
4.30133	32587
4.30200	33299
4.30267	34022
4.30333	34757
4.30400	35503
4.30467	36260
4.30533	37029
4.30600	37808
4.30667	38599
4.30733	39400
4.30800	40212
4.30867	41033
4.30933	41864
4.31000	42704
4.31067	43552
4.31133	44408
4.31200	45272
4.31267	46143
4.31333	47021
4.31400	47904
4.31467	48793
4.31533	49688
4.31600	50587
4.31667	51491
4.31733	52399
4.31800	53311
4.31867	54226
4.31933	55145
4.32000	56065
4.32067	56987
4.32133	57911
4.32200	58835
4.32267	59759
4.32333	60682
4.32400	61603
4.32467	62523
4.32533	63439
4.32600	64352
4.32667	65261
4.32733	66164
4.32800	67062
4.32867	67954
4.32933	68840
4.33000	69718
4.33067	70588
4.33133	71449
4.33200	72301
4.33267	73144
4.33333	73977
4.33400	74799
4.33467	75609
4.33533	76408
4.33600	77193
4.33667	77965
4.33733	78722
4.33800	79465
4.33867	80191
4.33933	80902
4.34000	81595
4.34067	82270
4.34133	82927
4.34200	83564
4.34267	84182
4.34333	84779
4.34400	85354
4.34467	85908
4.34533	86439
4.34600	86948
4.34667	87433
4.34733	87894
4.34800	88331
4.34867	88744
4.34933	89133
4.35000	89496
4.35067	89835
4.35133	90148
4.35200	90435
4.35267	90697
4.35333	90933
4.35400	91142
4.35467	91326
4.35533	91483
4.35600	91615
4.35667	91720
4.35733	91800
4.35800	91853
4.35867	91881
4.35933	91882
4.36000	91858
4.36067	91809
4.36133	91734
4.36200	91635
4.36267	91510
4.36333	91361
4.36400	91188
4.36467	90991
4.36533	90770
4.36600	90527
4.36667	90260
4.36733	89971
4.36800	89661
4.36867	89329
4.36933	88976
4.37000	88603
4.37067	88210
4.37133	87799
4.37200	87368
4.37267	86920
4.37333	86455
4.37400	85974
4.37467	85476
4.37533	84963
4.37600	84436
4.37667	83895
4.37733	83340
4.37800	82773
4.37867	82194
4.37933	81604
4.38000	81003
4.38067	80393
4.38133	79773
4.38200	79145
4.38267	78509
4.38333	77866
4.38400	77216
4.38467	76561
4.38533	75900
4.38600	75234
4.38667	74564
4.38733	73890
4.38800	73213
4.38867	72534
4.38933	71852
4.39000	71169
4.39067	70485
4.39133	69800
4.39200	69116
4.39267	68432
4.39333	67749
4.39400	67068
4.39467	66389
4.39533	65712
4.39600	65038
4.39667	64367
4.39733	63700
4.39800	63037
4.39867	62379
4.39933	61725
4.40000	61076
4.40067	60433
4.40133	59795
4.40200	59163
4.40267	58537
4.40333	57918
4.40400	57305
4.40467	56699
4.40533	56100
4.40600	55508
4.40667	54924
4.40733	54348
4.40800	53779
4.40867	53219
4.40933	52666
4.41000	52123
4.41067	51587
4.41133	51060
4.41200	50542
4.41267	50033
4.41333	49532
4.41400	49040
4.41467	48557
4.41533	48083
4.41600	47618
4.41667	47162
4.41733	46714
4.41800	46276
4.41867	45846
4.41933	45425
4.42000	45013
4.42067	44609
4.42133	44214
4.42200	43828
4.42267	43449
4.42333	43079
4.42400	42718
4.42467	42364
4.42533	42017
4.42600	41679
4.42667	41348
4.42733	41024
4.42800	40708
4.42867	40398
4.42933	40096
4.43000	39800
4.43067	39511
4.43133	39228
4.43200	38952
4.43267	38682
4.43333	38417
4.43400	38159
4.43467	37906
4.43533	37659
4.43600	37417
4.43667	37180
4.43733	36948
4.43800	36720
4.43867	36497
4.43933	36279
4.44000	36064
4.44067	35853
4.44133	35646
4.44200	35443
4.44267	35243
4.44333	35047
4.44400	34853
4.44467	34663
4.44533	34476
4.44600	34291
4.44667	34109
4.44733	33930
4.44800	33753
4.44867	33578
4.44933	33406
4.45000	33235
4.45067	33067
4.45133	32900
4.45200	32735
4.45267	32571
4.45333	32409
4.45400	32248
4.45467	32089
4.45533	31930
4.45600	31773
4.45667	31616
4.45733	31461
4.45800	31306
4.45867	31152
4.45933	30998
4.46000	30845
4.46067	30692
4.46133	30540
4.46200	30387
4.46267	30236
4.46333	30084
4.46400	29932
4.46467	29781
4.46533	29630
4.46600	29479
4.46667	29328
4.46733	29176
4.46800	29025
4.46867	28874
4.46933	28722
4.47000	28570
4.47067	28418
4.47133	28266
4.47200	28113
4.47267	27960
4.47333	27807
4.47400	27654
4.47467	27500
4.47533	27346
4.47600	27192
4.47667	27038
4.47733	26883
4.47800	26728
4.47867	26573
4.47933	26418
4.48000	26263
4.48067	26108
4.48133	25952
4.48200	25796
4.48267	25640
4.48333	25483
4.48400	25327
4.48467	25171
4.48533	25014
4.48600	24857
4.48667	24700
4.48733	24544
4.48800	24387
4.48867	24230
4.48933	24074
4.49000	23917
4.49067	23761
4.49133	23605
4.49200	23449
4.49267	23294
4.49333	23140
4.49400	22986
4.49467	22832
4.49533	22679
4.49600	22527
4.49667	22375
4.49733	22224
4.49800	22074
4.49867	21925
4.49933	21776
4.50000	21629
4.50067	21482
4.50133	21337
4.50200	21192
4.50267	21049
4.50333	20906
4.50400	20765
4.50467	20625
4.50533	20486
4.50600	20349
4.50667	20213
4.50733	20079
4.50800	19946
4.50867	19815
4.50933	19686
4.51000	19558
4.51067	19432
4.51133	19309
4.51200	19187
4.51267	19067
4.51333	18950
4.51400	18835
4.51467	18721
4.51533	18610
4.51600	18502
4.51667	18395
4.51733	18291
4.51800	18189
4.51867	18090
4.51933	17993
4.52000	17899
4.52067	17807
4.52133	17718
4.52200	17632
4.52267	17549
4.52333	17468
4.52400	17390
4.52467	17316
4.52533	17244
4.52600	17176
4.52667	17111
4.52733	17049
4.52800	16990
4.52867	16934
4.52933	16882
4.53000	16833
4.53067	16788
4.53133	16745
4.53200	16707
4.53267	16671
4.53333	16639
4.53400	16611
4.53467	16586
4.53533	16565
4.53600	16548
4.53667	16534
4.53733	16523
4.53800	16516
4.53867	16513
4.53933	16514
4.54000	16518
4.54067	16526
4.54133	16537
4.54200	16552
4.54267	16571
4.54333	16594
4.54400	16621
4.54467	16651
4.54533	16685
4.54600	16723
4.54667	16765
4.54733	16810
4.54800	16860
4.54867	16913
4.54933	16970
4.55000	17030
4.55067	17095
4.55133	17163
4.55200	17235
4.55267	17310
4.55333	17389
4.55400	17471
4.55467	17557
4.55533	17647
4.55600	17739
4.55667	17836
4.55733	17935
4.55800	18038
4.55867	18144
4.55933	18254
4.56000	18367
4.56067	18483
4.56133	18602
4.56200	18724
4.56267	18849
4.56333	18977
4.56400	19108
4.56467	19242
4.56533	19378
4.56600	19517
4.56667	19659
4.56733	19803
4.56800	19950
4.56867	20099
4.56933	20251
4.57000	20405
4.57067	20561
4.57133	20720
4.57200	20880
4.57267	21043
4.57333	21207
4.57400	21372
4.57467	21540
4.57533	21708
4.57600	21878
4.57667	22049
4.57733	22221
4.57800	22394
4.57867	22568
4.57933	22743
4.58000	22918
4.58067	23094
4.58133	23270
4.58200	23446
4.58267	23622
4.58333	23798
4.58400	23974
4.58467	24149
4.58533	24324
4.58600	24499
4.58667	24672
4.58733	24845
4.58800	25016
4.58867	25186
4.58933	25355
4.59000	25523
4.59067	25688
4.59133	25852
4.59200	26014
4.59267	26174
4.59333	26332
4.59400	26488
4.59467	26641
4.59533	26792
4.59600	26940
4.59667	27086
4.59733	27230
4.59800	27371
4.59867	27509
4.59933	27644
4.60000	27777
4.60067	27906
4.60133	28032
4.60200	28155
4.60267	28275
4.60333	28391
4.60400	28504
4.60467	28614
4.60533	28720
4.60600	28822
4.60667	28921
4.60733	29017
4.60800	29109
4.60867	29198
4.60933	29283
4.61000	29364
4.61067	29442
4.61133	29516
4.61200	29587
4.61267	29654
4.61333	29717
4.61400	29776
4.61467	29832
4.61533	29884
4.61600	29932
4.61667	29976
4.61733	30017
4.61800	30054
4.61867	30087
4.61933	30116
4.62000	30142
4.62067	30165
4.62133	30184
4.62200	30199
4.62267	30211
4.62333	30220
4.62400	30225
4.62467	30227
4.62533	30225
4.62600	30221
4.62667	30213
4.62733	30201
4.62800	30187
4.62867	30170
4.62933	30149
4.63000	30126
4.63067	30099
4.63133	30070
4.63200	30038
4.63267	30003
4.63333	29966
4.63400	29926
4.63467	29883
4.63533	29838
4.63600	29790
4.63667	29740
4.63733	29688
4.63800	29633
4.63867	29577
4.63933	29518
4.64000	29457
4.64067	29394
4.64133	29328
4.64200	29261
4.64267	29192
4.64333	29121
4.64400	29049
4.64467	28974
4.64533	28898
4.64600	28821
4.64667	28741
4.64733	28661
4.64800	28579
4.64867	28496
4.64933	28411
4.65000	28326
4.65067	28239
4.65133	28151
4.65200	28063
4.65267	27973
4.65333	27883
4.65400	27792
4.65467	27701
4.65533	27609
4.65600	27517
4.65667	27424
4.65733	27330
4.65800	27236
4.65867	27142
4.65933	27048
4.66000	26953
4.66067	26858
4.66133	26762
4.66200	26667
4.66267	26571
4.66333	26476
4.66400	26380
4.66467	26284
4.66533	26189
4.66600	26093
4.66667	25998
4.66733	25902
4.66800	25807
4.66867	25712
4.66933	25618
4.67000	25523
4.67067	25429
4.67133	25335
4.67200	25242
4.67267	25148
4.67333	25055
4.67400	24962
4.67467	24870
4.67533	24778
4.67600	24687
4.67667	24596
4.67733	24506
4.67800	24416
4.67867	24327
4.67933	24238
4.68000	24151
4.68067	24064
4.68133	23978
4.68200	23893
4.68267	23808
4.68333	23724
4.68400	23641
4.68467	23559
4.68533	23477
4.68600	23396
4.68667	23316
4.68733	23236
4.68800	23157
4.68867	23078
4.68933	23001
4.69000	22923
4.69067	22847
4.69133	22771
4.69200	22696
4.69267	22622
4.69333	22548
4.69400	22475
4.69467	22403
4.69533	22331
4.69600	22260
4.69667	22190
4.69733	22121
4.69800	22052
4.69867	21984
4.69933	21916
4.70000	21849
4.70067	21783
4.70133	21717
4.70200	21652
4.70267	21587
4.70333	21523
4.70400	21460
4.70467	21397
4.70533	21334
4.70600	21273
4.70667	21211
4.70733	21150
4.70800	21090
4.70867	21030
4.70933	20971
4.71000	20912
4.71067	20854
4.71133	20797
4.71200	20740
4.71267	20683
4.71333	20627
4.71400	20572
4.71467	20517
4.71533	20463
4.71600	20409
4.71667	20355
4.71733	20302
4.71800	20249
4.71867	20197
4.71933	20145
4.72000	20094
4.72067	20043
4.72133	19992
4.72200	19942
4.72267	19892
4.72333	19843
4.72400	19794
4.72467	19746
4.72533	19699
4.72600	19651
4.72667	19605
4.72733	19558
4.72800	19512
4.72867	19467
4.72933	19421
4.73000	19377
4.73067	19332
4.73133	19288
4.73200	19245
4.73267	19201
4.73333	19159
4.73400	19116
4.73467	19074
4.73533	19033
4.73600	18992
4.73667	18951
4.73733	18911
4.73800	18871
4.73867	18832
4.73933	18793
4.74000	18755
4.74067	18716
4.74133	18679
4.74200	18642
4.74267	18605
4.74333	18568
4.74400	18532
4.74467	18497
4.74533	18461
4.74600	18426
4.74667	18392
4.74733	18358
4.74800	18324
4.74867	18290
4.74933	18257
4.75000	18224
4.75067	18192
4.75133	18160
4.75200	18128
4.75267	18096
4.75333	18065
4.75400	18034
4.75467	18003
4.75533	17972
4.75600	17942
4.75667	17912
4.75733	17882
4.75800	17852
4.75867	17822
4.75933	17793
4.76000	17763
4.76067	17734
4.76133	17705
4.76200	17676
4.76267	17647
4.76333	17618
4.76400	17590
4.76467	17561
4.76533	17533
4.76600	17505
4.76667	17476
4.76733	17449
4.76800	17421
4.76867	17393
4.76933	17366
4.77000	17339
4.77067	17312
4.77133	17285
4.77200	17258
4.77267	17232
4.77333	17206
4.77400	17180
4.77467	17154
4.77533	17129
4.77600	17104
4.77667	17079
4.77733	17054
4.77800	17029
4.77867	17005
4.77933	16980
4.78000	16956
4.78067	16933
4.78133	16909
4.78200	16886
4.78267	16862
4.78333	16840
4.78400	16817
4.78467	16794
4.78533	16772
4.78600	16750
4.78667	16728
4.78733	16706
4.78800	16685
4.78867	16663
4.78933	16642
4.79000	16621
4.79067	16600
4.79133	16579
4.79200	16559
4.79267	16538
4.79333	16518
4.79400	16497
4.79467	16477
4.79533	16457
4.79600	16437
4.79667	16417
4.79733	16397
4.79800	16377
4.79867	16357
4.79933	16337
4.80000	16317
4.80067	16297
4.80133	16278
4.80200	16258
4.80267	16238
4.80333	16219
4.80400	16199
4.80467	16180
4.80533	16160
4.80600	16141
4.80667	16122
4.80733	16102
4.80800	16083
4.80867	16064
4.80933	16045
4.81000	16027
4.81067	16008
4.81133	15989
4.81200	15971
4.81267	15952
4.81333	15934
4.81400	15915
4.81467	15897
4.81533	15879
4.81600	15861
4.81667	15844
4.81733	15826
4.81800	15809
4.81867	15791
4.81933	15774
4.82000	15757
4.82067	15740
4.82133	15723
4.82200	15707
4.82267	15690
4.82333	15674
4.82400	15657
4.82467	15641
4.82533	15625
4.82600	15609
4.82667	15593
4.82733	15577
4.82800	15561
4.82867	15545
4.82933	15529
4.83000	15513
4.83067	15498
4.83133	15482
4.83200	15467
4.83267	15451
4.83333	15436
4.83400	15421
4.83467	15405
4.83533	15390
4.83600	15375
4.83667	15359
4.83733	15344
4.83800	15329
4.83867	15313
4.83933	15298
4.84000	15283
4.84067	15268
4.84133	15252
4.84200	15237
4.84267	15221
4.84333	15206
4.84400	15190
4.84467	15175
4.84533	15159
4.84600	15144
4.84667	15129
4.84733	15114
4.84800	15098
4.84867	15083
4.84933	15068
4.85000	15053
4.85067	15038
4.85133	15023
4.85200	15009
4.85267	14994
4.85333	14979
4.85400	14964
4.85467	14949
4.85533	14934
4.85600	14919
4.85667	14904
4.85733	14890
4.85800	14875
4.85867	14860
4.85933	14846
4.86000	14831
4.86067	14817
4.86133	14802
4.86200	14788
4.86267	14774
4.86333	14760
4.86400	14746
4.86467	14732
4.86533	14718
4.86600	14704
4.86667	14690
4.86733	14676
4.86800	14662
4.86867	14649
4.86933	14635
4.87000	14621
4.87067	14608
4.87133	14594
4.87200	14580
4.87267	14566
4.87333	14552
4.87400	14539
4.87467	14525
4.87533	14511
4.87600	14498
4.87667	14484
4.87733	14470
4.87800	14456
4.87867	14443
4.87933	14429
4.88000	14416
4.88067	14402
4.88133	14388
4.88200	14375
4.88267	14361
4.88333	14348
4.88400	14334
4.88467	14320
4.88533	14307
4.88600	14293
4.88667	14280
4.88733	14266
4.88800	14253
4.88867	14239
4.88933	14226
4.89000	14213
4.89067	14200
4.89133	14186
4.89200	14173
4.89267	14161
4.89333	14148
4.89400	14135
4.89467	14122
4.89533	14110
4.89600	14097
4.89667	14085
4.89733	14073
4.89800	14060
4.89867	14048
4.89933	14036
4.90000	14024
4.90067	14012
4.90133	14000
4.90200	13989
4.90267	13977
4.90333	13965
4.90400	13953
4.90467	13942
4.90533	13930
4.90600	13918
4.90667	13907
4.90733	13895
4.90800	13883
4.90867	13872
4.90933	13860
4.91000	13848
4.91067	13837
4.91133	13825
4.91200	13813
4.91267	13801
4.91333	13790
4.91400	13778
4.91467	13766
4.91533	13755
4.91600	13743
4.91667	13731
4.91733	13720
4.91800	13708
4.91867	13696
4.91933	13685
4.92000	13673
4.92067	13662
4.92133	13650
4.92200	13638
4.92267	13627
4.92333	13615
4.92400	13603
4.92467	13591
4.92533	13579
4.92600	13568
4.92667	13556
4.92733	13544
4.92800	13533
4.92867	13522
4.92933	13510
4.93000	13499
4.93067	13488
4.93133	13477
4.93200	13466
4.93267	13455
4.93333	13444
4.93400	13433
4.93467	13422
4.93533	13411
4.93600	13400
4.93667	13389
4.93733	13378
4.93800	13367
4.93867	13357
4.93933	13346
4.94000	13335
4.94067	13324
4.94133	13313
4.94200	13303
4.94267	13292
4.94333	13281
4.94400	13270
4.94467	13259
4.94533	13248
4.94600	13237
4.94667	13226
4.94733	13215
4.94800	13204
4.94867	13193
4.94933	13182
4.95000	13171
4.95067	13160
4.95133	13149
4.95200	13138
4.95267	13127
4.95333	13116
4.95400	13105
4.95467	13094
4.95533	13083
4.95600	13072
4.95667	13062
4.95733	13051
4.95800	13040
4.95867	13030
4.95933	13019
4.96000	13009
4.96067	12998
4.96133	12988
4.96200	12977
4.96267	12967
4.96333	12957
4.96400	12946
4.96467	12936
4.96533	12926
4.96600	12916
4.96667	12905
4.96733	12895
4.96800	12885
4.96867	12875
4.96933	12864
4.97000	12854
4.97067	12844
4.97133	12833
4.97200	12823
4.97267	12812
4.97333	12802
4.97400	12791
4.97467	12781
4.97533	12771
4.97600	12760
4.97667	12750
4.97733	12740
4.97800	12730
4.97867	12720
4.97933	12710
4.98000	12700
4.98067	12691
4.98133	12681
4.98200	12671
4.98267	12662
4.98333	12652
4.98400	12643
4.98467	12633
4.98533	12624
4.98600	12614
4.98667	12605
4.98733	12596
4.98800	12586
4.98867	12577
4.98933	12568
4.99000	12559
4.99067	12550
4.99133	12541
4.99200	12532
4.99267	12523
4.99333	12514
4.99400	12505
4.99467	12496
4.99533	12487
4.99600	12478
4.99667	12469
4.99733	12461
4.99800	12452
4.99867	12443
4.99933	12434
5.00000	12426
5.00067	12417
5.00133	12409
5.00200	12400
5.00267	12392
5.00333	12383
5.00400	12375
5.00467	12366
5.00533	12358
5.00600	12349
5.00667	12341
5.00733	12332
5.00800	12323
5.00867	12315
5.00933	12306
5.01000	12297
5.01067	12289
5.01133	12280
5.01200	12271
5.01267	12262
5.01333	12253
5.01400	12244
5.01467	12235
5.01533	12227
5.01600	12218
5.01667	12209
5.01733	12200
5.01800	12191
5.01867	12182
5.01933	12173
5.02000	12164
5.02067	12155
5.02133	12147
5.02200	12138
5.02267	12129
5.02333	12120
5.02400	12111
5.02467	12103
5.02533	12094
5.02600	12085
5.02667	12076
5.02733	12068
5.02800	12059
5.02867	12050
5.02933	12042
5.03000	12033
5.03067	12024
5.03133	12016
5.03200	12008
5.03267	11999
5.03333	11991
5.03400	11983
5.03467	11974
5.03533	11966
5.03600	11958
5.03667	11950
5.03733	11942
5.03800	11934
5.03867	11926
5.03933	11918
5.04000	11910
5.04067	11902
5.04133	11894
5.04200	11886
5.04267	11878
5.04333	11870
5.04400	11862
5.04467	11854
5.04533	11846
5.04600	11838
5.04667	11830
5.04733	11823
5.04800	11815
5.04867	11807
5.04933	11799
5.05000	11791
5.05067	11784
5.05133	11776
5.05200	11768
5.05267	11760
5.05333	11753
5.05400	11745
5.05467	11738
5.05533	11730
5.05600	11723
5.05667	11715
5.05733	11708
5.05800	11700
5.05867	11693
5.05933	11686
5.06000	11678
5.06067	11671
5.06133	11664
5.06200	11656
5.06267	11649
5.06333	11642
5.06400	11634
5.06467	11627
5.06533	11620
5.06600	11613
5.06667	11606
5.06733	11599
5.06800	11592
5.06867	11585
5.06933	11578
5.07000	11571
5.07067	11564
5.07133	11557
5.07200	11551
5.07267	11544
5.07333	11537
5.07400	11531
5.07467	11525
5.07533	11518
5.07600	11512
5.07667	11506
5.07733	11499
5.07800	11493
5.07867	11487
5.07933	11481
5.08000	11475
5.08067	11469
5.08133	11463
5.08200	11457
5.08267	11451
5.08333	11445
5.08400	11439
5.08467	11433
5.08533	11427
5.08600	11421
5.08667	11415
5.08733	11409
5.08800	11403
5.08867	11397
5.08933	11390
5.09000	11384
5.09067	11378
5.09133	11372
5.09200	11365
5.09267	11359
5.09333	11353
5.09400	11346
5.09467	11340
5.09533	11334
5.09600	11327
5.09667	11321
5.09733	11315
5.09800	11309
5.09867	11303
5.09933	11297
5.10000	11291
5.10067	11284
5.10133	11278
5.10200	11272
5.10267	11266
5.10333	11260
5.10400	11254
5.10467	11248
5.10533	11242
5.10600	11236
5.10667	11230
5.10733	11224
5.10800	11218
5.10867	11212
5.10933	11206
5.11000	11200
5.11067	11194
5.11133	11188
5.11200	11181
5.11267	11175
5.11333	11169
5.11400	11163
5.11467	11156
5.11533	11150
5.11600	11144
5.11667	11138
5.11733	11131
5.11800	11125
5.11867	11119
5.11933	11113
5.12000	11107
5.12067	11101
5.12133	11095
5.12200	11089
5.12267	11083
5.12333	11077
5.12400	11070
5.12467	11064
5.12533	11058
5.12600	11052
5.12667	11046
5.12733	11040
5.12800	11034
5.12867	11027
5.12933	11021
5.13000	11015
5.13067	11009
5.13133	11002
5.13200	10996
5.13267	10990
5.13333	10984
5.13400	10977
5.13467	10971
5.13533	10965
5.13600	10958
5.13667	10952
5.13733	10946
5.13800	10940
5.13867	10933
5.13933	10927
5.14000	10921
5.14067	10915
5.14133	10909
5.14200	10903
5.14267	10897
5.14333	10891
5.14400	10885
5.14467	10879
5.14533	10874
5.14600	10868
5.14667	10863
5.14733	10858
5.14800	10853
5.14867	10848
5.14933	10843
5.15000	10838
5.15067	10833
5.15133	10829
5.15200	10825
5.15267	10820
5.15333	10816
5.15400	10812
5.15467	10808
5.15533	10804
5.15600	10801
5.15667	10797
5.15733	10794
5.15800	10791
5.15867	10788
5.15933	10785
5.16000	10782
5.16067	10779
5.16133	10777
5.16200	10775
5.16267	10773
5.16333	10771
5.16400	10769
5.16467	10767
5.16533	10766
5.16600	10765
5.16667	10763
5.16733	10762
5.16800	10761
5.16867	10761
5.16933	10760
5.17000	10759
5.17067	10759
5.17133	10758
5.17200	10758
5.17267	10757
5.17333	10757
5.17400	10757
5.17467	10757
5.17533	10757
5.17600	10756
5.17667	10756
5.17733	10756
5.17800	10756
5.17867	10756
5.17933	10756
5.18000	10757
5.18067	10757
5.18133	10757
5.18200	10757
5.18267	10757
5.18333	10757
5.18400	10758
5.18467	10758
5.18533	10758
5.18600	10758
5.18667	10758
5.18733	10758
5.18800	10758
5.18867	10758
5.18933	10758
5.19000	10758
5.19067	10758
5.19133	10758
5.19200	10757
5.19267	10757
5.19333	10757
5.19400	10757
5.19467	10756
5.19533	10756
5.19600	10756
5.19667	10755
5.19733	10755
5.19800	10755
5.19867	10754
5.19933	10754
5.20000	10754
5.20067	10753
5.20133	10753
5.20200	10753
5.20267	10752
5.20333	10752
5.20400	10751
5.20467	10751
5.20533	10750
5.20600	10749
5.20667	10749
5.20733	10748
5.20800	10747
5.20867	10746
5.20933	10745
5.21000	10743
5.21067	10742
5.21133	10740
5.21200	10739
5.21267	10737
5.21333	10735
5.21400	10733
5.21467	10731
5.21533	10728
5.21600	10726
5.21667	10724
5.21733	10721
5.21800	10718
5.21867	10716
5.21933	10713
5.22000	10710
5.22067	10707
5.22133	10703
5.22200	10700
5.22267	10697
5.22333	10693
5.22400	10690
5.22467	10686
5.22533	10683
5.22600	10679
5.22667	10676
5.22733	10672
5.22800	10669
5.22867	10665
5.22933	10661
5.23000	10658
5.23067	10654
5.23133	10650
5.23200	10646
5.23267	10642
5.23333	10638
5.23400	10634
5.23467	10630
5.23533	10626
5.23600	10622
5.23667	10617
5.23733	10613
5.23800	10609
5.23867	10604
5.23933	10599
5.24000	10595
5.24067	10590
5.24133	10585
5.24200	10580
5.24267	10574
5.24333	10569
5.24400	10564
5.24467	10558
5.24533	10553
5.24600	10547
5.24667	10541
5.24733	10535
5.24800	10529
5.24867	10523
5.24933	10517
5.25000	10510
5.25067	10504
5.25133	10497
5.25200	10491
5.25267	10484
5.25333	10478
5.25400	10471
5.25467	10464
5.25533	10457
5.25600	10450
5.25667	10444
5.25733	10437
5.25800	10430
5.25867	10423
5.25933	10416
5.26000	10409
5.26067	10402
5.26133	10395
5.26200	10387
5.26267	10380
5.26333	10373
5.26400	10366
5.26467	10358
5.26533	10351
5.26600	10344
5.26667	10336
5.26733	10329
5.26800	10321
5.26867	10314
5.26933	10306
5.27000	10299
5.27067	10291
5.27133	10284
5.27200	10276
5.27267	10269
5.27333	10261
5.27400	10253
5.27467	10246
5.27533	10238
5.27600	10231
5.27667	10223
5.27733	10215
5.27800	10208
5.27867	10200
5.27933	10193
5.28000	10185
5.28067	10177
5.28133	10169
5.28200	10162
5.28267	10154
5.28333	10146
5.28400	10138
5.28467	10130
5.28533	10122
5.28600	10114
5.28667	10106
5.28733	10098
5.28800	10090
5.28867	10082
5.28933	10074
5.29000	10066
5.29067	10057
5.29133	10049
5.29200	10041
5.29267	10032
5.29333	10024
5.29400	10015
5.29467	10007
5.29533	9998
5.29600	9990
5.29667	9981
5.29733	9972
5.29800	9964
5.29867	9955
5.29933	9947
5.30000	9938
5.30067	9929
5.30133	9921
5.30200	9912
5.30267	9904
5.30333	9895
5.30400	9887
5.30467	9879
5.30533	9870
5.30600	9862
5.30667	9854
5.30733	9845
5.30800	9837
5.30867	9829
5.30933	9821
5.31000	9813
5.31067	9805
5.31133	9797
5.31200	9788
5.31267	9780
5.31333	9772
5.31400	9764
5.31467	9756
5.31533	9748
5.31600	9740
5.31667	9732
5.31733	9724
5.31800	9716
5.31867	9708
5.31933	9700
5.32000	9692
5.32067	9684
5.32133	9676
5.32200	9668
5.32267	9660
5.32333	9652
5.32400	9644
5.32467	9635
5.32533	9627
5.32600	9619
5.32667	9612
5.32733	9604
5.32800	9596
5.32867	9588
5.32933	9580
5.33000	9573
5.33067	9565
5.33133	9557
5.33200	9550
5.33267	9542
5.33333	9535
5.33400	9527
5.33467	9520
5.33533	9512
5.33600	9505
5.33667	9497
5.33733	9490
5.33800	9482
5.33867	9475
5.33933	9468
5.34000	9460
5.34067	9453
5.34133	9445
5.34200	9438
5.34267	9431
5.34333	9424
5.34400	9417
5.34467	9410
5.34533	9403
5.34600	9396
5.34667	9389
5.34733	9382
5.34800	9376
5.34867	9369
5.34933	9362
5.35000	9356
5.35067	9349
5.35133	9343
5.35200	9336
5.35267	9330
5.35333	9323
5.35400	9317
5.35467	9311
5.35533	9304
5.35600	9298
5.35667	9292
5.35733	9285
5.35800	9279
5.35867	9273
5.35933	9267
5.36000	9260
5.36067	9254
5.36133	9248
5.36200	9242
5.36267	9235
5.36333	9229
5.36400	9223
5.36467	9217
5.36533	9211
5.36600	9204
5.36667	9198
5.36733	9192
5.36800	9186
5.36867	9179
5.36933	9173
5.37000	9167
5.37067	9160
5.37133	9154
5.37200	9148
5.37267	9141
5.37333	9135
5.37400	9129
5.37467	9122
5.37533	9116
5.37600	9110
5.37667	9103
5.37733	9097
5.37800	9091
5.37867	9084
5.37933	9078
5.38000	9072
5.38067	9066
5.38133	9060
5.38200	9054
5.38267	9048
5.38333	9042
5.38400	9036
5.38467	9030
5.38533	9024
5.38600	9019
5.38667	9013
5.38733	9007
5.38800	9001
5.38867	8996
5.38933	8990
5.39000	8984
5.39067	8979
5.39133	8973
5.39200	8967
5.39267	8962
5.39333	8956
5.39400	8950
5.39467	8945
5.39533	8939
5.39600	8933
5.39667	8928
5.39733	8922
5.39800	8917
5.39867	8911
5.39933	8906
5.40000	8901
5.40067	8895
5.40133	8890
5.40200	8884
5.40267	8879
5.40333	8873
5.40400	8868
5.40467	8862
5.40533	8857
5.40600	8852
5.40667	8846
5.40733	8841
5.40800	8836
5.40867	8831
5.40933	8826
5.41000	8820
5.41067	8815
5.41133	8810
5.41200	8805
5.41267	8799
5.41333	8794
5.41400	8789
5.41467	8783
5.41533	8778
5.41600	8773
5.41667	8768
5.41733	8762
5.41800	8757
5.41867	8752
5.41933	8747
5.42000	8741
5.42067	8736
5.42133	8731
5.42200	8726
5.42267	8721
5.42333	8716
5.42400	8711
5.42467	8706
5.42533	8701
5.42600	8696
5.42667	8691
5.42733	8686
5.42800	8681
5.42867	8676
5.42933	8671
5.43000	8666
5.43067	8661
5.43133	8656
5.43200	8651
5.43267	8646
5.43333	8641
5.43400	8636
5.43467	8631
5.43533	8626
5.43600	8622
5.43667	8617
5.43733	8612
5.43800	8607
5.43867	8603
5.43933	8598
5.44000	8593
5.44067	8589
5.44133	8584
5.44200	8579
5.44267	8574
5.44333	8569
5.44400	8565
5.44467	8560
5.44533	8555
5.44600	8550
5.44667	8545
5.44733	8540
5.44800	8536
5.44867	8531
5.44933	8526
5.45000	8521
5.45067	8516
5.45133	8511
5.45200	8506
5.45267	8501
5.45333	8496
5.45400	8491
5.45467	8486
5.45533	8481
5.45600	8476
5.45667	8471
5.45733	8466
5.45800	8461
5.45867	8457
5.45933	8452
5.46000	8447
5.46067	8442
5.46133	8438
5.46200	8433
5.46267	8428
5.46333	8424
5.46400	8419
5.46467	8414
5.46533	8410
5.46600	8405
5.46667	8401
5.46733	8396
5.46800	8392
5.46867	8387
5.46933	8383
5.47000	8378
5.47067	8374
5.47133	8369
5.47200	8365
5.47267	8360
5.47333	8356
5.47400	8351
5.47467	8347
5.47533	8343
5.47600	8338
5.47667	8334
5.47733	8329
5.47800	8325
5.47867	8320
5.47933	8316
5.48000	8311
5.48067	8307
5.48133	8302
5.48200	8298
5.48267	8293
5.48333	8289
5.48400	8284
5.48467	8280
5.48533	8276
5.48600	8271
5.48667	8267
5.48733	8262
5.48800	8258
5.48867	8253
5.48933	8249
5.49000	8244
5.49067	8240
5.49133	8235
5.49200	8231
5.49267	8226
5.49333	8222
5.49400	8217
5.49467	8213
5.49533	8208
5.49600	8204
5.49667	8199
5.49733	8195
5.49800	8191
5.49867	8186
5.49933	8182
5.50000	8177
5.50067	8173
5.50133	8168
5.50200	8164
5.50267	8159
5.50333	8155
5.50400	8150
5.50467	8146
5.50533	8142
5.50600	8137
5.50667	8133
5.50733	8129
5.50800	8124
5.50867	8120
5.50933	8115
5.51000	8111
5.51067	8106
5.51133	8102
5.51200	8098
5.51267	8093
5.51333	8089
5.51400	8084
5.51467	8080
5.51533	8076
5.51600	8071
5.51667	8067
5.51733	8063
5.51800	8059
5.51867	8054
5.51933	8050
5.52000	8046
5.52067	8042
5.52133	8038
5.52200	8034
5.52267	8030
5.52333	8026
5.52400	8022
5.52467	8018
5.52533	8014
5.52600	8010
5.52667	8006
5.52733	8002
5.52800	7998
5.52867	7994
5.52933	7990
5.53000	7986
5.53067	7982
5.53133	7978
5.53200	7974
5.53267	7970
5.53333	7966
5.53400	7962
5.53467	7958
5.53533	7954
5.53600	7950
5.53667	7947
5.53733	7943
5.53800	7939
5.53867	7935
5.53933	7931
5.54000	7927
5.54067	7923
5.54133	7920
5.54200	7916
5.54267	7912
5.54333	7908
5.54400	7905
5.54467	7901
5.54533	7897
5.54600	7893
5.54667	7890
5.54733	7886
5.54800	7882
5.54867	7878
5.54933	7875
5.55000	7871
5.55067	7867
5.55133	7863
5.55200	7859
5.55267	7855
5.55333	7851
5.55400	7847
5.55467	7844
5.55533	7840
5.55600	7836
5.55667	7832
5.55733	7828
5.55800	7824
5.55867	7820
5.55933	7817
5.56000	7813
5.56067	7809
5.56133	7805
5.56200	7801
5.56267	7798
5.56333	7794
5.56400	7790
5.56467	7786
5.56533	7783
5.56600	7779
5.56667	7775
5.56733	7771
5.56800	7768
5.56867	7764
5.56933	7760
5.57000	7757
5.57067	7753
5.57133	7750
5.57200	7746
5.57267	7742
5.57333	7739
5.57400	7735
5.57467	7731
5.57533	7728
5.57600	7724
5.57667	7721
5.57733	7717
5.57800	7713
5.57867	7710
5.57933	7706
5.58000	7703
5.58067	7699
5.58133	7695
5.58200	7692
5.58267	7688
5.58333	7685
5.58400	7681
5.58467	7677
5.58533	7674
5.58600	7670
5.58667	7666
5.58733	7663
5.58800	7659
5.58867	7655
5.58933	7652
5.59000	7648
5.59067	7644
5.59133	7640
5.59200	7636
5.59267	7633
5.59333	7629
5.59400	7625
5.59467	7621
5.59533	7617
5.59600	7614
5.59667	7610
5.59733	7606
5.59800	7602
5.59867	7599
5.59933	7595
5.60000	7591
5.60067	7588
5.60133	7584
5.60200	7581
5.60267	7577
5.60333	7574
5.60400	7570
5.60467	7567
5.60533	7564
5.60600	7560
5.60667	7557
5.60733	7554
5.60800	7550
5.60867	7547
5.60933	7544
5.61000	7541
5.61067	7537
5.61133	7534
5.61200	7531
5.61267	7528
5.61333	7525
5.61400	7521
5.61467	7518
5.61533	7515
5.61600	7512
5.61667	7509
5.61733	7506
5.61800	7503
5.61867	7500
5.61933	7497
5.62000	7493
5.62067	7490
5.62133	7487
5.62200	7484
5.62267	7481
5.62333	7478
5.62400	7475
5.62467	7472
5.62533	7469
5.62600	7466
5.62667	7463
5.62733	7460
5.62800	7458
5.62867	7455
5.62933	7452
5.63000	7449
5.63067	7446
5.63133	7443
5.63200	7440
5.63267	7437
5.63333	7434
5.63400	7432
5.63467	7429
5.63533	7426
5.63600	7423
5.63667	7420
5.63733	7418
5.63800	7415
5.63867	7412
5.63933	7409
5.64000	7406
5.64067	7403
5.64133	7400
5.64200	7397
5.64267	7394
5.64333	7391
5.64400	7388
5.64467	7385
5.64533	7382
5.64600	7379
5.64667	7376
5.64733	7373
5.64800	7370
5.64867	7367
5.64933	7364
5.65000	7361
5.65067	7358
5.65133	7355
5.65200	7352
5.65267	7349
5.65333	7346
5.65400	7343
5.65467	7340
5.65533	7337
5.65600	7334
5.65667	7331
5.65733	7328
5.65800	7325
5.65867	7322
5.65933	7319
5.66000	7316
5.66067	7313
5.66133	7310
5.66200	7307
5.66267	7304
5.66333	7301
5.66400	7298
5.66467	7295
5.66533	7292
5.66600	7290
5.66667	7287
5.66733	7284
5.66800	7281
5.66867	7278
5.66933	7275
5.67000	7273
5.67067	7270
5.67133	7267
5.67200	7264
5.67267	7261
5.67333	7259
5.67400	7256
5.67467	7253
5.67533	7250
5.67600	7247
5.67667	7244
5.67733	7241
5.67800	7239
5.67867	7236
5.67933	7233
5.68000	7230
5.68067	7227
5.68133	7225
5.68200	7222
5.68267	7219
5.68333	7217
5.68400	7214
5.68467	7211
5.68533	7209
5.68600	7206
5.68667	7204
5.68733	7201
5.68800	7199
5.68867	7196
5.68933	7194
5.69000	7192
5.69067	7189
5.69133	7187
5.69200	7185
5.69267	7182
5.69333	7180
5.69400	7178
5.69467	7175
5.69533	7173
5.69600	7171
5.69667	7169
5.69733	7166
5.69800	7164
5.69867	7162
5.69933	7159
5.70000	7157
5.70067	7155
5.70133	7152
5.70200	7150
5.70267	7147
5.70333	7145
5.70400	7142
5.70467	7140
5.70533	7137
5.70600	7135
5.70667	7132
5.70733	7130
5.70800	7127
5.70867	7125
5.70933	7122
5.71000	7120
5.71067	7118
5.71133	7115
5.71200	7113
5.71267	7110
5.71333	7108
5.71400	7106
5.71467	7104
5.71533	7101
5.71600	7099
5.71667	7097
5.71733	7095
5.71800	7093
5.71867	7091
5.71933	7089
5.72000	7087
5.72067	7085
5.72133	7083
5.72200	7081
5.72267	7079
5.72333	7078
5.72400	7076
5.72467	7074
5.72533	7072
5.72600	7070
5.72667	7068
5.72733	7066
5.72800	7065
5.72867	7063
5.72933	7061
5.73000	7059
5.73067	7057
5.73133	7056
5.73200	7054
5.73267	7052
5.73333	7050
5.73400	7049
5.73467	7047
5.73533	7045
5.73600	7044
5.73667	7042
5.73733	7040
5.73800	7039
5.73867	7037
5.73933	7035
5.74000	7034
5.74067	7032
5.74133	7031
5.74200	7029
5.74267	7028
5.74333	7026
5.74400	7025
5.74467	7024
5.74533	7022
5.74600	7021
5.74667	7020
5.74733	7018
5.74800	7017
5.74867	7016
5.74933	7015
5.75000	7013
5.75067	7012
5.75133	7011
5.75200	7010
5.75267	7009
5.75333	7008
5.75400	7007
5.75467	7006
5.75533	7005
5.75600	7004
5.75667	7003
5.75733	7002
5.75800	7001
5.75867	7000
5.75933	6999
5.76000	6998
5.76067	6997
5.76133	6996
5.76200	6995
5.76267	6995
5.76333	6994
5.76400	6993
5.76467	6992
5.76533	6991
5.76600	6990
5.76667	6989
5.76733	6989
5.76800	6988
5.76867	6987
5.76933	6986
5.77000	6986
5.77067	6985
5.77133	6985
5.77200	6984
5.77267	6984
5.77333	6983
5.77400	6983
5.77467	6982
5.77533	6982
5.77600	6981
5.77667	6981
5.77733	6980
5.77800	6980
5.77867	6980
5.77933	6979
5.78000	6979
5.78067	6978
5.78133	6978
5.78200	6978
5.78267	6977
5.78333	6977
5.78400	6977
5.78467	6976
5.78533	6976
5.78600	6976
5.78667	6975
5.78733	6975
5.78800	6975
5.78867	6975
5.78933	6974
5.79000	6974
5.79067	6974
5.79133	6974
5.79200	6974
5.79267	6974
5.79333	6973
5.79400	6973
5.79467	6973
5.79533	6973
5.79600	6973
5.79667	6973
5.79733	6973
5.79800	6973
5.79867	6973
5.79933	6973
5.80000	6973
5.80067	6974
5.80133	6974
5.80200	6974
5.80267	6974
5.80333	6974
5.80400	6975
5.80467	6975
5.80533	6975
5.80600	6975
5.80667	6975
5.80733	6975
5.80800	6976
5.80867	6976
5.80933	6976
5.81000	6976
5.81067	6977
5.81133	6977
5.81200	6977
5.81267	6977
5.81333	6978
5.81400	6978
5.81467	6978
5.81533	6978
5.81600	6979
5.81667	6979
5.81733	6979
5.81800	6980
5.81867	6980
5.81933	6980
5.82000	6980
5.82067	6981
5.82133	6981
5.82200	6981
5.82267	6981
5.82333	6982
5.82400	6982
5.82467	6982
5.82533	6982
5.82600	6982
5.82667	6982
5.82733	6982
5.82800	6981
5.82867	6981
5.82933	6981
5.83000	6981
5.83067	6980
5.83133	6980
5.83200	6980
5.83267	6979
5.83333	6979
5.83400	6978
5.83467	6977
5.83533	6977
5.83600	6976
5.83667	6975
5.83733	6975
5.83800	6974
5.83867	6973
5.83933	6972
5.84000	6971
5.84067	6970
5.84133	6969
5.84200	6968
5.84267	6967
5.84333	6966
5.84400	6965
5.84467	6964
5.84533	6962
5.84600	6961
5.84667	6960
5.84733	6959
5.84800	6957
5.84867	6956
5.84933	6954
5.85000	6953
5.85067	6951
5.85133	6949
5.85200	6948
5.85267	6946
5.85333	6944
5.85400	6942
5.85467	6940
5.85533	6938
5.85600	6936
5.85667	6934
5.85733	6932
5.85800	6930
5.85867	6928
5.85933	6925
5.86000	6923
5.86067	6921
5.86133	6918
5.86200	6916
5.86267	6913
5.86333	6911
5.86400	6908
5.86467	6905
5.86533	6903
5.86600	6900
5.86667	6897
5.86733	6894
5.86800	6892
5.86867	6889
5.86933	6886
5.87000	6884
5.87067	6881
5.87133	6879
5.87200	6876
5.87267	6874
5.87333	6871
5.87400	6869
5.87467	6866
5.87533	6864
5.87600	6862
5.87667	6859
5.87733	6857
5.87800	6854
5.87867	6852
5.87933	6849
5.88000	6847
5.88067	6844
5.88133	6842
5.88200	6839
5.88267	6836
5.88333	6834
5.88400	6831
5.88467	6829
5.88533	6826
5.88600	6824
5.88667	6821
5.88733	6819
5.88800	6816
5.88867	6813
5.88933	6811
5.89000	6808
5.89067	6806
5.89133	6803
5.89200	6800
5.89267	6798
5.89333	6795
5.89400	6792
5.89467	6790
5.89533	6787
5.89600	6784
5.89667	6782
5.89733	6779
5.89800	6776
5.89867	6773
5.89933	6771
5.90000	6768
5.90067	6765
5.90133	6762
5.90200	6759
5.90267	6757
5.90333	6754
5.90400	6751
5.90467	6748
5.90533	6745
5.90600	6742
5.90667	6739
5.90733	6736
5.90800	6733
5.90867	6730
5.90933	6728
5.91000	6725
5.91067	6722
5.91133	6719
5.91200	6716
5.91267	6714
5.91333	6711
5.91400	6708
5.91467	6705
5.91533	6703
5.91600	6700
5.91667	6697
5.91733	6695
5.91800	6692
5.91867	6689
5.91933	6687
5.92000	6684
5.92067	6681
5.92133	6679
5.92200	6676
5.92267	6673
5.92333	6671
5.92400	6668
5.92467	6666
5.92533	6663
5.92600	6660
5.92667	6658
5.92733	6656
5.92800	6653
5.92867	6651
5.92933	6648
5.93000	6646
5.93067	6643
5.93133	6641
5.93200	6639
5.93267	6636
5.93333	6634
5.93400	6632
5.93467	6629
5.93533	6627
5.93600	6625
5.93667	6622
5.93733	6620
5.93800	6618
5.93867	6616
5.93933	6614
5.94000	6612
5.94067	6609
5.94133	6607
5.94200	6605
5.94267	6603
5.94333	6601
5.94400	6599
5.94467	6597
5.94533	6595
5.94600	6593
5.94667	6591
5.94733	6589
5.94800	6587
5.94867	6585
5.94933	6583
5.95000	6581
5.95067	6579
5.95133	6577
5.95200	6576
5.95267	6574
5.95333	6572
5.95400	6570
5.95467	6568
5.95533	6566
5.95600	6565
5.95667	6563
5.95733	6561
5.95800	6559
5.95867	6558
5.95933	6556
5.96000	6555
5.96067	6553
5.96133	6551
5.96200	6550
5.96267	6548
5.96333	6547
5.96400	6545
5.96467	6543
5.96533	6542
5.96600	6540
5.96667	6538
5.96733	6537
5.96800	6535
5.96867	6533
5.96933	6531
5.97000	6530
5.97067	6528
5.97133	6526
5.97200	6524
5.97267	6522
5.97333	6520
5.97400	6518
5.97467	6516
5.97533	6515
5.97600	6513
5.97667	6511
5.97733	6509
5.97800	6507
5.97867	6505
5.97933	6503
5.98000	6502
5.98067	6500
5.98133	6498
5.98200	6496
5.98267	6495
5.98333	6493
5.98400	6491
5.98467	6490
5.98533	6488
5.98600	6487
5.98667	6485
5.98733	6484
5.98800	6482
5.98867	6481
5.98933	6479
5.99000	6478
5.99067	6476
5.99133	6475
5.99200	6473
5.99267	6472
5.99333	6470
5.99400	6469
5.99467	6467
5.99533	6466
5.99600	6464
5.99667	6463
5.99733	6461
5.99800	6459
5.99867	6458
5.99933	6456
6.00000	6455
6.00067	6453
6.00133	6451
6.00200	6450
6.00267	6448
6.00333	6447
6.00400	6445
6.00467	6444
6.00533	6442
6.00600	6441
6.00667	6439
6.00733	6437
6.00800	6436
6.00867	6434
6.00933	6433
6.01000	6431
6.01067	6429
6.01133	6428
6.01200	6426
6.01267	6424
6.01333	6423
6.01400	6421
6.01467	6419
6.01533	6418
6.01600	6416
6.01667	6414
6.01733	6413
6.01800	6411
6.01867	6409
6.01933	6407
6.02000	6406
6.02067	6404
6.02133	6403
6.02200	6401
6.02267	6399
6.02333	6398
6.02400	6396
6.02467	6395
6.02533	6393
6.02600	6392
6.02667	6390
6.02733	6389
6.02800	6388
6.02867	6386
6.02933	6385
6.03000	6383
6.03067	6382
6.03133	6381
6.03200	6379
6.03267	6378
6.03333	6376
6.03400	6375
6.03467	6374
6.03533	6372
6.03600	6371
6.03667	6369
6.03733	6368
6.03800	6367
6.03867	6365
6.03933	6364
6.04000	6363
6.04067	6361
6.04133	6360
6.04200	6359
6.04267	6357
6.04333	6356
6.04400	6355
6.04467	6354
6.04533	6352
6.04600	6351
6.04667	6350
6.04733	6348
6.04800	6347
6.04867	6346
6.04933	6345
6.05000	6344
6.05067	6342
6.05133	6341
6.05200	6340
6.05267	6339
6.05333	6338
6.05400	6337
6.05467	6336
6.05533	6334
6.05600	6333
6.05667	6332
6.05733	6331
6.05800	6330
6.05867	6329
6.05933	6328
6.06000	6326
6.06067	6325
6.06133	6324
6.06200	6323
6.06267	6322
6.06333	6321
6.06400	6320
6.06467	6319
6.06533	6317
6.06600	6316
6.06667	6315
6.06733	6314
6.06800	6313
6.06867	6312
6.06933	6311
6.07000	6310
6.07067	6309
6.07133	6308
6.07200	6307
6.07267	6306
6.07333	6305
6.07400	6304
6.07467	6303
6.07533	6302
6.07600	6301
6.07667	6300
6.07733	6299
6.07800	6299
6.07867	6298
6.07933	6297
6.08000	6296
6.08067	6295
6.08133	6295
6.08200	6294
6.08267	6293
6.08333	6292
6.08400	6291
6.08467	6291
6.08533	6290
6.08600	6289
6.08667	6289
6.08733	6288
6.08800	6288
6.08867	6287
6.08933	6287
6.09000	6286
6.09067	6286
6.09133	6285
6.09200	6285
6.09267	6284
6.09333	6283
6.09400	6283
6.09467	6282
6.09533	6282
6.09600	6281
6.09667	6280
6.09733	6279
6.09800	6279
6.09867	6278
6.09933	6277
6.10000	6276
6.10067	6276
6.10133	6275
6.10200	6274
6.10267	6273
6.10333	6272
6.10400	6272
6.10467	6271
6.10533	6270
6.10600	6269
6.10667	6268
6.10733	6267
6.10800	6267
6.10867	6266
6.10933	6265
6.11000	6264
6.11067	6263
6.11133	6262
6.11200	6261
6.11267	6260
6.11333	6259
6.11400	6258
6.11467	6258
6.11533	6257
6.11600	6256
6.11667	6255
6.11733	6254
6.11800	6253
6.11867	6252
6.11933	6252
6.12000	6251
6.12067	6250
6.12133	6249
6.12200	6248
6.12267	6247
6.12333	6246
6.12400	6246
6.12467	6245
6.12533	6244
6.12600	6243
6.12667	6242
6.12733	6241
6.12800	6240
6.12867	6239
6.12933	6239
6.13000	6238
6.13067	6237
6.13133	6236
6.13200	6235
6.13267	6234
6.13333	6234
6.13400	6233
6.13467	6232
6.13533	6231
6.13600	6230
6.13667	6229
6.13733	6228
6.13800	6227
6.13867	6226
6.13933	6225
6.14000	6224
6.14067	6223
6.14133	6222
6.14200	6220
6.14267	6219
6.14333	6218
6.14400	6217
6.14467	6216
6.14533	6215
6.14600	6214
6.14667	6213
6.14733	6212
6.14800	6211
6.14867	6210
6.14933	6209
6.15000	6208
6.15067	6207
6.15133	6206
6.15200	6205
6.15267	6204
6.15333	6203
6.15400	6202
6.15467	6201
6.15533	6201
6.15600	6200
6.15667	6199
6.15733	6198
6.15800	6197
6.15867	6196
6.15933	6195
6.16000	6194
6.16067	6193
6.16133	6192
6.16200	6191
6.16267	6190
6.16333	6189
6.16400	6188
6.16467	6187
6.16533	6186
6.16600	6185
6.16667	6183
6.16733	6182
6.16800	6181
6.16867	6180
6.16933	6179
6.17000	6178
6.17067	6177
6.17133	6176
6.17200	6175
6.17267	6174
6.17333	6173
6.17400	6172
6.17467	6171
6.17533	6170
6.17600	6169
6.17667	6168
6.17733	6167
6.17800	6166
6.17867	6165
6.17933	6164
6.18000	6164
6.18067	6163
6.18133	6162
6.18200	6161
6.18267	6160
6.18333	6159
6.18400	6158
6.18467	6157
6.18533	6157
6.18600	6156
6.18667	6155
6.18733	6154
6.18800	6153
6.18867	6153
6.18933	6152
6.19000	6151
6.19067	6150
6.19133	6150
6.19200	6149
6.19267	6148
6.19333	6147
6.19400	6146
6.19467	6145
6.19533	6144
6.19600	6143
6.19667	6143
6.19733	6142
6.19800	6141
6.19867	6140
6.19933	6139
6.20000	6138
6.20067	6137
6.20133	6136
6.20200	6135
6.20267	6135
6.20333	6134
6.20400	6133
6.20467	6132
6.20533	6131
6.20600	6130
6.20667	6130
6.20733	6129
6.20800	6128
6.20867	6128
6.20933	6127
6.21000	6126
6.21067	6126
6.21133	6125
6.21200	6125
6.21267	6124
6.21333	6123
6.21400	6123
6.21467	6122
6.21533	6122
6.21600	6121
6.21667	6121
6.21733	6120
6.21800	6120
6.21867	6119
6.21933	6119
6.22000	6119
6.22067	6118
6.22133	6118
6.22200	6118
6.22267	6117
6.22333	6117
6.22400	6117
6.22467	6117
6.22533	6117
6.22600	6117
6.22667	6117
6.22733	6116
6.22800	6116
6.22867	6116
6.22933	6116
6.23000	6116
6.23067	6116
6.23133	6116
6.23200	6116
6.23267	6116
6.23333	6116
6.23400	6116
6.23467	6116
6.23533	6116
6.23600	6116
6.23667	6116
6.23733	6116
6.23800	6116
6.23867	6116
6.23933	6116
6.24000	6116
6.24067	6116
6.24133	6116
6.24200	6116
6.24267	6116
6.24333	6116
6.24400	6116
6.24467	6116
6.24533	6117
6.24600	6117
6.24667	6117
6.24733	6117
6.24800	6117
6.24867	6118
6.24933	6118
6.25000	6118
6.25067	6119
6.25133	6119
6.25200	6119
6.25267	6119
6.25333	6120
6.25400	6120
6.25467	6120
6.25533	6121
6.25600	6121
6.25667	6122
6.25733	6122
6.25800	6123
6.25867	6123
6.25933	6123
6.26000	6124
6.26067	6124
6.26133	6125
6.26200	6125
6.26267	6126
6.26333	6126
6.26400	6127
6.26467	6127
6.26533	6127
6.26600	6128
6.26667	6128
6.26733	6128
6.26800	6129
6.26867	6129
6.26933	6130
6.27000	6130
6.27067	6130
6.27133	6131
6.27200	6131
6.27267	6131
6.27333	6132
6.27400	6132
6.27467	6133
6.27533	6133
6.27600	6134
6.27667	6134
6.27733	6135
6.27800	6135
6.27867	6135
6.27933	6136
6.28000	6136
6.28067	6137
6.28133	6137
6.28200	6138
6.28267	6138
6.28333	6138
6.28400	6139
6.28467	6139
6.28533	6139
6.28600	6140
6.28667	6140
6.28733	6140
6.28800	6141
6.28867	6141
6.28933	6141
6.29000	6142
6.29067	6142
6.29133	6142
6.29200	6143
6.29267	6143
6.29333	6143
6.29400	6144
6.29467	6144
6.29533	6144
6.29600	6145
6.29667	6145
6.29733	6145
6.29800	6145
6.29867	6146
6.29933	6146
6.30000	6146
6.30067	6146
6.30133	6146
6.30200	6147
6.30267	6147
6.30333	6147
6.30400	6147
6.30467	6147
6.30533	6147
6.30600	6147
6.30667	6147
6.30733	6147
6.30800	6147
6.30867	6147
6.30933	6147
6.31000	6146
6.31067	6146
6.31133	6146
6.31200	6145
6.31267	6145
6.31333	6145
6.31400	6144
6.31467	6144
6.31533	6143
6.31600	6143
6.31667	6142
6.31733	6142
6.31800	6141
6.31867	6141
6.31933	6140
6.32000	6139
6.32067	6138
6.32133	6138
6.32200	6137
6.32267	6136
6.32333	6135
6.32400	6134
6.32467	6133
6.32533	6132
6.32600	6131
6.32667	6130
6.32733	6129
6.32800	6128
6.32867	6127
6.32933	6126
6.33000	6125
6.33067	6124
6.33133	6123
6.33200	6122
6.33267	6121
6.33333	6120
6.33400	6119
6.33467	6118
6.33533	6117
6.33600	6116
6.33667	6115
6.33733	6114
6.33800	6112
6.33867	6111
6.33933	6110
6.34000	6109
6.34067	6108
6.34133	6107
6.34200	6106
6.34267	6105
6.34333	6104
6.34400	6103
6.34467	6102
6.34533	6101
6.34600	6100
6.34667	6099
6.34733	6098
6.34800	6097
6.34867	6096
6.34933	6095
6.35000	6093
6.35067	6092
6.35133	6091
6.35200	6090
6.35267	6089
6.35333	6088
6.35400	6087
6.35467	6086
6.35533	6085
6.35600	6084
6.35667	6083
6.35733	6082
6.35800	6081
6.35867	6079
6.35933	6078
6.36000	6077
6.36067	6076
6.36133	6074
6.36200	6073
6.36267	6072
6.36333	6070
6.36400	6069
6.36467	6068
6.36533	6066
6.36600	6065
6.36667	6064
6.36733	6062
6.36800	6061
6.36867	6060
6.36933	6058
6.37000	6057
6.37067	6056
6.37133	6054
6.37200	6053
6.37267	6052
6.37333	6050
6.37400	6049
6.37467	6048
6.37533	6046
6.37600	6045
6.37667	6044
6.37733	6042
6.37800	6041
6.37867	6040
6.37933	6038
6.38000	6037
6.38067	6035
6.38133	6034
6.38200	6033
6.38267	6032
6.38333	6030
6.38400	6029
6.38467	6028
6.38533	6026
6.38600	6025
6.38667	6024
6.38733	6023
6.38800	6022
6.38867	6020
6.38933	6019
6.39000	6018
6.39067	6017
6.39133	6015
6.39200	6014
6.39267	6013
6.39333	6012
6.39400	6011
6.39467	6010
6.39533	6009
6.39600	6008
6.39667	6007
6.39733	6006
6.39800	6004
6.39867	6004
6.39933	6003

