[Header]
Application Name	LabSolutions
Version	5.73
Data File Name	C:\LabSolutions\Data\Project1\stephen\2016-01-06\74.gcd
Output Date	1/11/2016
Output Time	1:19:54 PM

[Configuration]
Instrument Name	WEISSTA-PC-Instrument1
Instrument #	1
Line #	1
# of Detectors	1
Detector ID	DET#2
Detector Name	DFID1
# of Channels	1

[Chromatogram (Ch1)]
Interval(msec)	40
# of Points	9600
Start Time(min)	0.000
End Time(min)	6.400
R.Time (min)	Intensity
0.00033	7
0.00100	7
0.00167	7
0.00233	7
0.00300	7
0.00367	7
0.00433	7
0.00500	7
0.00567	7
0.00633	7
0.00700	8
0.00767	8
0.00833	8
0.00900	8
0.00967	8
0.01033	8
0.01100	8
0.01167	8
0.01233	8
0.01300	7
0.01367	7
0.01433	6
0.01500	5
0.01567	5
0.01633	3
0.01700	2
0.01767	1
0.01833	-0
0.01900	-2
0.01967	-3
0.02033	-5
0.02100	-7
0.02167	-8
0.02233	-10
0.02300	-12
0.02367	-14
0.02433	-15
0.02500	-17
0.02567	-19
0.02633	-20
0.02700	-22
0.02767	-23
0.02833	-25
0.02900	-26
0.02967	-28
0.03033	-29
0.03100	-31
0.03167	-32
0.03233	-33
0.03300	-34
0.03367	-35
0.03433	-36
0.03500	-37
0.03567	-38
0.03633	-39
0.03700	-39
0.03767	-40
0.03833	-41
0.03900	-41
0.03967	-42
0.04033	-42
0.04100	-43
0.04167	-43
0.04233	-44
0.04300	-44
0.04367	-45
0.04433	-45
0.04500	-45
0.04567	-45
0.04633	-46
0.04700	-46
0.04767	-46
0.04833	-46
0.04900	-46
0.04967	-47
0.05033	-47
0.05100	-47
0.05167	-47
0.05233	-47
0.05300	-47
0.05367	-47
0.05433	-47
0.05500	-47
0.05567	-48
0.05633	-48
0.05700	-48
0.05767	-48
0.05833	-48
0.05900	-48
0.05967	-48
0.06033	-48
0.06100	-48
0.06167	-48
0.06233	-48
0.06300	-47
0.06367	-47
0.06433	-47
0.06500	-47
0.06567	-47
0.06633	-47
0.06700	-47
0.06767	-47
0.06833	-47
0.06900	-47
0.06967	-47
0.07033	-47
0.07100	-47
0.07167	-47
0.07233	-46
0.07300	-46
0.07367	-46
0.07433	-46
0.07500	-46
0.07567	-46
0.07633	-46
0.07700	-46
0.07767	-46
0.07833	-46
0.07900	-46
0.07967	-46
0.08033	-46
0.08100	-46
0.08167	-46
0.08233	-46
0.08300	-45
0.08367	-45
0.08433	-45
0.08500	-45
0.08567	-45
0.08633	-43
0.08700	-37
0.08767	-29
0.08833	-17
0.08900	0
0.08967	44
0.09033	115
0.09100	220
0.09167	380
0.09233	579
0.09300	831
0.09367	1130
0.09433	1476
0.09500	1908
0.09567	2457
0.09633	3138
0.09700	3951
0.09767	4861
0.09833	5836
0.09900	6846
0.09967	7921
0.10033	9028
0.10100	10185
0.10167	11446
0.10233	12814
0.10300	14246
0.10367	15688
0.10433	17161
0.10500	18633
0.10567	20208
0.10633	21880
0.10700	23590
0.10767	25343
0.10833	27084
0.10900	28795
0.10967	30463
0.11033	32112
0.11100	33756
0.11167	35445
0.11233	37156
0.11300	38946
0.11367	40730
0.11433	42403
0.11500	43981
0.11567	45490
0.11633	46938
0.11700	48371
0.11767	49826
0.11833	51235
0.11900	52556
0.11967	53768
0.12033	54889
0.12100	55899
0.12167	56788
0.12233	57584
0.12300	58299
0.12367	58967
0.12433	59567
0.12500	60078
0.12567	60542
0.12633	60997
0.12700	61395
0.12767	61745
0.12833	62066
0.12900	62337
0.12967	62570
0.13033	62732
0.13100	62820
0.13167	62878
0.13233	62902
0.13300	62852
0.13367	62747
0.13433	62666
0.13500	62737
0.13567	63488
0.13633	66742
0.13700	76354
0.13767	100198
0.13833	151877
0.13900	252689
0.13967	429371
0.14033	711376
0.14100	1126195
0.14167	1698917
0.14233	2450134
0.14300	3396439
0.14367	4548975
0.14433	5915761
0.14500	7501595
0.14567	9305022
0.14633	11306173
0.14700	13496096
0.14767	15920209
0.14833	18628180
0.14900	21633177
0.14967	24925406
0.15033	28480902
0.15100	32270118
0.15167	36262206
0.15233	40426896
0.15300	44735344
0.15367	49160757
0.15433	53677964
0.15500	58263268
0.15567	62894069
0.15633	67549204
0.15700	72208814
0.15767	76854401
0.15833	81469105
0.15900	86037602
0.15967	90545472
0.16033	94980093
0.16100	99330149
0.16167	103585457
0.16233	107736908
0.16300	111775989
0.16367	115694416
0.16433	119485577
0.16500	123144155
0.16567	126665491
0.16633	130045512
0.16700	133281411
0.16767	136370853
0.16833	139312365
0.16900	142105381
0.16967	144750488
0.17033	147248618
0.17100	149600321
0.17167	151805601
0.17233	153864003
0.17300	155775277
0.17367	157539418
0.17433	159157155
0.17500	160629505
0.17567	161958148
0.17633	163145077
0.17700	164192610
0.17767	165103264
0.17833	165879716
0.17900	166524593
0.17967	167040734
0.18033	167431119
0.18100	167699108
0.18167	167848172
0.18233	167881904
0.18300	167803909
0.18367	167617853
0.18433	167327479
0.18500	166936366
0.18567	166447913
0.18633	165865215
0.18700	165191413
0.18767	164429592
0.18833	163582964
0.18900	162654743
0.18967	161648351
0.19033	160567345
0.19100	159415615
0.19167	158197723
0.19233	156919317
0.19300	155586234
0.19367	154203199
0.19433	152773440
0.19500	151299139
0.19567	149781944
0.19633	148223502
0.19700	146625622
0.19767	144990339
0.19833	143319876
0.19900	141616621
0.19967	139883081
0.20033	138121792
0.20100	136335298
0.20167	134526105
0.20233	132696717
0.20300	130849566
0.20367	128987058
0.20433	127111501
0.20500	125225163
0.20567	123330204
0.20633	121428730
0.20700	119522729
0.20767	117614139
0.20833	115704800
0.20900	113796483
0.20967	111890858
0.21033	109989531
0.21100	108094030
0.21167	106205801
0.21233	104326216
0.21300	102456581
0.21367	100598137
0.21433	98752048
0.21500	96919410
0.21567	95101238
0.21633	93298491
0.21700	91512052
0.21767	89742747
0.21833	87991333
0.21900	86258523
0.21967	84544975
0.22033	82851288
0.22100	81177995
0.22167	79525581
0.22233	77894474
0.22300	76285066
0.22367	74697693
0.22433	73132655
0.22500	71590201
0.22567	70070551
0.22633	68573884
0.22700	67100339
0.22767	65650026
0.22833	64223028
0.22900	62819396
0.22967	61439152
0.23033	60082291
0.23100	58748778
0.23167	57438560
0.23233	56151558
0.23300	54887679
0.23367	53646801
0.23433	52428792
0.23500	51233500
0.23567	50060764
0.23633	48910404
0.23700	47782231
0.23767	46676044
0.23833	45591636
0.23900	44528790
0.23967	43487285
0.24033	42466887
0.24100	41467356
0.24167	40488439
0.24233	39529880
0.24300	38591418
0.24367	37672794
0.24433	36773790
0.24500	35894263
0.24567	35034128
0.24633	34193286
0.24700	33371564
0.24767	32568677
0.24833	31784276
0.24900	31017978
0.24967	30269404
0.25033	29538161
0.25100	28823846
0.25167	28126039
0.25233	27444320
0.25300	26778271
0.25367	26127493
0.25433	25491601
0.25500	24870230
0.25567	24263029
0.25633	23669670
0.25700	23089840
0.25767	22523243
0.25833	21969595
0.25900	21428622
0.25967	20900060
0.26033	20383654
0.26100	19879159
0.26167	19386335
0.26233	18904950
0.26300	18434774
0.26367	17975584
0.26433	17527155
0.26500	17089275
0.26567	16661733
0.26633	16244326
0.26700	15836853
0.26767	15439114
0.26833	15050911
0.26900	14672048
0.26967	14302330
0.27033	13941563
0.27100	13589556
0.27167	13246122
0.27233	12911077
0.27300	12584238
0.27367	12265427
0.27433	11954471
0.27500	11651195
0.27567	11355432
0.27633	11067016
0.27700	10785785
0.27767	10511582
0.27833	10244250
0.27900	9983637
0.27967	9729594
0.28033	9481971
0.28100	9240625
0.28167	9005414
0.28233	8776197
0.28300	8552836
0.28367	8335197
0.28433	8123148
0.28500	7916559
0.28567	7715304
0.28633	7519258
0.28700	7328300
0.28767	7142310
0.28833	6961170
0.28900	6784763
0.28967	6612977
0.29033	6445699
0.29100	6282821
0.29167	6124237
0.29233	5969840
0.29300	5819529
0.29367	5673201
0.29433	5530761
0.29500	5392110
0.29567	5257158
0.29633	5125811
0.29700	4997980
0.29767	4873577
0.29833	4752517
0.29900	4634716
0.29967	4520091
0.30033	4408563
0.30100	4300053
0.30167	4194485
0.30233	4091783
0.30300	3991874
0.30367	3894685
0.30433	3800146
0.30500	3708189
0.30567	3618746
0.30633	3531750
0.30700	3447139
0.30767	3364848
0.30833	3284817
0.30900	3206985
0.30967	3131295
0.31033	3057688
0.31100	2986110
0.31167	2916505
0.31233	2848821
0.31300	2783005
0.31367	2719008
0.31433	2656782
0.31500	2596279
0.31567	2537456
0.31633	2480267
0.31700	2424673
0.31767	2370632
0.31833	2318108
0.31900	2267065
0.31967	2217468
0.32033	2169286
0.32100	2122489
0.32167	2077048
0.32233	2032937
0.32300	1990130
0.32367	1948604
0.32433	1908338
0.32500	1869309
0.32567	1831497
0.32633	1794885
0.32700	1759456
0.32767	1725192
0.32833	1692081
0.32900	1660108
0.32967	1629261
0.33033	1599525
0.33100	1570890
0.33167	1543344
0.33233	1516876
0.33300	1491475
0.33367	1467131
0.33433	1443835
0.33500	1421580
0.33567	1400358
0.33633	1380163
0.33700	1360984
0.33767	1342810
0.33833	1325629
0.33900	1309421
0.33967	1294166
0.34033	1279840
0.34100	1266416
0.34167	1253865
0.34233	1242153
0.34300	1231249
0.34367	1221117
0.34433	1211721
0.34500	1203026
0.34567	1194997
0.34633	1187598
0.34700	1180796
0.34767	1174558
0.34833	1168851
0.34900	1163646
0.34967	1158915
0.35033	1154629
0.35100	1150764
0.35167	1147295
0.35233	1144204
0.35300	1141471
0.35367	1139077
0.35433	1137006
0.35500	1135241
0.35567	1133766
0.35633	1132564
0.35700	1131622
0.35767	1130926
0.35833	1130464
0.35900	1130223
0.35967	1130194
0.36033	1130366
0.36100	1130730
0.36167	1131279
0.36233	1132005
0.36300	1132901
0.36367	1133961
0.36433	1135181
0.36500	1136554
0.36567	1138076
0.36633	1139743
0.36700	1141550
0.36767	1143494
0.36833	1145568
0.36900	1147769
0.36967	1150091
0.37033	1152529
0.37100	1155077
0.37167	1157731
0.37233	1160486
0.37300	1163341
0.37367	1166292
0.37433	1169339
0.37500	1172485
0.37567	1175736
0.37633	1179101
0.37700	1182589
0.37767	1186212
0.37833	1189978
0.37900	1193894
0.37967	1197964
0.38033	1202191
0.38100	1206573
0.38167	1211105
0.38233	1215782
0.38300	1220595
0.38367	1225535
0.38433	1230592
0.38500	1235756
0.38567	1241017
0.38633	1246364
0.38700	1251786
0.38767	1257272
0.38833	1262810
0.38900	1268393
0.38967	1274011
0.39033	1279656
0.39100	1285320
0.39167	1290996
0.39233	1296676
0.39300	1302350
0.39367	1308003
0.39433	1313619
0.39500	1319174
0.39567	1324642
0.39633	1329994
0.39700	1335197
0.39767	1340217
0.39833	1345020
0.39900	1349572
0.39967	1353838
0.40033	1357784
0.40100	1361373
0.40167	1364569
0.40233	1367331
0.40300	1369620
0.40367	1371391
0.40433	1372604
0.40500	1373212
0.40567	1373175
0.40633	1372449
0.40700	1370995
0.40767	1368775
0.40833	1365758
0.40900	1361914
0.40967	1357223
0.41033	1351670
0.41100	1345253
0.41167	1337975
0.41233	1329847
0.41300	1320893
0.41367	1311139
0.41433	1300619
0.41500	1289373
0.41567	1277441
0.41633	1264867
0.41700	1251697
0.41767	1237975
0.41833	1223748
0.41900	1209059
0.41967	1193954
0.42033	1178476
0.42100	1162667
0.42167	1146566
0.42233	1130212
0.42300	1113643
0.42367	1096893
0.42433	1079995
0.42500	1062981
0.42567	1045881
0.42633	1028721
0.42700	1011529
0.42767	994328
0.42833	977141
0.42900	959990
0.42967	942894
0.43033	925871
0.43100	908937
0.43167	892110
0.43233	875401
0.43300	858825
0.43367	842394
0.43433	826119
0.43500	810010
0.43567	794078
0.43633	778331
0.43700	762776
0.43767	747422
0.43833	732273
0.43900	717335
0.43967	702613
0.44033	688111
0.44100	673831
0.44167	659776
0.44233	645949
0.44300	632351
0.44367	618982
0.44433	605844
0.44500	592936
0.44567	580259
0.44633	567815
0.44700	555602
0.44767	543622
0.44833	531875
0.44900	520359
0.44967	509075
0.45033	498022
0.45100	487198
0.45167	476602
0.45233	466233
0.45300	456088
0.45367	446165
0.45433	436463
0.45500	426978
0.45567	417709
0.45633	408653
0.45700	399807
0.45767	391169
0.45833	382736
0.45900	374505
0.45967	366474
0.46033	358640
0.46100	351002
0.46167	343556
0.46233	336300
0.46300	329233
0.46367	322352
0.46433	315656
0.46500	309142
0.46567	302809
0.46633	296654
0.46700	290676
0.46767	284869
0.46833	279232
0.46900	273757
0.46967	268442
0.47033	263281
0.47100	258272
0.47167	253409
0.47233	248689
0.47300	244108
0.47367	239661
0.47433	235345
0.47500	231156
0.47567	227089
0.47633	223141
0.47700	219309
0.47767	215588
0.47833	211976
0.47900	208468
0.47967	205062
0.48033	201755
0.48100	198542
0.48167	195422
0.48233	192392
0.48300	189448
0.48367	186588
0.48433	183810
0.48500	181110
0.48567	178486
0.48633	175936
0.48700	173458
0.48767	171048
0.48833	168705
0.48900	166427
0.48967	164211
0.49033	162055
0.49100	159957
0.49167	157915
0.49233	155926
0.49300	153990
0.49367	152104
0.49433	150266
0.49500	148475
0.49567	146729
0.49633	145026
0.49700	143365
0.49767	141745
0.49833	140165
0.49900	138622
0.49967	137116
0.50033	135645
0.50100	134208
0.50167	132805
0.50233	131433
0.50300	130092
0.50367	128781
0.50433	127499
0.50500	126244
0.50567	125016
0.50633	123813
0.50700	122636
0.50767	121483
0.50833	120353
0.50900	119245
0.50967	118160
0.51033	117095
0.51100	116051
0.51167	115026
0.51233	114021
0.51300	113035
0.51367	112066
0.51433	111114
0.51500	110179
0.51567	109260
0.51633	108357
0.51700	107470
0.51767	106597
0.51833	105738
0.51900	104893
0.51967	104062
0.52033	103243
0.52100	102438
0.52167	101644
0.52233	100863
0.52300	100093
0.52367	99334
0.52433	98586
0.52500	97849
0.52567	97122
0.52633	96405
0.52700	95698
0.52767	95000
0.52833	94312
0.52900	93632
0.52967	92962
0.53033	92299
0.53100	91646
0.53167	91000
0.53233	90362
0.53300	89732
0.53367	89109
0.53433	88494
0.53500	87886
0.53567	87285
0.53633	86690
0.53700	86103
0.53767	85522
0.53833	84948
0.53900	84379
0.53967	83817
0.54033	83262
0.54100	82712
0.54167	82168
0.54233	81629
0.54300	81097
0.54367	80569
0.54433	80048
0.54500	79531
0.54567	79020
0.54633	78515
0.54700	78014
0.54767	77519
0.54833	77029
0.54900	76544
0.54967	76065
0.55033	75590
0.55100	75121
0.55167	74656
0.55233	74197
0.55300	73743
0.55367	73294
0.55433	72849
0.55500	72410
0.55567	71975
0.55633	71546
0.55700	71121
0.55767	70701
0.55833	70286
0.55900	69875
0.55967	69469
0.56033	69067
0.56100	68670
0.56167	68276
0.56233	67887
0.56300	67502
0.56367	67121
0.56433	66743
0.56500	66369
0.56567	65998
0.56633	65631
0.56700	65267
0.56767	64907
0.56833	64549
0.56900	64195
0.56967	63843
0.57033	63495
0.57100	63150
0.57167	62807
0.57233	62467
0.57300	62131
0.57367	61797
0.57433	61465
0.57500	61137
0.57567	60811
0.57633	60487
0.57700	60166
0.57767	59848
0.57833	59532
0.57900	59218
0.57967	58907
0.58033	58598
0.58100	58291
0.58167	57986
0.58233	57684
0.58300	57383
0.58367	57085
0.58433	56789
0.58500	56495
0.58567	56202
0.58633	55912
0.58700	55624
0.58767	55338
0.58833	55054
0.58900	54773
0.58967	54493
0.59033	54215
0.59100	53940
0.59167	53667
0.59233	53395
0.59300	53126
0.59367	52859
0.59433	52594
0.59500	52332
0.59567	52071
0.59633	51813
0.59700	51556
0.59767	51302
0.59833	51050
0.59900	50800
0.59967	50552
0.60033	50306
0.60100	50062
0.60167	49820
0.60233	49580
0.60300	49342
0.60367	49106
0.60433	48872
0.60500	48640
0.60567	48411
0.60633	48183
0.60700	47957
0.60767	47733
0.60833	47511
0.60900	47292
0.60967	47074
0.61033	46858
0.61100	46645
0.61167	46433
0.61233	46224
0.61300	46017
0.61367	45811
0.61433	45608
0.61500	45407
0.61567	45208
0.61633	45010
0.61700	44815
0.61767	44621
0.61833	44429
0.61900	44240
0.61967	44052
0.62033	43865
0.62100	43681
0.62167	43498
0.62233	43317
0.62300	43137
0.62367	42960
0.62433	42783
0.62500	42608
0.62567	42435
0.62633	42263
0.62700	42092
0.62767	41923
0.62833	41755
0.62900	41588
0.62967	41423
0.63033	41258
0.63100	41095
0.63167	40933
0.63233	40773
0.63300	40613
0.63367	40455
0.63433	40297
0.63500	40141
0.63567	39987
0.63633	39833
0.63700	39680
0.63767	39529
0.63833	39378
0.63900	39229
0.63967	39081
0.64033	38935
0.64100	38789
0.64167	38644
0.64233	38501
0.64300	38359
0.64367	38218
0.64433	38078
0.64500	37940
0.64567	37802
0.64633	37665
0.64700	37530
0.64767	37396
0.64833	37262
0.64900	37129
0.64967	36998
0.65033	36867
0.65100	36737
0.65167	36608
0.65233	36480
0.65300	36352
0.65367	36226
0.65433	36100
0.65500	35974
0.65567	35849
0.65633	35725
0.65700	35602
0.65767	35479
0.65833	35356
0.65900	35235
0.65967	35113
0.66033	34993
0.66100	34872
0.66167	34753
0.66233	34634
0.66300	34515
0.66367	34397
0.66433	34279
0.66500	34162
0.66567	34045
0.66633	33928
0.66700	33813
0.66767	33697
0.66833	33582
0.66900	33468
0.66967	33354
0.67033	33241
0.67100	33128
0.67167	33015
0.67233	32903
0.67300	32792
0.67367	32681
0.67433	32571
0.67500	32461
0.67567	32352
0.67633	32244
0.67700	32136
0.67767	32030
0.67833	31924
0.67900	31818
0.67967	31714
0.68033	31611
0.68100	31509
0.68167	31408
0.68233	31309
0.68300	31211
0.68367	31114
0.68433	31019
0.68500	30926
0.68567	30835
0.68633	30746
0.68700	30660
0.68767	30576
0.68833	30495
0.68900	30418
0.68967	30343
0.69033	30272
0.69100	30205
0.69167	30142
0.69233	30083
0.69300	30028
0.69367	29978
0.69433	29932
0.69500	29890
0.69567	29853
0.69633	29821
0.69700	29793
0.69767	29769
0.69833	29750
0.69900	29734
0.69967	29723
0.70033	29714
0.70100	29709
0.70167	29706
0.70233	29706
0.70300	29708
0.70367	29711
0.70433	29714
0.70500	29718
0.70567	29721
0.70633	29724
0.70700	29726
0.70767	29726
0.70833	29724
0.70900	29720
0.70967	29714
0.71033	29704
0.71100	29691
0.71167	29675
0.71233	29656
0.71300	29632
0.71367	29605
0.71433	29574
0.71500	29540
0.71567	29501
0.71633	29459
0.71700	29413
0.71767	29364
0.71833	29311
0.71900	29256
0.71967	29197
0.72033	29135
0.72100	29070
0.72167	29002
0.72233	28932
0.72300	28860
0.72367	28785
0.72433	28709
0.72500	28630
0.72567	28550
0.72633	28468
0.72700	28384
0.72767	28300
0.72833	28214
0.72900	28127
0.72967	28039
0.73033	27950
0.73100	27860
0.73167	27769
0.73233	27678
0.73300	27586
0.73367	27494
0.73433	27402
0.73500	27309
0.73567	27216
0.73633	27123
0.73700	27030
0.73767	26937
0.73833	26844
0.73900	26751
0.73967	26658
0.74033	26566
0.74100	26473
0.74167	26381
0.74233	26289
0.74300	26198
0.74367	26107
0.74433	26016
0.74500	25925
0.74567	25835
0.74633	25746
0.74700	25657
0.74767	25569
0.74833	25481
0.74900	25394
0.74967	25307
0.75033	25221
0.75100	25135
0.75167	25050
0.75233	24966
0.75300	24882
0.75367	24799
0.75433	24717
0.75500	24635
0.75567	24553
0.75633	24473
0.75700	24393
0.75767	24313
0.75833	24235
0.75900	24157
0.75967	24080
0.76033	24003
0.76100	23927
0.76167	23852
0.76233	23778
0.76300	23704
0.76367	23631
0.76433	23559
0.76500	23487
0.76567	23416
0.76633	23346
0.76700	23276
0.76767	23207
0.76833	23139
0.76900	23072
0.76967	23005
0.77033	22939
0.77100	22873
0.77167	22808
0.77233	22744
0.77300	22680
0.77367	22617
0.77433	22555
0.77500	22494
0.77567	22433
0.77633	22372
0.77700	22313
0.77767	22253
0.77833	22195
0.77900	22137
0.77967	22079
0.78033	22022
0.78100	21966
0.78167	21910
0.78233	21854
0.78300	21799
0.78367	21745
0.78433	21691
0.78500	21637
0.78567	21584
0.78633	21532
0.78700	21480
0.78767	21428
0.78833	21377
0.78900	21327
0.78967	21276
0.79033	21227
0.79100	21178
0.79167	21129
0.79233	21080
0.79300	21032
0.79367	20985
0.79433	20938
0.79500	20891
0.79567	20845
0.79633	20799
0.79700	20753
0.79767	20708
0.79833	20663
0.79900	20619
0.79967	20575
0.80033	20532
0.80100	20488
0.80167	20446
0.80233	20403
0.80300	20361
0.80367	20319
0.80433	20278
0.80500	20237
0.80567	20196
0.80633	20155
0.80700	20115
0.80767	20075
0.80833	20036
0.80900	19996
0.80967	19957
0.81033	19919
0.81100	19880
0.81167	19842
0.81233	19804
0.81300	19767
0.81367	19730
0.81433	19694
0.81500	19657
0.81567	19622
0.81633	19586
0.81700	19551
0.81767	19517
0.81833	19483
0.81900	19449
0.81967	19415
0.82033	19382
0.82100	19349
0.82167	19317
0.82233	19285
0.82300	19253
0.82367	19222
0.82433	19190
0.82500	19160
0.82567	19129
0.82633	19099
0.82700	19069
0.82767	19039
0.82833	19009
0.82900	18980
0.82967	18950
0.83033	18921
0.83100	18892
0.83167	18864
0.83233	18835
0.83300	18807
0.83367	18779
0.83433	18751
0.83500	18723
0.83567	18695
0.83633	18667
0.83700	18640
0.83767	18612
0.83833	18585
0.83900	18558
0.83967	18531
0.84033	18504
0.84100	18477
0.84167	18450
0.84233	18423
0.84300	18396
0.84367	18369
0.84433	18343
0.84500	18316
0.84567	18289
0.84633	18263
0.84700	18236
0.84767	18210
0.84833	18184
0.84900	18157
0.84967	18131
0.85033	18105
0.85100	18078
0.85167	18052
0.85233	18026
0.85300	17999
0.85367	17973
0.85433	17947
0.85500	17921
0.85567	17895
0.85633	17869
0.85700	17842
0.85767	17816
0.85833	17790
0.85900	17764
0.85967	17738
0.86033	17711
0.86100	17685
0.86167	17659
0.86233	17633
0.86300	17606
0.86367	17580
0.86433	17554
0.86500	17528
0.86567	17502
0.86633	17475
0.86700	17449
0.86767	17423
0.86833	17397
0.86900	17371
0.86967	17346
0.87033	17320
0.87100	17294
0.87167	17268
0.87233	17243
0.87300	17217
0.87367	17192
0.87433	17167
0.87500	17142
0.87567	17117
0.87633	17092
0.87700	17067
0.87767	17042
0.87833	17017
0.87900	16993
0.87967	16968
0.88033	16944
0.88100	16920
0.88167	16896
0.88233	16872
0.88300	16848
0.88367	16824
0.88433	16801
0.88500	16778
0.88567	16754
0.88633	16731
0.88700	16708
0.88767	16685
0.88833	16662
0.88900	16640
0.88967	16617
0.89033	16594
0.89100	16572
0.89167	16550
0.89233	16528
0.89300	16506
0.89367	16484
0.89433	16462
0.89500	16440
0.89567	16419
0.89633	16397
0.89700	16376
0.89767	16355
0.89833	16333
0.89900	16312
0.89967	16291
0.90033	16271
0.90100	16250
0.90167	16229
0.90233	16209
0.90300	16188
0.90367	16168
0.90433	16147
0.90500	16127
0.90567	16107
0.90633	16087
0.90700	16067
0.90767	16047
0.90833	16027
0.90900	16008
0.90967	15988
0.91033	15968
0.91100	15949
0.91167	15930
0.91233	15910
0.91300	15891
0.91367	15872
0.91433	15853
0.91500	15834
0.91567	15815
0.91633	15796
0.91700	15777
0.91767	15759
0.91833	15740
0.91900	15722
0.91967	15703
0.92033	15685
0.92100	15666
0.92167	15648
0.92233	15630
0.92300	15612
0.92367	15594
0.92433	15576
0.92500	15559
0.92567	15541
0.92633	15523
0.92700	15506
0.92767	15488
0.92833	15471
0.92900	15454
0.92967	15437
0.93033	15420
0.93100	15403
0.93167	15386
0.93233	15369
0.93300	15352
0.93367	15336
0.93433	15319
0.93500	15303
0.93567	15286
0.93633	15270
0.93700	15254
0.93767	15237
0.93833	15221
0.93900	15205
0.93967	15189
0.94033	15173
0.94100	15157
0.94167	15141
0.94233	15125
0.94300	15109
0.94367	15093
0.94433	15077
0.94500	15061
0.94567	15046
0.94633	15030
0.94700	15014
0.94767	14998
0.94833	14982
0.94900	14967
0.94967	14951
0.95033	14935
0.95100	14920
0.95167	14904
0.95233	14888
0.95300	14873
0.95367	14857
0.95433	14841
0.95500	14826
0.95567	14811
0.95633	14795
0.95700	14780
0.95767	14765
0.95833	14750
0.95900	14735
0.95967	14720
0.96033	14706
0.96100	14691
0.96167	14677
0.96233	14662
0.96300	14648
0.96367	14634
0.96433	14620
0.96500	14606
0.96567	14592
0.96633	14578
0.96700	14565
0.96767	14551
0.96833	14538
0.96900	14524
0.96967	14511
0.97033	14498
0.97100	14484
0.97167	14471
0.97233	14458
0.97300	14445
0.97367	14431
0.97433	14418
0.97500	14405
0.97567	14392
0.97633	14378
0.97700	14365
0.97767	14351
0.97833	14338
0.97900	14324
0.97967	14311
0.98033	14297
0.98100	14283
0.98167	14270
0.98233	14256
0.98300	14242
0.98367	14228
0.98433	14215
0.98500	14201
0.98567	14187
0.98633	14173
0.98700	14159
0.98767	14145
0.98833	14131
0.98900	14117
0.98967	14103
0.99033	14089
0.99100	14075
0.99167	14061
0.99233	14047
0.99300	14033
0.99367	14019
0.99433	14004
0.99500	13990
0.99567	13976
0.99633	13962
0.99700	13948
0.99767	13933
0.99833	13919
0.99900	13905
0.99967	13891
1.00033	13876
1.00100	13862
1.00167	13848
1.00233	13834
1.00300	13820
1.00367	13806
1.00433	13793
1.00500	13779
1.00567	13765
1.00633	13752
1.00700	13738
1.00767	13725
1.00833	13712
1.00900	13699
1.00967	13686
1.01033	13673
1.01100	13660
1.01167	13648
1.01233	13636
1.01300	13623
1.01367	13611
1.01433	13600
1.01500	13588
1.01567	13577
1.01633	13566
1.01700	13555
1.01767	13544
1.01833	13534
1.01900	13524
1.01967	13514
1.02033	13504
1.02100	13495
1.02167	13486
1.02233	13477
1.02300	13469
1.02367	13461
1.02433	13453
1.02500	13445
1.02567	13437
1.02633	13430
1.02700	13423
1.02767	13416
1.02833	13409
1.02900	13402
1.02967	13396
1.03033	13389
1.03100	13383
1.03167	13376
1.03233	13370
1.03300	13363
1.03367	13357
1.03433	13350
1.03500	13344
1.03567	13337
1.03633	13331
1.03700	13324
1.03767	13317
1.03833	13310
1.03900	13303
1.03967	13296
1.04033	13288
1.04100	13281
1.04167	13273
1.04233	13265
1.04300	13257
1.04367	13249
1.04433	13240
1.04500	13232
1.04567	13223
1.04633	13215
1.04700	13206
1.04767	13197
1.04833	13187
1.04900	13178
1.04967	13169
1.05033	13159
1.05100	13149
1.05167	13139
1.05233	13129
1.05300	13119
1.05367	13109
1.05433	13098
1.05500	13087
1.05567	13077
1.05633	13066
1.05700	13055
1.05767	13044
1.05833	13033
1.05900	13022
1.05967	13011
1.06033	12999
1.06100	12988
1.06167	12977
1.06233	12965
1.06300	12954
1.06367	12942
1.06433	12930
1.06500	12919
1.06567	12907
1.06633	12895
1.06700	12883
1.06767	12872
1.06833	12860
1.06900	12848
1.06967	12836
1.07033	12824
1.07100	12812
1.07167	12801
1.07233	12789
1.07300	12777
1.07367	12765
1.07433	12753
1.07500	12741
1.07567	12730
1.07633	12718
1.07700	12706
1.07767	12694
1.07833	12683
1.07900	12671
1.07967	12660
1.08033	12648
1.08100	12636
1.08167	12625
1.08233	12613
1.08300	12602
1.08367	12590
1.08433	12579
1.08500	12568
1.08567	12556
1.08633	12545
1.08700	12534
1.08767	12522
1.08833	12511
1.08900	12500
1.08967	12489
1.09033	12477
1.09100	12466
1.09167	12455
1.09233	12444
1.09300	12433
1.09367	12422
1.09433	12411
1.09500	12400
1.09567	12390
1.09633	12379
1.09700	12368
1.09767	12357
1.09833	12346
1.09900	12335
1.09967	12325
1.10033	12314
1.10100	12303
1.10167	12293
1.10233	12282
1.10300	12272
1.10367	12261
1.10433	12250
1.10500	12240
1.10567	12229
1.10633	12219
1.10700	12208
1.10767	12198
1.10833	12188
1.10900	12177
1.10967	12167
1.11033	12157
1.11100	12147
1.11167	12137
1.11233	12127
1.11300	12117
1.11367	12107
1.11433	12097
1.11500	12087
1.11567	12077
1.11633	12068
1.11700	12058
1.11767	12049
1.11833	12039
1.11900	12030
1.11967	12021
1.12033	12012
1.12100	12003
1.12167	11994
1.12233	11986
1.12300	11977
1.12367	11969
1.12433	11961
1.12500	11953
1.12567	11945
1.12633	11938
1.12700	11931
1.12767	11924
1.12833	11917
1.12900	11911
1.12967	11905
1.13033	11899
1.13100	11894
1.13167	11890
1.13233	11885
1.13300	11882
1.13367	11878
1.13433	11875
1.13500	11873
1.13567	11871
1.13633	11869
1.13700	11868
1.13767	11867
1.13833	11867
1.13900	11867
1.13967	11867
1.14033	11867
1.14100	11868
1.14167	11869
1.14233	11870
1.14300	11870
1.14367	11871
1.14433	11872
1.14500	11873
1.14567	11874
1.14633	11875
1.14700	11875
1.14767	11875
1.14833	11876
1.14900	11875
1.14967	11875
1.15033	11874
1.15100	11873
1.15167	11872
1.15233	11870
1.15300	11868
1.15367	11866
1.15433	11863
1.15500	11860
1.15567	11857
1.15633	11853
1.15700	11849
1.15767	11845
1.15833	11840
1.15900	11835
1.15967	11830
1.16033	11824
1.16100	11819
1.16167	11812
1.16233	11806
1.16300	11799
1.16367	11792
1.16433	11785
1.16500	11778
1.16567	11770
1.16633	11762
1.16700	11754
1.16767	11746
1.16833	11738
1.16900	11729
1.16967	11720
1.17033	11712
1.17100	11703
1.17167	11694
1.17233	11685
1.17300	11675
1.17367	11666
1.17433	11656
1.17500	11647
1.17567	11637
1.17633	11627
1.17700	11618
1.17767	11608
1.17833	11598
1.17900	11588
1.17967	11578
1.18033	11569
1.18100	11559
1.18167	11549
1.18233	11539
1.18300	11530
1.18367	11520
1.18433	11510
1.18500	11501
1.18567	11491
1.18633	11481
1.18700	11472
1.18767	11462
1.18833	11453
1.18900	11443
1.18967	11434
1.19033	11424
1.19100	11415
1.19167	11406
1.19233	11397
1.19300	11388
1.19367	11379
1.19433	11370
1.19500	11361
1.19567	11352
1.19633	11344
1.19700	11335
1.19767	11327
1.19833	11319
1.19900	11311
1.19967	11302
1.20033	11294
1.20100	11287
1.20167	11279
1.20233	11271
1.20300	11263
1.20367	11256
1.20433	11248
1.20500	11241
1.20567	11234
1.20633	11227
1.20700	11220
1.20767	11213
1.20833	11207
1.20900	11200
1.20967	11194
1.21033	11187
1.21100	11181
1.21167	11175
1.21233	11169
1.21300	11163
1.21367	11158
1.21433	11152
1.21500	11147
1.21567	11142
1.21633	11136
1.21700	11131
1.21767	11126
1.21833	11122
1.21900	11117
1.21967	11112
1.22033	11107
1.22100	11103
1.22167	11098
1.22233	11093
1.22300	11089
1.22367	11084
1.22433	11080
1.22500	11076
1.22567	11071
1.22633	11067
1.22700	11063
1.22767	11059
1.22833	11055
1.22900	11051
1.22967	11047
1.23033	11043
1.23100	11039
1.23167	11034
1.23233	11030
1.23300	11026
1.23367	11022
1.23433	11018
1.23500	11014
1.23567	11010
1.23633	11006
1.23700	11002
1.23767	10998
1.23833	10994
1.23900	10991
1.23967	10987
1.24033	10983
1.24100	10979
1.24167	10975
1.24233	10971
1.24300	10967
1.24367	10963
1.24433	10960
1.24500	10956
1.24567	10952
1.24633	10948
1.24700	10945
1.24767	10941
1.24833	10938
1.24900	10934
1.24967	10931
1.25033	10927
1.25100	10924
1.25167	10920
1.25233	10917
1.25300	10914
1.25367	10911
1.25433	10908
1.25500	10905
1.25567	10902
1.25633	10899
1.25700	10896
1.25767	10893
1.25833	10890
1.25900	10887
1.25967	10885
1.26033	10882
1.26100	10880
1.26167	10877
1.26233	10875
1.26300	10873
1.26367	10870
1.26433	10868
1.26500	10867
1.26567	10865
1.26633	10863
1.26700	10862
1.26767	10860
1.26833	10859
1.26900	10858
1.26967	10857
1.27033	10857
1.27100	10856
1.27167	10856
1.27233	10856
1.27300	10857
1.27367	10857
1.27433	10858
1.27500	10859
1.27567	10860
1.27633	10862
1.27700	10864
1.27767	10866
1.27833	10869
1.27900	10871
1.27967	10874
1.28033	10878
1.28100	10881
1.28167	10885
1.28233	10889
1.28300	10894
1.28367	10898
1.28433	10903
1.28500	10907
1.28567	10912
1.28633	10917
1.28700	10922
1.28767	10927
1.28833	10932
1.28900	10937
1.28967	10941
1.29033	10946
1.29100	10951
1.29167	10955
1.29233	10959
1.29300	10963
1.29367	10966
1.29433	10970
1.29500	10973
1.29567	10976
1.29633	10978
1.29700	10980
1.29767	10982
1.29833	10984
1.29900	10985
1.29967	10986
1.30033	10986
1.30100	10986
1.30167	10986
1.30233	10986
1.30300	10985
1.30367	10984
1.30433	10982
1.30500	10981
1.30567	10979
1.30633	10976
1.30700	10974
1.30767	10971
1.30833	10967
1.30900	10964
1.30967	10960
1.31033	10956
1.31100	10952
1.31167	10947
1.31233	10942
1.31300	10937
1.31367	10932
1.31433	10926
1.31500	10920
1.31567	10914
1.31633	10908
1.31700	10902
1.31767	10895
1.31833	10889
1.31900	10882
1.31967	10875
1.32033	10868
1.32100	10861
1.32167	10853
1.32233	10846
1.32300	10838
1.32367	10830
1.32433	10822
1.32500	10814
1.32567	10806
1.32633	10798
1.32700	10789
1.32767	10781
1.32833	10772
1.32900	10764
1.32967	10755
1.33033	10746
1.33100	10737
1.33167	10728
1.33233	10719
1.33300	10710
1.33367	10701
1.33433	10692
1.33500	10683
1.33567	10673
1.33633	10664
1.33700	10655
1.33767	10645
1.33833	10636
1.33900	10626
1.33967	10617
1.34033	10608
1.34100	10598
1.34167	10589
1.34233	10579
1.34300	10570
1.34367	10561
1.34433	10551
1.34500	10542
1.34567	10533
1.34633	10523
1.34700	10514
1.34767	10505
1.34833	10496
1.34900	10487
1.34967	10477
1.35033	10468
1.35100	10459
1.35167	10450
1.35233	10441
1.35300	10432
1.35367	10423
1.35433	10414
1.35500	10405
1.35567	10396
1.35633	10387
1.35700	10378
1.35767	10370
1.35833	10361
1.35900	10352
1.35967	10344
1.36033	10335
1.36100	10326
1.36167	10318
1.36233	10310
1.36300	10301
1.36367	10293
1.36433	10285
1.36500	10276
1.36567	10268
1.36633	10260
1.36700	10253
1.36767	10245
1.36833	10237
1.36900	10229
1.36967	10222
1.37033	10214
1.37100	10207
1.37167	10199
1.37233	10192
1.37300	10185
1.37367	10178
1.37433	10171
1.37500	10164
1.37567	10157
1.37633	10150
1.37700	10143
1.37767	10136
1.37833	10129
1.37900	10123
1.37967	10116
1.38033	10110
1.38100	10103
1.38167	10097
1.38233	10091
1.38300	10084
1.38367	10078
1.38433	10072
1.38500	10066
1.38567	10059
1.38633	10053
1.38700	10047
1.38767	10041
1.38833	10035
1.38900	10029
1.38967	10024
1.39033	10018
1.39100	10012
1.39167	10006
1.39233	10001
1.39300	9995
1.39367	9989
1.39433	9984
1.39500	9978
1.39567	9972
1.39633	9967
1.39700	9961
1.39767	9956
1.39833	9950
1.39900	9945
1.39967	9939
1.40033	9934
1.40100	9929
1.40167	9923
1.40233	9918
1.40300	9913
1.40367	9907
1.40433	9902
1.40500	9897
1.40567	9891
1.40633	9886
1.40700	9881
1.40767	9875
1.40833	9870
1.40900	9864
1.40967	9859
1.41033	9854
1.41100	9849
1.41167	9843
1.41233	9838
1.41300	9833
1.41367	9828
1.41433	9822
1.41500	9817
1.41567	9812
1.41633	9807
1.41700	9802
1.41767	9796
1.41833	9791
1.41900	9786
1.41967	9781
1.42033	9776
1.42100	9771
1.42167	9766
1.42233	9761
1.42300	9756
1.42367	9751
1.42433	9746
1.42500	9741
1.42567	9736
1.42633	9732
1.42700	9727
1.42767	9722
1.42833	9717
1.42900	9713
1.42967	9708
1.43033	9703
1.43100	9699
1.43167	9694
1.43233	9690
1.43300	9685
1.43367	9681
1.43433	9677
1.43500	9672
1.43567	9668
1.43633	9664
1.43700	9660
1.43767	9656
1.43833	9652
1.43900	9648
1.43967	9644
1.44033	9640
1.44100	9636
1.44167	9633
1.44233	9629
1.44300	9625
1.44367	9621
1.44433	9617
1.44500	9614
1.44567	9610
1.44633	9606
1.44700	9603
1.44767	9599
1.44833	9595
1.44900	9592
1.44967	9588
1.45033	9585
1.45100	9581
1.45167	9577
1.45233	9574
1.45300	9570
1.45367	9567
1.45433	9563
1.45500	9560
1.45567	9556
1.45633	9553
1.45700	9549
1.45767	9546
1.45833	9542
1.45900	9539
1.45967	9535
1.46033	9532
1.46100	9529
1.46167	9525
1.46233	9522
1.46300	9518
1.46367	9515
1.46433	9512
1.46500	9508
1.46567	9505
1.46633	9502
1.46700	9499
1.46767	9495
1.46833	9492
1.46900	9489
1.46967	9485
1.47033	9482
1.47100	9479
1.47167	9476
1.47233	9472
1.47300	9469
1.47367	9466
1.47433	9462
1.47500	9459
1.47567	9456
1.47633	9453
1.47700	9449
1.47767	9446
1.47833	9443
1.47900	9439
1.47967	9436
1.48033	9433
1.48100	9429
1.48167	9426
1.48233	9422
1.48300	9419
1.48367	9416
1.48433	9412
1.48500	9409
1.48567	9405
1.48633	9402
1.48700	9398
1.48767	9394
1.48833	9391
1.48900	9387
1.48967	9383
1.49033	9380
1.49100	9376
1.49167	9372
1.49233	9368
1.49300	9364
1.49367	9360
1.49433	9356
1.49500	9353
1.49567	9349
1.49633	9345
1.49700	9341
1.49767	9337
1.49833	9333
1.49900	9329
1.49967	9325
1.50033	9321
1.50100	9317
1.50167	9313
1.50233	9309
1.50300	9305
1.50367	9301
1.50433	9297
1.50500	9293
1.50567	9288
1.50633	9284
1.50700	9280
1.50767	9276
1.50833	9272
1.50900	9268
1.50967	9264
1.51033	9260
1.51100	9256
1.51167	9252
1.51233	9247
1.51300	9243
1.51367	9239
1.51433	9235
1.51500	9231
1.51567	9227
1.51633	9223
1.51700	9220
1.51767	9216
1.51833	9212
1.51900	9208
1.51967	9204
1.52033	9199
1.52100	9195
1.52167	9191
1.52233	9187
1.52300	9183
1.52367	9179
1.52433	9176
1.52500	9172
1.52567	9168
1.52633	9164
1.52700	9160
1.52767	9156
1.52833	9152
1.52900	9148
1.52967	9144
1.53033	9140
1.53100	9137
1.53167	9133
1.53233	9129
1.53300	9125
1.53367	9121
1.53433	9118
1.53500	9114
1.53567	9110
1.53633	9107
1.53700	9103
1.53767	9099
1.53833	9096
1.53900	9092
1.53967	9088
1.54033	9085
1.54100	9081
1.54167	9077
1.54233	9074
1.54300	9070
1.54367	9066
1.54433	9063
1.54500	9059
1.54567	9056
1.54633	9052
1.54700	9049
1.54767	9046
1.54833	9042
1.54900	9039
1.54967	9036
1.55033	9033
1.55100	9029
1.55167	9026
1.55233	9023
1.55300	9020
1.55367	9016
1.55433	9013
1.55500	9010
1.55567	9007
1.55633	9004
1.55700	9001
1.55767	8998
1.55833	8995
1.55900	8992
1.55967	8989
1.56033	8986
1.56100	8983
1.56167	8980
1.56233	8977
1.56300	8974
1.56367	8970
1.56433	8967
1.56500	8964
1.56567	8961
1.56633	8958
1.56700	8955
1.56767	8952
1.56833	8948
1.56900	8945
1.56967	8942
1.57033	8939
1.57100	8936
1.57167	8933
1.57233	8930
1.57300	8926
1.57367	8923
1.57433	8920
1.57500	8917
1.57567	8914
1.57633	8911
1.57700	8908
1.57767	8905
1.57833	8902
1.57900	8899
1.57967	8896
1.58033	8893
1.58100	8890
1.58167	8887
1.58233	8884
1.58300	8881
1.58367	8878
1.58433	8875
1.58500	8872
1.58567	8869
1.58633	8866
1.58700	8864
1.58767	8861
1.58833	8858
1.58900	8855
1.58967	8853
1.59033	8850
1.59100	8847
1.59167	8845
1.59233	8842
1.59300	8839
1.59367	8837
1.59433	8834
1.59500	8831
1.59567	8829
1.59633	8826
1.59700	8824
1.59767	8821
1.59833	8818
1.59900	8816
1.59967	8813
1.60033	8810
1.60100	8808
1.60167	8805
1.60233	8803
1.60300	8800
1.60367	8798
1.60433	8795
1.60500	8792
1.60567	8790
1.60633	8787
1.60700	8784
1.60767	8782
1.60833	8779
1.60900	8776
1.60967	8774
1.61033	8771
1.61100	8768
1.61167	8766
1.61233	8763
1.61300	8760
1.61367	8757
1.61433	8755
1.61500	8752
1.61567	8749
1.61633	8747
1.61700	8744
1.61767	8741
1.61833	8738
1.61900	8736
1.61967	8733
1.62033	8730
1.62100	8727
1.62167	8725
1.62233	8722
1.62300	8719
1.62367	8716
1.62433	8713
1.62500	8711
1.62567	8708
1.62633	8705
1.62700	8702
1.62767	8700
1.62833	8697
1.62900	8694
1.62967	8692
1.63033	8689
1.63100	8686
1.63167	8684
1.63233	8681
1.63300	8679
1.63367	8677
1.63433	8674
1.63500	8672
1.63567	8670
1.63633	8667
1.63700	8665
1.63767	8663
1.63833	8661
1.63900	8659
1.63967	8657
1.64033	8655
1.64100	8653
1.64167	8651
1.64233	8649
1.64300	8647
1.64367	8645
1.64433	8643
1.64500	8641
1.64567	8639
1.64633	8638
1.64700	8636
1.64767	8634
1.64833	8632
1.64900	8630
1.64967	8628
1.65033	8627
1.65100	8625
1.65167	8623
1.65233	8621
1.65300	8619
1.65367	8617
1.65433	8615
1.65500	8613
1.65567	8611
1.65633	8609
1.65700	8607
1.65767	8605
1.65833	8603
1.65900	8600
1.65967	8598
1.66033	8596
1.66100	8594
1.66167	8591
1.66233	8589
1.66300	8587
1.66367	8584
1.66433	8582
1.66500	8579
1.66567	8577
1.66633	8575
1.66700	8572
1.66767	8570
1.66833	8567
1.66900	8565
1.66967	8563
1.67033	8560
1.67100	8558
1.67167	8556
1.67233	8553
1.67300	8551
1.67367	8549
1.67433	8546
1.67500	8544
1.67567	8542
1.67633	8539
1.67700	8537
1.67767	8535
1.67833	8532
1.67900	8530
1.67967	8527
1.68033	8525
1.68100	8522
1.68167	8520
1.68233	8518
1.68300	8515
1.68367	8512
1.68433	8510
1.68500	8507
1.68567	8505
1.68633	8502
1.68700	8499
1.68767	8497
1.68833	8494
1.68900	8491
1.68967	8488
1.69033	8485
1.69100	8482
1.69167	8479
1.69233	8476
1.69300	8473
1.69367	8470
1.69433	8466
1.69500	8463
1.69567	8460
1.69633	8457
1.69700	8453
1.69767	8450
1.69833	8447
1.69900	8444
1.69967	8440
1.70033	8437
1.70100	8434
1.70167	8431
1.70233	8428
1.70300	8424
1.70367	8421
1.70433	8418
1.70500	8415
1.70567	8412
1.70633	8409
1.70700	8406
1.70767	8403
1.70833	8400
1.70900	8397
1.70967	8394
1.71033	8392
1.71100	8389
1.71167	8386
1.71233	8384
1.71300	8381
1.71367	8379
1.71433	8377
1.71500	8375
1.71567	8373
1.71633	8372
1.71700	8371
1.71767	8370
1.71833	8370
1.71900	8371
1.71967	8372
1.72033	8375
1.72100	8379
1.72167	8384
1.72233	8391
1.72300	8401
1.72367	8413
1.72433	8429
1.72500	8449
1.72567	8473
1.72633	8504
1.72700	8542
1.72767	8588
1.72833	8644
1.72900	8711
1.72967	8793
1.73033	8891
1.73100	9008
1.73167	9147
1.73233	9312
1.73300	9506
1.73367	9734
1.73433	10000
1.73500	10309
1.73567	10667
1.73633	11080
1.73700	11554
1.73767	12097
1.73833	12717
1.73900	13421
1.73967	14219
1.74033	15120
1.74100	16132
1.74167	17267
1.74233	18534
1.74300	19942
1.74367	21504
1.74433	23227
1.74500	25124
1.74567	27204
1.74633	29480
1.74700	31963
1.74767	34664
1.74833	37594
1.74900	40759
1.74967	44164
1.75033	47815
1.75100	51714
1.75167	55866
1.75233	60273
1.75300	64936
1.75367	69858
1.75433	75038
1.75500	80474
1.75567	86163
1.75633	92096
1.75700	98265
1.75767	104661
1.75833	111272
1.75900	118083
1.75967	125078
1.76033	132234
1.76100	139525
1.76167	146929
1.76233	154420
1.76300	161971
1.76367	169556
1.76433	177141
1.76500	184698
1.76567	192195
1.76633	199599
1.76700	206880
1.76767	214009
1.76833	220959
1.76900	227702
1.76967	234213
1.77033	240466
1.77100	246438
1.77167	252108
1.77233	257457
1.77300	262468
1.77367	267127
1.77433	271423
1.77500	275346
1.77567	278891
1.77633	282054
1.77700	284834
1.77767	287231
1.77833	289249
1.77900	290892
1.77967	292170
1.78033	293089
1.78100	293662
1.78167	293899
1.78233	293814
1.78300	293419
1.78367	292730
1.78433	291759
1.78500	290523
1.78567	289037
1.78633	287315
1.78700	285371
1.78767	283222
1.78833	280880
1.78900	278361
1.78967	275677
1.79033	272842
1.79100	269870
1.79167	266771
1.79233	263559
1.79300	260244
1.79367	256838
1.79433	253350
1.79500	249791
1.79567	246169
1.79633	242494
1.79700	238774
1.79767	235017
1.79833	231229
1.79900	227419
1.79967	223592
1.80033	219754
1.80100	215912
1.80167	212070
1.80233	208233
1.80300	204407
1.80367	200594
1.80433	196800
1.80500	193028
1.80567	189280
1.80633	185561
1.80700	181872
1.80767	178218
1.80833	174599
1.80900	171018
1.80967	167478
1.81033	163980
1.81100	160525
1.81167	157115
1.81233	153751
1.81300	150435
1.81367	147167
1.81433	143949
1.81500	140780
1.81567	137662
1.81633	134595
1.81700	131579
1.81767	128615
1.81833	125704
1.81900	122844
1.81967	120036
1.82033	117281
1.82100	114577
1.82167	111926
1.82233	109327
1.82300	106779
1.82367	104282
1.82433	101836
1.82500	99441
1.82567	97096
1.82633	94801
1.82700	92555
1.82767	90357
1.82833	88208
1.82900	86106
1.82967	84052
1.83033	82043
1.83100	80081
1.83167	78163
1.83233	76290
1.83300	74461
1.83367	72674
1.83433	70930
1.83500	69228
1.83567	67567
1.83633	65946
1.83700	64364
1.83767	62822
1.83833	61317
1.83900	59850
1.83967	58419
1.84033	57025
1.84100	55665
1.84167	54340
1.84233	53050
1.84300	51792
1.84367	50567
1.84433	49373
1.84500	48211
1.84567	47079
1.84633	45977
1.84700	44903
1.84767	43858
1.84833	42841
1.84900	41852
1.84967	40888
1.85033	39951
1.85100	39038
1.85167	38151
1.85233	37287
1.85300	36447
1.85367	35630
1.85433	34836
1.85500	34063
1.85567	33311
1.85633	32580
1.85700	31870
1.85767	31179
1.85833	30508
1.85900	29855
1.85967	29221
1.86033	28605
1.86100	28005
1.86167	27423
1.86233	26857
1.86300	26307
1.86367	25773
1.86433	25254
1.86500	24750
1.86567	24260
1.86633	23784
1.86700	23321
1.86767	22872
1.86833	22436
1.86900	22012
1.86967	21600
1.87033	21200
1.87100	20811
1.87167	20433
1.87233	20067
1.87300	19711
1.87367	19365
1.87433	19029
1.87500	18702
1.87567	18385
1.87633	18078
1.87700	17779
1.87767	17489
1.87833	17207
1.87900	16933
1.87967	16668
1.88033	16410
1.88100	16159
1.88167	15916
1.88233	15680
1.88300	15451
1.88367	15228
1.88433	15012
1.88500	14802
1.88567	14598
1.88633	14401
1.88700	14209
1.88767	14022
1.88833	13842
1.88900	13666
1.88967	13496
1.89033	13330
1.89100	13170
1.89167	13014
1.89233	12863
1.89300	12716
1.89367	12574
1.89433	12436
1.89500	12302
1.89567	12171
1.89633	12045
1.89700	11922
1.89767	11803
1.89833	11687
1.89900	11575
1.89967	11466
1.90033	11360
1.90100	11257
1.90167	11158
1.90233	11061
1.90300	10967
1.90367	10875
1.90433	10786
1.90500	10700
1.90567	10616
1.90633	10535
1.90700	10456
1.90767	10379
1.90833	10305
1.90900	10232
1.90967	10162
1.91033	10093
1.91100	10026
1.91167	9962
1.91233	9899
1.91300	9838
1.91367	9778
1.91433	9720
1.91500	9664
1.91567	9609
1.91633	9556
1.91700	9504
1.91767	9453
1.91833	9404
1.91900	9356
1.91967	9309
1.92033	9263
1.92100	9219
1.92167	9175
1.92233	9133
1.92300	9092
1.92367	9051
1.92433	9012
1.92500	8974
1.92567	8936
1.92633	8900
1.92700	8864
1.92767	8829
1.92833	8795
1.92900	8762
1.92967	8729
1.93033	8698
1.93100	8667
1.93167	8636
1.93233	8607
1.93300	8578
1.93367	8549
1.93433	8522
1.93500	8494
1.93567	8468
1.93633	8442
1.93700	8417
1.93767	8392
1.93833	8368
1.93900	8345
1.93967	8322
1.94033	8299
1.94100	8277
1.94167	8256
1.94233	8235
1.94300	8214
1.94367	8194
1.94433	8175
1.94500	8156
1.94567	8137
1.94633	8119
1.94700	8101
1.94767	8084
1.94833	8067
1.94900	8051
1.94967	8035
1.95033	8019
1.95100	8003
1.95167	7988
1.95233	7974
1.95300	7959
1.95367	7945
1.95433	7931
1.95500	7917
1.95567	7904
1.95633	7891
1.95700	7878
1.95767	7865
1.95833	7853
1.95900	7841
1.95967	7829
1.96033	7817
1.96100	7806
1.96167	7794
1.96233	7783
1.96300	7772
1.96367	7762
1.96433	7751
1.96500	7741
1.96567	7731
1.96633	7721
1.96700	7711
1.96767	7701
1.96833	7691
1.96900	7682
1.96967	7673
1.97033	7664
1.97100	7655
1.97167	7646
1.97233	7637
1.97300	7629
1.97367	7620
1.97433	7612
1.97500	7604
1.97567	7596
1.97633	7588
1.97700	7580
1.97767	7572
1.97833	7565
1.97900	7557
1.97967	7550
1.98033	7543
1.98100	7535
1.98167	7528
1.98233	7522
1.98300	7515
1.98367	7508
1.98433	7501
1.98500	7494
1.98567	7488
1.98633	7481
1.98700	7475
1.98767	7468
1.98833	7462
1.98900	7456
1.98967	7449
1.99033	7443
1.99100	7437
1.99167	7431
1.99233	7425
1.99300	7419
1.99367	7413
1.99433	7407
1.99500	7401
1.99567	7395
1.99633	7390
1.99700	7384
1.99767	7378
1.99833	7373
1.99900	7367
1.99967	7361
2.00033	7356
2.00100	7350
2.00167	7345
2.00233	7339
2.00300	7334
2.00367	7328
2.00433	7323
2.00500	7318
2.00567	7312
2.00633	7307
2.00700	7302
2.00767	7297
2.00833	7292
2.00900	7287
2.00967	7282
2.01033	7276
2.01100	7271
2.01167	7266
2.01233	7261
2.01300	7256
2.01367	7251
2.01433	7246
2.01500	7241
2.01567	7236
2.01633	7231
2.01700	7226
2.01767	7221
2.01833	7216
2.01900	7211
2.01967	7206
2.02033	7201
2.02100	7196
2.02167	7191
2.02233	7187
2.02300	7182
2.02367	7177
2.02433	7173
2.02500	7168
2.02567	7163
2.02633	7159
2.02700	7154
2.02767	7149
2.02833	7145
2.02900	7140
2.02967	7136
2.03033	7131
2.03100	7127
2.03167	7123
2.03233	7118
2.03300	7114
2.03367	7110
2.03433	7106
2.03500	7102
2.03567	7097
2.03633	7093
2.03700	7089
2.03767	7085
2.03833	7081
2.03900	7077
2.03967	7073
2.04033	7069
2.04100	7065
2.04167	7061
2.04233	7057
2.04300	7053
2.04367	7050
2.04433	7046
2.04500	7042
2.04567	7038
2.04633	7034
2.04700	7030
2.04767	7026
2.04833	7022
2.04900	7018
2.04967	7015
2.05033	7011
2.05100	7007
2.05167	7003
2.05233	7000
2.05300	6996
2.05367	6992
2.05433	6988
2.05500	6985
2.05567	6981
2.05633	6977
2.05700	6974
2.05767	6970
2.05833	6966
2.05900	6963
2.05967	6959
2.06033	6956
2.06100	6952
2.06167	6949
2.06233	6945
2.06300	6942
2.06367	6938
2.06433	6935
2.06500	6931
2.06567	6927
2.06633	6924
2.06700	6920
2.06767	6917
2.06833	6913
2.06900	6910
2.06967	6906
2.07033	6903
2.07100	6899
2.07167	6896
2.07233	6892
2.07300	6889
2.07367	6885
2.07433	6882
2.07500	6878
2.07567	6875
2.07633	6871
2.07700	6868
2.07767	6864
2.07833	6861
2.07900	6857
2.07967	6854
2.08033	6850
2.08100	6847
2.08167	6843
2.08233	6840
2.08300	6836
2.08367	6833
2.08433	6829
2.08500	6826
2.08567	6823
2.08633	6819
2.08700	6816
2.08767	6813
2.08833	6809
2.08900	6806
2.08967	6803
2.09033	6800
2.09100	6796
2.09167	6793
2.09233	6790
2.09300	6787
2.09367	6784
2.09433	6780
2.09500	6777
2.09567	6774
2.09633	6771
2.09700	6768
2.09767	6765
2.09833	6761
2.09900	6758
2.09967	6755
2.10033	6752
2.10100	6749
2.10167	6745
2.10233	6742
2.10300	6739
2.10367	6736
2.10433	6733
2.10500	6730
2.10567	6726
2.10633	6723
2.10700	6720
2.10767	6717
2.10833	6714
2.10900	6711
2.10967	6707
2.11033	6704
2.11100	6701
2.11167	6697
2.11233	6694
2.11300	6691
2.11367	6688
2.11433	6684
2.11500	6681
2.11567	6678
2.11633	6675
2.11700	6672
2.11767	6669
2.11833	6666
2.11900	6662
2.11967	6659
2.12033	6656
2.12100	6653
2.12167	6650
2.12233	6647
2.12300	6644
2.12367	6641
2.12433	6639
2.12500	6636
2.12567	6633
2.12633	6630
2.12700	6627
2.12767	6625
2.12833	6622
2.12900	6619
2.12967	6616
2.13033	6613
2.13100	6610
2.13167	6608
2.13233	6605
2.13300	6602
2.13367	6599
2.13433	6596
2.13500	6593
2.13567	6590
2.13633	6588
2.13700	6585
2.13767	6582
2.13833	6579
2.13900	6576
2.13967	6573
2.14033	6570
2.14100	6568
2.14167	6565
2.14233	6562
2.14300	6559
2.14367	6556
2.14433	6554
2.14500	6551
2.14567	6548
2.14633	6545
2.14700	6543
2.14767	6540
2.14833	6537
2.14900	6535
2.14967	6532
2.15033	6529
2.15100	6526
2.15167	6524
2.15233	6521
2.15300	6519
2.15367	6516
2.15433	6513
2.15500	6511
2.15567	6508
2.15633	6505
2.15700	6503
2.15767	6500
2.15833	6497
2.15900	6495
2.15967	6492
2.16033	6490
2.16100	6487
2.16167	6484
2.16233	6482
2.16300	6479
2.16367	6477
2.16433	6474
2.16500	6472
2.16567	6470
2.16633	6467
2.16700	6465
2.16767	6462
2.16833	6460
2.16900	6458
2.16967	6455
2.17033	6453
2.17100	6451
2.17167	6448
2.17233	6446
2.17300	6444
2.17367	6442
2.17433	6439
2.17500	6437
2.17567	6435
2.17633	6432
2.17700	6430
2.17767	6428
2.17833	6425
2.17900	6423
2.17967	6421
2.18033	6418
2.18100	6416
2.18167	6414
2.18233	6411
2.18300	6409
2.18367	6406
2.18433	6404
2.18500	6402
2.18567	6399
2.18633	6397
2.18700	6395
2.18767	6392
2.18833	6390
2.18900	6388
2.18967	6385
2.19033	6383
2.19100	6381
2.19167	6378
2.19233	6376
2.19300	6374
2.19367	6372
2.19433	6370
2.19500	6368
2.19567	6365
2.19633	6363
2.19700	6361
2.19767	6359
2.19833	6357
2.19900	6355
2.19967	6353
2.20033	6351
2.20100	6349
2.20167	6347
2.20233	6345
2.20300	6344
2.20367	6342
2.20433	6340
2.20500	6339
2.20567	6337
2.20633	6335
2.20700	6334
2.20767	6332
2.20833	6331
2.20900	6330
2.20967	6328
2.21033	6327
2.21100	6326
2.21167	6324
2.21233	6323
2.21300	6322
2.21367	6321
2.21433	6320
2.21500	6319
2.21567	6318
2.21633	6317
2.21700	6317
2.21767	6316
2.21833	6315
2.21900	6314
2.21967	6313
2.22033	6313
2.22100	6312
2.22167	6311
2.22233	6311
2.22300	6310
2.22367	6309
2.22433	6309
2.22500	6308
2.22567	6308
2.22633	6307
2.22700	6306
2.22767	6306
2.22833	6305
2.22900	6304
2.22967	6303
2.23033	6303
2.23100	6302
2.23167	6301
2.23233	6300
2.23300	6299
2.23367	6297
2.23433	6296
2.23500	6295
2.23567	6294
2.23633	6293
2.23700	6292
2.23767	6290
2.23833	6289
2.23900	6288
2.23967	6287
2.24033	6285
2.24100	6284
2.24167	6283
2.24233	6282
2.24300	6281
2.24367	6279
2.24433	6278
2.24500	6277
2.24567	6276
2.24633	6275
2.24700	6273
2.24767	6272
2.24833	6271
2.24900	6269
2.24967	6268
2.25033	6267
2.25100	6266
2.25167	6264
2.25233	6263
2.25300	6261
2.25367	6260
2.25433	6259
2.25500	6257
2.25567	6255
2.25633	6254
2.25700	6252
2.25767	6251
2.25833	6249
2.25900	6247
2.25967	6246
2.26033	6244
2.26100	6242
2.26167	6241
2.26233	6239
2.26300	6237
2.26367	6235
2.26433	6233
2.26500	6231
2.26567	6229
2.26633	6227
2.26700	6225
2.26767	6223
2.26833	6221
2.26900	6219
2.26967	6217
2.27033	6215
2.27100	6213
2.27167	6211
2.27233	6209
2.27300	6206
2.27367	6204
2.27433	6202
2.27500	6200
2.27567	6197
2.27633	6195
2.27700	6193
2.27767	6190
2.27833	6188
2.27900	6185
2.27967	6183
2.28033	6181
2.28100	6178
2.28167	6176
2.28233	6173
2.28300	6171
2.28367	6168
2.28433	6165
2.28500	6163
2.28567	6160
2.28633	6158
2.28700	6155
2.28767	6153
2.28833	6150
2.28900	6148
2.28967	6145
2.29033	6143
2.29100	6140
2.29167	6138
2.29233	6136
2.29300	6133
2.29367	6131
2.29433	6129
2.29500	6126
2.29567	6124
2.29633	6122
2.29700	6120
2.29767	6118
2.29833	6116
2.29900	6114
2.29967	6111
2.30033	6109
2.30100	6107
2.30167	6105
2.30233	6103
2.30300	6101
2.30367	6100
2.30433	6098
2.30500	6096
2.30567	6094
2.30633	6092
2.30700	6090
2.30767	6089
2.30833	6087
2.30900	6085
2.30967	6083
2.31033	6081
2.31100	6080
2.31167	6078
2.31233	6076
2.31300	6075
2.31367	6073
2.31433	6071
2.31500	6070
2.31567	6068
2.31633	6067
2.31700	6065
2.31767	6064
2.31833	6063
2.31900	6061
2.31967	6060
2.32033	6059
2.32100	6058
2.32167	6056
2.32233	6055
2.32300	6054
2.32367	6053
2.32433	6051
2.32500	6050
2.32567	6049
2.32633	6048
2.32700	6047
2.32767	6046
2.32833	6045
2.32900	6044
2.32967	6043
2.33033	6042
2.33100	6042
2.33167	6041
2.33233	6040
2.33300	6039
2.33367	6039
2.33433	6038
2.33500	6037
2.33567	6037
2.33633	6036
2.33700	6036
2.33767	6035
2.33833	6035
2.33900	6035
2.33967	6034
2.34033	6034
2.34100	6034
2.34167	6033
2.34233	6033
2.34300	6033
2.34367	6033
2.34433	6033
2.34500	6033
2.34567	6033
2.34633	6034
2.34700	6034
2.34767	6034
2.34833	6034
2.34900	6035
2.34967	6035
2.35033	6035
2.35100	6036
2.35167	6036
2.35233	6037
2.35300	6037
2.35367	6038
2.35433	6038
2.35500	6039
2.35567	6040
2.35633	6040
2.35700	6041
2.35767	6041
2.35833	6042
2.35900	6043
2.35967	6044
2.36033	6044
2.36100	6045
2.36167	6046
2.36233	6046
2.36300	6047
2.36367	6048
2.36433	6048
2.36500	6049
2.36567	6050
2.36633	6050
2.36700	6051
2.36767	6052
2.36833	6052
2.36900	6053
2.36967	6053
2.37033	6054
2.37100	6054
2.37167	6054
2.37233	6054
2.37300	6055
2.37367	6055
2.37433	6055
2.37500	6055
2.37567	6055
2.37633	6055
2.37700	6054
2.37767	6054
2.37833	6054
2.37900	6054
2.37967	6053
2.38033	6053
2.38100	6053
2.38167	6052
2.38233	6052
2.38300	6051
2.38367	6050
2.38433	6050
2.38500	6049
2.38567	6048
2.38633	6047
2.38700	6046
2.38767	6045
2.38833	6044
2.38900	6043
2.38967	6042
2.39033	6041
2.39100	6039
2.39167	6038
2.39233	6037
2.39300	6036
2.39367	6035
2.39433	6033
2.39500	6032
2.39567	6031
2.39633	6030
2.39700	6028
2.39767	6027
2.39833	6026
2.39900	6025
2.39967	6023
2.40033	6022
2.40100	6021
2.40167	6019
2.40233	6018
2.40300	6017
2.40367	6015
2.40433	6014
2.40500	6012
2.40567	6011
2.40633	6010
2.40700	6008
2.40767	6007
2.40833	6005
2.40900	6004
2.40967	6003
2.41033	6001
2.41100	6000
2.41167	5998
2.41233	5996
2.41300	5995
2.41367	5993
2.41433	5992
2.41500	5990
2.41567	5988
2.41633	5986
2.41700	5985
2.41767	5983
2.41833	5981
2.41900	5979
2.41967	5978
2.42033	5976
2.42100	5974
2.42167	5972
2.42233	5970
2.42300	5968
2.42367	5966
2.42433	5965
2.42500	5963
2.42567	5961
2.42633	5959
2.42700	5956
2.42767	5954
2.42833	5952
2.42900	5950
2.42967	5948
2.43033	5946
2.43100	5944
2.43167	5942
2.43233	5939
2.43300	5937
2.43367	5935
2.43433	5932
2.43500	5930
2.43567	5928
2.43633	5925
2.43700	5923
2.43767	5921
2.43833	5918
2.43900	5916
2.43967	5913
2.44033	5911
2.44100	5908
2.44167	5906
2.44233	5903
2.44300	5901
2.44367	5898
2.44433	5895
2.44500	5893
2.44567	5890
2.44633	5887
2.44700	5885
2.44767	5882
2.44833	5879
2.44900	5876
2.44967	5874
2.45033	5871
2.45100	5868
2.45167	5865
2.45233	5863
2.45300	5860
2.45367	5857
2.45433	5854
2.45500	5851
2.45567	5848
2.45633	5845
2.45700	5842
2.45767	5840
2.45833	5837
2.45900	5834
2.45967	5831
2.46033	5828
2.46100	5825
2.46167	5822
2.46233	5819
2.46300	5816
2.46367	5814
2.46433	5811
2.46500	5808
2.46567	5805
2.46633	5802
2.46700	5800
2.46767	5797
2.46833	5794
2.46900	5791
2.46967	5788
2.47033	5786
2.47100	5783
2.47167	5780
2.47233	5777
2.47300	5775
2.47367	5772
2.47433	5769
2.47500	5766
2.47567	5764
2.47633	5761
2.47700	5758
2.47767	5756
2.47833	5753
2.47900	5750
2.47967	5748
2.48033	5745
2.48100	5743
2.48167	5740
2.48233	5738
2.48300	5735
2.48367	5732
2.48433	5730
2.48500	5727
2.48567	5725
2.48633	5722
2.48700	5720
2.48767	5718
2.48833	5715
2.48900	5713
2.48967	5710
2.49033	5708
2.49100	5706
2.49167	5703
2.49233	5701
2.49300	5699
2.49367	5696
2.49433	5694
2.49500	5691
2.49567	5689
2.49633	5687
2.49700	5684
2.49767	5682
2.49833	5680
2.49900	5677
2.49967	5675
2.50033	5673
2.50100	5671
2.50167	5668
2.50233	5666
2.50300	5664
2.50367	5661
2.50433	5659
2.50500	5657
2.50567	5655
2.50633	5653
2.50700	5650
2.50767	5648
2.50833	5646
2.50900	5644
2.50967	5642
2.51033	5639
2.51100	5637
2.51167	5635
2.51233	5633
2.51300	5631
2.51367	5629
2.51433	5626
2.51500	5624
2.51567	5622
2.51633	5620
2.51700	5618
2.51767	5616
2.51833	5613
2.51900	5611
2.51967	5609
2.52033	5607
2.52100	5605
2.52167	5603
2.52233	5600
2.52300	5598
2.52367	5596
2.52433	5594
2.52500	5592
2.52567	5590
2.52633	5588
2.52700	5586
2.52767	5584
2.52833	5582
2.52900	5580
2.52967	5578
2.53033	5576
2.53100	5574
2.53167	5572
2.53233	5569
2.53300	5567
2.53367	5565
2.53433	5563
2.53500	5561
2.53567	5558
2.53633	5556
2.53700	5554
2.53767	5552
2.53833	5550
2.53900	5548
2.53967	5546
2.54033	5544
2.54100	5542
2.54167	5540
2.54233	5538
2.54300	5536
2.54367	5534
2.54433	5532
2.54500	5530
2.54567	5528
2.54633	5527
2.54700	5525
2.54767	5523
2.54833	5521
2.54900	5519
2.54967	5517
2.55033	5515
2.55100	5513
2.55167	5512
2.55233	5510
2.55300	5508
2.55367	5506
2.55433	5504
2.55500	5502
2.55567	5500
2.55633	5498
2.55700	5497
2.55767	5495
2.55833	5493
2.55900	5491
2.55967	5489
2.56033	5488
2.56100	5486
2.56167	5484
2.56233	5482
2.56300	5480
2.56367	5479
2.56433	5477
2.56500	5475
2.56567	5473
2.56633	5472
2.56700	5470
2.56767	5468
2.56833	5466
2.56900	5465
2.56967	5463
2.57033	5461
2.57100	5459
2.57167	5457
2.57233	5456
2.57300	5454
2.57367	5452
2.57433	5451
2.57500	5449
2.57567	5447
2.57633	5446
2.57700	5444
2.57767	5442
2.57833	5441
2.57900	5439
2.57967	5438
2.58033	5436
2.58100	5435
2.58167	5433
2.58233	5432
2.58300	5430
2.58367	5429
2.58433	5428
2.58500	5426
2.58567	5425
2.58633	5423
2.58700	5422
2.58767	5420
2.58833	5419
2.58900	5417
2.58967	5416
2.59033	5415
2.59100	5413
2.59167	5412
2.59233	5410
2.59300	5409
2.59367	5407
2.59433	5406
2.59500	5404
2.59567	5403
2.59633	5401
2.59700	5400
2.59767	5398
2.59833	5397
2.59900	5395
2.59967	5394
2.60033	5392
2.60100	5391
2.60167	5389
2.60233	5388
2.60300	5386
2.60367	5385
2.60433	5383
2.60500	5382
2.60567	5380
2.60633	5378
2.60700	5377
2.60767	5375
2.60833	5374
2.60900	5372
2.60967	5370
2.61033	5369
2.61100	5367
2.61167	5366
2.61233	5364
2.61300	5362
2.61367	5361
2.61433	5359
2.61500	5358
2.61567	5356
2.61633	5354
2.61700	5353
2.61767	5351
2.61833	5350
2.61900	5348
2.61967	5347
2.62033	5345
2.62100	5344
2.62167	5342
2.62233	5341
2.62300	5339
2.62367	5338
2.62433	5336
2.62500	5335
2.62567	5333
2.62633	5331
2.62700	5330
2.62767	5328
2.62833	5327
2.62900	5325
2.62967	5323
2.63033	5322
2.63100	5320
2.63167	5318
2.63233	5317
2.63300	5315
2.63367	5313
2.63433	5312
2.63500	5310
2.63567	5308
2.63633	5307
2.63700	5305
2.63767	5303
2.63833	5302
2.63900	5300
2.63967	5298
2.64033	5297
2.64100	5295
2.64167	5293
2.64233	5292
2.64300	5290
2.64367	5288
2.64433	5287
2.64500	5285
2.64567	5283
2.64633	5281
2.64700	5280
2.64767	5278
2.64833	5276
2.64900	5274
2.64967	5272
2.65033	5271
2.65100	5269
2.65167	5267
2.65233	5265
2.65300	5264
2.65367	5262
2.65433	5260
2.65500	5258
2.65567	5256
2.65633	5254
2.65700	5253
2.65767	5251
2.65833	5249
2.65900	5247
2.65967	5245
2.66033	5244
2.66100	5242
2.66167	5240
2.66233	5238
2.66300	5237
2.66367	5235
2.66433	5233
2.66500	5231
2.66567	5229
2.66633	5228
2.66700	5226
2.66767	5224
2.66833	5222
2.66900	5221
2.66967	5219
2.67033	5217
2.67100	5215
2.67167	5214
2.67233	5212
2.67300	5210
2.67367	5208
2.67433	5206
2.67500	5205
2.67567	5203
2.67633	5201
2.67700	5199
2.67767	5198
2.67833	5196
2.67900	5194
2.67967	5193
2.68033	5191
2.68100	5189
2.68167	5188
2.68233	5186
2.68300	5184
2.68367	5183
2.68433	5181
2.68500	5179
2.68567	5178
2.68633	5176
2.68700	5175
2.68767	5173
2.68833	5171
2.68900	5170
2.68967	5168
2.69033	5167
2.69100	5165
2.69167	5164
2.69233	5163
2.69300	5161
2.69367	5160
2.69433	5158
2.69500	5157
2.69567	5155
2.69633	5154
2.69700	5153
2.69767	5151
2.69833	5150
2.69900	5149
2.69967	5147
2.70033	5146
2.70100	5145
2.70167	5144
2.70233	5142
2.70300	5141
2.70367	5140
2.70433	5139
2.70500	5138
2.70567	5137
2.70633	5135
2.70700	5134
2.70767	5133
2.70833	5132
2.70900	5131
2.70967	5130
2.71033	5128
2.71100	5127
2.71167	5126
2.71233	5125
2.71300	5124
2.71367	5123
2.71433	5122
2.71500	5120
2.71567	5119
2.71633	5118
2.71700	5117
2.71767	5116
2.71833	5115
2.71900	5114
2.71967	5113
2.72033	5112
2.72100	5111
2.72167	5110
2.72233	5109
2.72300	5108
2.72367	5107
2.72433	5106
2.72500	5105
2.72567	5104
2.72633	5103
2.72700	5102
2.72767	5101
2.72833	5100
2.72900	5100
2.72967	5099
2.73033	5098
2.73100	5097
2.73167	5096
2.73233	5095
2.73300	5094
2.73367	5093
2.73433	5092
2.73500	5091
2.73567	5090
2.73633	5089
2.73700	5088
2.73767	5087
2.73833	5086
2.73900	5085
2.73967	5084
2.74033	5083
2.74100	5082
2.74167	5081
2.74233	5080
2.74300	5079
2.74367	5078
2.74433	5077
2.74500	5077
2.74567	5076
2.74633	5075
2.74700	5074
2.74767	5073
2.74833	5073
2.74900	5072
2.74967	5071
2.75033	5070
2.75100	5069
2.75167	5069
2.75233	5068
2.75300	5067
2.75367	5066
2.75433	5065
2.75500	5064
2.75567	5064
2.75633	5063
2.75700	5062
2.75767	5062
2.75833	5061
2.75900	5060
2.75967	5059
2.76033	5059
2.76100	5058
2.76167	5057
2.76233	5057
2.76300	5056
2.76367	5056
2.76433	5055
2.76500	5055
2.76567	5054
2.76633	5054
2.76700	5053
2.76767	5053
2.76833	5052
2.76900	5052
2.76967	5051
2.77033	5051
2.77100	5051
2.77167	5050
2.77233	5050
2.77300	5050
2.77367	5050
2.77433	5049
2.77500	5049
2.77567	5049
2.77633	5049
2.77700	5049
2.77767	5049
2.77833	5048
2.77900	5048
2.77967	5048
2.78033	5048
2.78100	5048
2.78167	5048
2.78233	5049
2.78300	5049
2.78367	5049
2.78433	5049
2.78500	5049
2.78567	5049
2.78633	5050
2.78700	5050
2.78767	5050
2.78833	5051
2.78900	5051
2.78967	5051
2.79033	5052
2.79100	5052
2.79167	5053
2.79233	5053
2.79300	5053
2.79367	5054
2.79433	5054
2.79500	5055
2.79567	5055
2.79633	5056
2.79700	5056
2.79767	5057
2.79833	5057
2.79900	5058
2.79967	5058
2.80033	5059
2.80100	5059
2.80167	5060
2.80233	5060
2.80300	5061
2.80367	5061
2.80433	5062
2.80500	5062
2.80567	5063
2.80633	5063
2.80700	5064
2.80767	5064
2.80833	5065
2.80900	5065
2.80967	5066
2.81033	5066
2.81100	5066
2.81167	5066
2.81233	5067
2.81300	5067
2.81367	5067
2.81433	5067
2.81500	5067
2.81567	5067
2.81633	5068
2.81700	5068
2.81767	5068
2.81833	5068
2.81900	5068
2.81967	5068
2.82033	5068
2.82100	5068
2.82167	5068
2.82233	5068
2.82300	5068
2.82367	5068
2.82433	5068
2.82500	5068
2.82567	5068
2.82633	5068
2.82700	5068
2.82767	5068
2.82833	5068
2.82900	5068
2.82967	5067
2.83033	5067
2.83100	5067
2.83167	5067
2.83233	5067
2.83300	5066
2.83367	5066
2.83433	5066
2.83500	5065
2.83567	5065
2.83633	5064
2.83700	5064
2.83767	5063
2.83833	5063
2.83900	5062
2.83967	5062
2.84033	5061
2.84100	5061
2.84167	5060
2.84233	5060
2.84300	5059
2.84367	5059
2.84433	5058
2.84500	5057
2.84567	5057
2.84633	5056
2.84700	5055
2.84767	5055
2.84833	5054
2.84900	5054
2.84967	5053
2.85033	5053
2.85100	5052
2.85167	5052
2.85233	5051
2.85300	5051
2.85367	5051
2.85433	5050
2.85500	5050
2.85567	5049
2.85633	5049
2.85700	5049
2.85767	5048
2.85833	5048
2.85900	5048
2.85967	5047
2.86033	5047
2.86100	5047
2.86167	5047
2.86233	5047
2.86300	5047
2.86367	5047
2.86433	5047
2.86500	5047
2.86567	5047
2.86633	5047
2.86700	5047
2.86767	5047
2.86833	5047
2.86900	5048
2.86967	5048
2.87033	5048
2.87100	5049
2.87167	5049
2.87233	5049
2.87300	5050
2.87367	5051
2.87433	5051
2.87500	5052
2.87567	5053
2.87633	5054
2.87700	5054
2.87767	5055
2.87833	5056
2.87900	5057
2.87967	5058
2.88033	5059
2.88100	5061
2.88167	5062
2.88233	5063
2.88300	5065
2.88367	5066
2.88433	5068
2.88500	5069
2.88567	5071
2.88633	5073
2.88700	5074
2.88767	5076
2.88833	5078
2.88900	5080
2.88967	5082
2.89033	5084
2.89100	5087
2.89167	5089
2.89233	5091
2.89300	5093
2.89367	5096
2.89433	5098
2.89500	5101
2.89567	5103
2.89633	5105
2.89700	5108
2.89767	5110
2.89833	5113
2.89900	5115
2.89967	5118
2.90033	5120
2.90100	5122
2.90167	5124
2.90233	5127
2.90300	5129
2.90367	5131
2.90433	5133
2.90500	5135
2.90567	5137
2.90633	5138
2.90700	5140
2.90767	5141
2.90833	5143
2.90900	5144
2.90967	5145
2.91033	5146
2.91100	5146
2.91167	5147
2.91233	5147
2.91300	5147
2.91367	5147
2.91433	5147
2.91500	5147
2.91567	5146
2.91633	5145
2.91700	5144
2.91767	5143
2.91833	5142
2.91900	5140
2.91967	5138
2.92033	5136
2.92100	5134
2.92167	5131
2.92233	5129
2.92300	5126
2.92367	5123
2.92433	5120
2.92500	5117
2.92567	5114
2.92633	5110
2.92700	5106
2.92767	5103
2.92833	5099
2.92900	5094
2.92967	5090
2.93033	5086
2.93100	5081
2.93167	5077
2.93233	5072
2.93300	5067
2.93367	5062
2.93433	5057
2.93500	5052
2.93567	5047
2.93633	5042
2.93700	5036
2.93767	5031
2.93833	5025
2.93900	5020
2.93967	5014
2.94033	5009
2.94100	5003
2.94167	4997
2.94233	4991
2.94300	4986
2.94367	4980
2.94433	4974
2.94500	4968
2.94567	4962
2.94633	4956
2.94700	4950
2.94767	4944
2.94833	4938
2.94900	4932
2.94967	4927
2.95033	4921
2.95100	4915
2.95167	4909
2.95233	4903
2.95300	4897
2.95367	4891
2.95433	4886
2.95500	4880
2.95567	4874
2.95633	4869
2.95700	4863
2.95767	4858
2.95833	4853
2.95900	4847
2.95967	4842
2.96033	4837
2.96100	4832
2.96167	4826
2.96233	4821
2.96300	4817
2.96367	4812
2.96433	4807
2.96500	4802
2.96567	4798
2.96633	4793
2.96700	4788
2.96767	4784
2.96833	4780
2.96900	4775
2.96967	4771
2.97033	4767
2.97100	4763
2.97167	4758
2.97233	4754
2.97300	4750
2.97367	4746
2.97433	4743
2.97500	4739
2.97567	4735
2.97633	4731
2.97700	4728
2.97767	4724
2.97833	4721
2.97900	4717
2.97967	4714
2.98033	4710
2.98100	4707
2.98167	4704
2.98233	4701
2.98300	4697
2.98367	4694
2.98433	4691
2.98500	4688
2.98567	4685
2.98633	4682
2.98700	4679
2.98767	4676
2.98833	4674
2.98900	4671
2.98967	4668
2.99033	4665
2.99100	4663
2.99167	4660
2.99233	4657
2.99300	4655
2.99367	4652
2.99433	4650
2.99500	4647
2.99567	4645
2.99633	4642
2.99700	4640
2.99767	4637
2.99833	4635
2.99900	4632
2.99967	4630
3.00033	4628
3.00100	4625
3.00167	4623
3.00233	4621
3.00300	4618
3.00367	4616
3.00433	4614
3.00500	4612
3.00567	4609
3.00633	4607
3.00700	4605
3.00767	4603
3.00833	4601
3.00900	4599
3.00967	4597
3.01033	4595
3.01100	4593
3.01167	4591
3.01233	4589
3.01300	4587
3.01367	4585
3.01433	4583
3.01500	4581
3.01567	4579
3.01633	4577
3.01700	4576
3.01767	4574
3.01833	4572
3.01900	4570
3.01967	4568
3.02033	4566
3.02100	4565
3.02167	4563
3.02233	4561
3.02300	4559
3.02367	4557
3.02433	4556
3.02500	4554
3.02567	4552
3.02633	4550
3.02700	4549
3.02767	4547
3.02833	4545
3.02900	4543
3.02967	4542
3.03033	4540
3.03100	4538
3.03167	4537
3.03233	4535
3.03300	4534
3.03367	4532
3.03433	4531
3.03500	4529
3.03567	4528
3.03633	4526
3.03700	4525
3.03767	4524
3.03833	4522
3.03900	4521
3.03967	4520
3.04033	4518
3.04100	4517
3.04167	4516
3.04233	4514
3.04300	4513
3.04367	4512
3.04433	4511
3.04500	4509
3.04567	4508
3.04633	4507
3.04700	4505
3.04767	4504
3.04833	4503
3.04900	4502
3.04967	4500
3.05033	4499
3.05100	4498
3.05167	4497
3.05233	4496
3.05300	4494
3.05367	4493
3.05433	4492
3.05500	4491
3.05567	4490
3.05633	4489
3.05700	4488
3.05767	4487
3.05833	4486
3.05900	4486
3.05967	4485
3.06033	4484
3.06100	4483
3.06167	4482
3.06233	4481
3.06300	4481
3.06367	4480
3.06433	4479
3.06500	4478
3.06567	4478
3.06633	4477
3.06700	4476
3.06767	4476
3.06833	4475
3.06900	4475
3.06967	4474
3.07033	4473
3.07100	4473
3.07167	4472
3.07233	4472
3.07300	4472
3.07367	4471
3.07433	4471
3.07500	4470
3.07567	4470
3.07633	4469
3.07700	4469
3.07767	4469
3.07833	4468
3.07900	4468
3.07967	4467
3.08033	4467
3.08100	4466
3.08167	4466
3.08233	4465
3.08300	4465
3.08367	4464
3.08433	4464
3.08500	4463
3.08567	4462
3.08633	4462
3.08700	4461
3.08767	4461
3.08833	4460
3.08900	4460
3.08967	4459
3.09033	4459
3.09100	4458
3.09167	4458
3.09233	4458
3.09300	4457
3.09367	4457
3.09433	4456
3.09500	4456
3.09567	4455
3.09633	4455
3.09700	4454
3.09767	4454
3.09833	4453
3.09900	4453
3.09967	4452
3.10033	4452
3.10100	4451
3.10167	4450
3.10233	4450
3.10300	4449
3.10367	4448
3.10433	4448
3.10500	4447
3.10567	4446
3.10633	4445
3.10700	4444
3.10767	4444
3.10833	4443
3.10900	4442
3.10967	4441
3.11033	4440
3.11100	4439
3.11167	4438
3.11233	4437
3.11300	4436
3.11367	4435
3.11433	4434
3.11500	4433
3.11567	4432
3.11633	4431
3.11700	4430
3.11767	4429
3.11833	4428
3.11900	4426
3.11967	4425
3.12033	4424
3.12100	4423
3.12167	4422
3.12233	4421
3.12300	4420
3.12367	4419
3.12433	4418
3.12500	4417
3.12567	4416
3.12633	4415
3.12700	4414
3.12767	4413
3.12833	4412
3.12900	4411
3.12967	4410
3.13033	4409
3.13100	4408
3.13167	4407
3.13233	4406
3.13300	4405
3.13367	4404
3.13433	4403
3.13500	4403
3.13567	4402
3.13633	4401
3.13700	4400
3.13767	4399
3.13833	4398
3.13900	4397
3.13967	4396
3.14033	4395
3.14100	4394
3.14167	4394
3.14233	4393
3.14300	4392
3.14367	4391
3.14433	4391
3.14500	4390
3.14567	4389
3.14633	4388
3.14700	4388
3.14767	4387
3.14833	4386
3.14900	4386
3.14967	4385
3.15033	4384
3.15100	4384
3.15167	4383
3.15233	4382
3.15300	4381
3.15367	4381
3.15433	4380
3.15500	4379
3.15567	4379
3.15633	4378
3.15700	4377
3.15767	4376
3.15833	4376
3.15900	4375
3.15967	4375
3.16033	4374
3.16100	4373
3.16167	4373
3.16233	4372
3.16300	4371
3.16367	4371
3.16433	4370
3.16500	4370
3.16567	4369
3.16633	4369
3.16700	4368
3.16767	4368
3.16833	4367
3.16900	4367
3.16967	4366
3.17033	4366
3.17100	4365
3.17167	4365
3.17233	4364
3.17300	4364
3.17367	4363
3.17433	4363
3.17500	4362
3.17567	4362
3.17633	4361
3.17700	4361
3.17767	4360
3.17833	4360
3.17900	4359
3.17967	4359
3.18033	4358
3.18100	4358
3.18167	4357
3.18233	4357
3.18300	4356
3.18367	4356
3.18433	4355
3.18500	4355
3.18567	4355
3.18633	4354
3.18700	4354
3.18767	4353
3.18833	4353
3.18900	4353
3.18967	4352
3.19033	4352
3.19100	4352
3.19167	4351
3.19233	4351
3.19300	4351
3.19367	4350
3.19433	4350
3.19500	4349
3.19567	4349
3.19633	4349
3.19700	4348
3.19767	4348
3.19833	4347
3.19900	4347
3.19967	4346
3.20033	4346
3.20100	4345
3.20167	4345
3.20233	4345
3.20300	4344
3.20367	4344
3.20433	4343
3.20500	4343
3.20567	4343
3.20633	4342
3.20700	4342
3.20767	4342
3.20833	4341
3.20900	4341
3.20967	4341
3.21033	4340
3.21100	4340
3.21167	4340
3.21233	4340
3.21300	4339
3.21367	4339
3.21433	4339
3.21500	4338
3.21567	4338
3.21633	4338
3.21700	4338
3.21767	4338
3.21833	4337
3.21900	4337
3.21967	4337
3.22033	4337
3.22100	4337
3.22167	4337
3.22233	4336
3.22300	4336
3.22367	4336
3.22433	4336
3.22500	4336
3.22567	4336
3.22633	4336
3.22700	4336
3.22767	4336
3.22833	4336
3.22900	4336
3.22967	4336
3.23033	4336
3.23100	4336
3.23167	4336
3.23233	4336
3.23300	4336
3.23367	4337
3.23433	4337
3.23500	4337
3.23567	4337
3.23633	4337
3.23700	4337
3.23767	4337
3.23833	4337
3.23900	4337
3.23967	4338
3.24033	4338
3.24100	4338
3.24167	4338
3.24233	4339
3.24300	4339
3.24367	4339
3.24433	4339
3.24500	4340
3.24567	4340
3.24633	4340
3.24700	4340
3.24767	4340
3.24833	4341
3.24900	4341
3.24967	4341
3.25033	4341
3.25100	4341
3.25167	4342
3.25233	4342
3.25300	4342
3.25367	4342
3.25433	4342
3.25500	4343
3.25567	4343
3.25633	4343
3.25700	4343
3.25767	4343
3.25833	4344
3.25900	4344
3.25967	4344
3.26033	4344
3.26100	4345
3.26167	4345
3.26233	4345
3.26300	4345
3.26367	4346
3.26433	4346
3.26500	4346
3.26567	4347
3.26633	4347
3.26700	4347
3.26767	4348
3.26833	4348
3.26900	4349
3.26967	4349
3.27033	4349
3.27100	4350
3.27167	4350
3.27233	4351
3.27300	4351
3.27367	4352
3.27433	4352
3.27500	4352
3.27567	4353
3.27633	4353
3.27700	4354
3.27767	4354
3.27833	4354
3.27900	4355
3.27967	4355
3.28033	4356
3.28100	4356
3.28167	4356
3.28233	4357
3.28300	4357
3.28367	4357
3.28433	4358
3.28500	4358
3.28567	4358
3.28633	4358
3.28700	4359
3.28767	4359
3.28833	4359
3.28900	4360
3.28967	4360
3.29033	4360
3.29100	4361
3.29167	4361
3.29233	4361
3.29300	4362
3.29367	4362
3.29433	4362
3.29500	4363
3.29567	4363
3.29633	4363
3.29700	4363
3.29767	4363
3.29833	4364
3.29900	4364
3.29967	4364
3.30033	4364
3.30100	4364
3.30167	4365
3.30233	4365
3.30300	4365
3.30367	4365
3.30433	4365
3.30500	4365
3.30567	4365
3.30633	4365
3.30700	4366
3.30767	4366
3.30833	4366
3.30900	4366
3.30967	4366
3.31033	4366
3.31100	4366
3.31167	4366
3.31233	4366
3.31300	4366
3.31367	4366
3.31433	4366
3.31500	4366
3.31567	4365
3.31633	4365
3.31700	4365
3.31767	4365
3.31833	4365
3.31900	4365
3.31967	4365
3.32033	4365
3.32100	4365
3.32167	4365
3.32233	4365
3.32300	4365
3.32367	4364
3.32433	4364
3.32500	4364
3.32567	4364
3.32633	4364
3.32700	4364
3.32767	4364
3.32833	4364
3.32900	4364
3.32967	4364
3.33033	4364
3.33100	4364
3.33167	4364
3.33233	4364
3.33300	4364
3.33367	4364
3.33433	4364
3.33500	4364
3.33567	4364
3.33633	4364
3.33700	4364
3.33767	4364
3.33833	4364
3.33900	4364
3.33967	4364
3.34033	4364
3.34100	4364
3.34167	4364
3.34233	4364
3.34300	4364
3.34367	4364
3.34433	4364
3.34500	4364
3.34567	4364
3.34633	4364
3.34700	4364
3.34767	4364
3.34833	4364
3.34900	4364
3.34967	4364
3.35033	4364
3.35100	4364
3.35167	4364
3.35233	4364
3.35300	4364
3.35367	4364
3.35433	4364
3.35500	4364
3.35567	4364
3.35633	4364
3.35700	4364
3.35767	4364
3.35833	4364
3.35900	4364
3.35967	4364
3.36033	4364
3.36100	4364
3.36167	4364
3.36233	4364
3.36300	4364
3.36367	4364
3.36433	4364
3.36500	4364
3.36567	4364
3.36633	4364
3.36700	4364
3.36767	4364
3.36833	4364
3.36900	4364
3.36967	4364
3.37033	4364
3.37100	4365
3.37167	4365
3.37233	4365
3.37300	4365
3.37367	4365
3.37433	4365
3.37500	4365
3.37567	4366
3.37633	4366
3.37700	4366
3.37767	4366
3.37833	4366
3.37900	4366
3.37967	4366
3.38033	4366
3.38100	4367
3.38167	4367
3.38233	4367
3.38300	4367
3.38367	4367
3.38433	4367
3.38500	4367
3.38567	4367
3.38633	4367
3.38700	4368
3.38767	4368
3.38833	4368
3.38900	4368
3.38967	4368
3.39033	4368
3.39100	4368
3.39167	4368
3.39233	4368
3.39300	4369
3.39367	4369
3.39433	4369
3.39500	4369
3.39567	4369
3.39633	4369
3.39700	4368
3.39767	4368
3.39833	4368
3.39900	4368
3.39967	4368
3.40033	4368
3.40100	4368
3.40167	4368
3.40233	4368
3.40300	4368
3.40367	4368
3.40433	4367
3.40500	4367
3.40567	4367
3.40633	4367
3.40700	4367
3.40767	4367
3.40833	4366
3.40900	4366
3.40967	4366
3.41033	4366
3.41100	4366
3.41167	4366
3.41233	4365
3.41300	4365
3.41367	4365
3.41433	4365
3.41500	4365
3.41567	4364
3.41633	4364
3.41700	4364
3.41767	4364
3.41833	4364
3.41900	4363
3.41967	4363
3.42033	4363
3.42100	4363
3.42167	4363
3.42233	4363
3.42300	4362
3.42367	4362
3.42433	4362
3.42500	4362
3.42567	4362
3.42633	4362
3.42700	4362
3.42767	4362
3.42833	4362
3.42900	4362
3.42967	4362
3.43033	4362
3.43100	4362
3.43167	4362
3.43233	4362
3.43300	4362
3.43367	4362
3.43433	4362
3.43500	4362
3.43567	4362
3.43633	4362
3.43700	4362
3.43767	4362
3.43833	4362
3.43900	4362
3.43967	4362
3.44033	4363
3.44100	4363
3.44167	4363
3.44233	4363
3.44300	4364
3.44367	4364
3.44433	4364
3.44500	4365
3.44567	4365
3.44633	4366
3.44700	4366
3.44767	4367
3.44833	4367
3.44900	4368
3.44967	4368
3.45033	4369
3.45100	4370
3.45167	4370
3.45233	4371
3.45300	4372
3.45367	4373
3.45433	4374
3.45500	4375
3.45567	4375
3.45633	4376
3.45700	4377
3.45767	4379
3.45833	4380
3.45900	4381
3.45967	4382
3.46033	4383
3.46100	4384
3.46167	4385
3.46233	4386
3.46300	4388
3.46367	4389
3.46433	4390
3.46500	4391
3.46567	4392
3.46633	4394
3.46700	4395
3.46767	4396
3.46833	4398
3.46900	4399
3.46967	4401
3.47033	4402
3.47100	4404
3.47167	4405
3.47233	4407
3.47300	4409
3.47367	4411
3.47433	4412
3.47500	4414
3.47567	4416
3.47633	4418
3.47700	4421
3.47767	4423
3.47833	4425
3.47900	4427
3.47967	4430
3.48033	4432
3.48100	4435
3.48167	4438
3.48233	4440
3.48300	4443
3.48367	4446
3.48433	4449
3.48500	4452
3.48567	4455
3.48633	4458
3.48700	4461
3.48767	4464
3.48833	4467
3.48900	4471
3.48967	4474
3.49033	4478
3.49100	4481
3.49167	4485
3.49233	4489
3.49300	4493
3.49367	4498
3.49433	4502
3.49500	4507
3.49567	4512
3.49633	4517
3.49700	4522
3.49767	4528
3.49833	4534
3.49900	4540
3.49967	4546
3.50033	4553
3.50100	4560
3.50167	4567
3.50233	4574
3.50300	4582
3.50367	4591
3.50433	4599
3.50500	4608
3.50567	4618
3.50633	4628
3.50700	4638
3.50767	4649
3.50833	4660
3.50900	4672
3.50967	4684
3.51033	4697
3.51100	4710
3.51167	4724
3.51233	4739
3.51300	4754
3.51367	4769
3.51433	4785
3.51500	4802
3.51567	4819
3.51633	4837
3.51700	4856
3.51767	4876
3.51833	4896
3.51900	4916
3.51967	4938
3.52033	4960
3.52100	4983
3.52167	5007
3.52233	5032
3.52300	5057
3.52367	5083
3.52433	5110
3.52500	5138
3.52567	5167
3.52633	5196
3.52700	5226
3.52767	5258
3.52833	5289
3.52900	5322
3.52967	5356
3.53033	5390
3.53100	5425
3.53167	5461
3.53233	5498
3.53300	5535
3.53367	5573
3.53433	5612
3.53500	5652
3.53567	5692
3.53633	5733
3.53700	5775
3.53767	5817
3.53833	5859
3.53900	5903
3.53967	5946
3.54033	5990
3.54100	6035
3.54167	6080
3.54233	6125
3.54300	6171
3.54367	6217
3.54433	6263
3.54500	6310
3.54567	6357
3.54633	6403
3.54700	6450
3.54767	6498
3.54833	6545
3.54900	6592
3.54967	6639
3.55033	6687
3.55100	6734
3.55167	6781
3.55233	6828
3.55300	6874
3.55367	6921
3.55433	6967
3.55500	7012
3.55567	7058
3.55633	7102
3.55700	7147
3.55767	7191
3.55833	7234
3.55900	7277
3.55967	7319
3.56033	7360
3.56100	7401
3.56167	7441
3.56233	7480
3.56300	7519
3.56367	7556
3.56433	7593
3.56500	7629
3.56567	7664
3.56633	7698
3.56700	7732
3.56767	7764
3.56833	7795
3.56900	7825
3.56967	7855
3.57033	7883
3.57100	7911
3.57167	7937
3.57233	7963
3.57300	7987
3.57367	8010
3.57433	8033
3.57500	8054
3.57567	8075
3.57633	8094
3.57700	8113
3.57767	8130
3.57833	8147
3.57900	8162
3.57967	8177
3.58033	8191
3.58100	8204
3.58167	8216
3.58233	8227
3.58300	8237
3.58367	8246
3.58433	8254
3.58500	8262
3.58567	8269
3.58633	8275
3.58700	8280
3.58767	8286
3.58833	8292
3.58900	8298
3.58967	8302
3.59033	8306
3.59100	8309
3.59167	8311
3.59233	8313
3.59300	8314
3.59367	8314
3.59433	8313
3.59500	8312
3.59567	8310
3.59633	8308
3.59700	8305
3.59767	8301
3.59833	8297
3.59900	8292
3.59967	8287
3.60033	8281
3.60100	8275
3.60167	8268
3.60233	8260
3.60300	8253
3.60367	8244
3.60433	8235
3.60500	8226
3.60567	8216
3.60633	8206
3.60700	8196
3.60767	8185
3.60833	8173
3.60900	8161
3.60967	8149
3.61033	8136
3.61100	8123
3.61167	8109
3.61233	8095
3.61300	8080
3.61367	8065
3.61433	8050
3.61500	8034
3.61567	8017
3.61633	8000
3.61700	7983
3.61767	7965
3.61833	7947
3.61900	7928
3.61967	7909
3.62033	7889
3.62100	7869
3.62167	7848
3.62233	7827
3.62300	7805
3.62367	7783
3.62433	7760
3.62500	7737
3.62567	7714
3.62633	7690
3.62700	7666
3.62767	7641
3.62833	7616
3.62900	7590
3.62967	7564
3.63033	7538
3.63100	7511
3.63167	7484
3.63233	7457
3.63300	7429
3.63367	7400
3.63433	7372
3.63500	7343
3.63567	7314
3.63633	7284
3.63700	7254
3.63767	7224
3.63833	7193
3.63900	7162
3.63967	7131
3.64033	7100
3.64100	7069
3.64167	7037
3.64233	7005
3.64300	6973
3.64367	6941
3.64433	6908
3.64500	6876
3.64567	6843
3.64633	6810
3.64700	6777
3.64767	6744
3.64833	6711
3.64900	6678
3.64967	6645
3.65033	6612
3.65100	6579
3.65167	6546
3.65233	6512
3.65300	6479
3.65367	6446
3.65433	6413
3.65500	6380
3.65567	6348
3.65633	6315
3.65700	6282
3.65767	6250
3.65833	6218
3.65900	6186
3.65967	6154
3.66033	6122
3.66100	6090
3.66167	6059
3.66233	6028
3.66300	5997
3.66367	5966
3.66433	5936
3.66500	5906
3.66567	5876
3.66633	5846
3.66700	5817
3.66767	5788
3.66833	5759
3.66900	5731
3.66967	5703
3.67033	5675
3.67100	5647
3.67167	5620
3.67233	5593
3.67300	5566
3.67367	5540
3.67433	5514
3.67500	5488
3.67567	5463
3.67633	5438
3.67700	5413
3.67767	5389
3.67833	5365
3.67900	5341
3.67967	5318
3.68033	5295
3.68100	5272
3.68167	5250
3.68233	5228
3.68300	5206
3.68367	5185
3.68433	5164
3.68500	5143
3.68567	5123
3.68633	5103
3.68700	5083
3.68767	5063
3.68833	5044
3.68900	5025
3.68967	5007
3.69033	4988
3.69100	4970
3.69167	4953
3.69233	4935
3.69300	4918
3.69367	4902
3.69433	4885
3.69500	4869
3.69567	4853
3.69633	4837
3.69700	4822
3.69767	4807
3.69833	4792
3.69900	4777
3.69967	4763
3.70033	4749
3.70100	4735
3.70167	4721
3.70233	4708
3.70300	4694
3.70367	4681
3.70433	4669
3.70500	4656
3.70567	4644
3.70633	4632
3.70700	4620
3.70767	4609
3.70833	4597
3.70900	4586
3.70967	4575
3.71033	4564
3.71100	4554
3.71167	4543
3.71233	4533
3.71300	4523
3.71367	4513
3.71433	4503
3.71500	4494
3.71567	4484
3.71633	4475
3.71700	4466
3.71767	4457
3.71833	4448
3.71900	4440
3.71967	4431
3.72033	4423
3.72100	4415
3.72167	4407
3.72233	4399
3.72300	4391
3.72367	4383
3.72433	4376
3.72500	4368
3.72567	4361
3.72633	4354
3.72700	4347
3.72767	4340
3.72833	4333
3.72900	4327
3.72967	4320
3.73033	4314
3.73100	4308
3.73167	4301
3.73233	4295
3.73300	4289
3.73367	4283
3.73433	4278
3.73500	4272
3.73567	4266
3.73633	4261
3.73700	4255
3.73767	4250
3.73833	4245
3.73900	4239
3.73967	4234
3.74033	4229
3.74100	4224
3.74167	4219
3.74233	4214
3.74300	4209
3.74367	4204
3.74433	4200
3.74500	4195
3.74567	4190
3.74633	4186
3.74700	4181
3.74767	4177
3.74833	4173
3.74900	4168
3.74967	4164
3.75033	4160
3.75100	4156
3.75167	4152
3.75233	4148
3.75300	4144
3.75367	4140
3.75433	4136
3.75500	4132
3.75567	4128
3.75633	4124
3.75700	4121
3.75767	4117
3.75833	4113
3.75900	4110
3.75967	4106
3.76033	4102
3.76100	4099
3.76167	4096
3.76233	4092
3.76300	4089
3.76367	4085
3.76433	4082
3.76500	4079
3.76567	4076
3.76633	4073
3.76700	4070
3.76767	4067
3.76833	4064
3.76900	4061
3.76967	4058
3.77033	4055
3.77100	4052
3.77167	4049
3.77233	4046
3.77300	4043
3.77367	4041
3.77433	4038
3.77500	4035
3.77567	4033
3.77633	4030
3.77700	4028
3.77767	4025
3.77833	4022
3.77900	4020
3.77967	4017
3.78033	4015
3.78100	4012
3.78167	4010
3.78233	4007
3.78300	4005
3.78367	4002
3.78433	4000
3.78500	3998
3.78567	3996
3.78633	3993
3.78700	3991
3.78767	3989
3.78833	3987
3.78900	3984
3.78967	3982
3.79033	3980
3.79100	3978
3.79167	3975
3.79233	3973
3.79300	3971
3.79367	3969
3.79433	3966
3.79500	3964
3.79567	3962
3.79633	3960
3.79700	3958
3.79767	3956
3.79833	3954
3.79900	3952
3.79967	3950
3.80033	3947
3.80100	3945
3.80167	3944
3.80233	3942
3.80300	3940
3.80367	3938
3.80433	3936
3.80500	3934
3.80567	3932
3.80633	3931
3.80700	3929
3.80767	3927
3.80833	3925
3.80900	3923
3.80967	3921
3.81033	3920
3.81100	3918
3.81167	3916
3.81233	3914
3.81300	3912
3.81367	3911
3.81433	3909
3.81500	3907
3.81567	3905
3.81633	3904
3.81700	3902
3.81767	3900
3.81833	3898
3.81900	3897
3.81967	3895
3.82033	3893
3.82100	3891
3.82167	3890
3.82233	3888
3.82300	3886
3.82367	3885
3.82433	3883
3.82500	3881
3.82567	3880
3.82633	3878
3.82700	3876
3.82767	3875
3.82833	3873
3.82900	3872
3.82967	3870
3.83033	3869
3.83100	3867
3.83167	3865
3.83233	3864
3.83300	3862
3.83367	3861
3.83433	3859
3.83500	3858
3.83567	3856
3.83633	3855
3.83700	3854
3.83767	3852
3.83833	3851
3.83900	3849
3.83967	3848
3.84033	3846
3.84100	3845
3.84167	3843
3.84233	3842
3.84300	3840
3.84367	3839
3.84433	3837
3.84500	3836
3.84567	3834
3.84633	3833
3.84700	3832
3.84767	3830
3.84833	3829
3.84900	3827
3.84967	3826
3.85033	3824
3.85100	3823
3.85167	3822
3.85233	3820
3.85300	3819
3.85367	3818
3.85433	3816
3.85500	3815
3.85567	3814
3.85633	3812
3.85700	3811
3.85767	3809
3.85833	3808
3.85900	3807
3.85967	3806
3.86033	3804
3.86100	3803
3.86167	3802
3.86233	3801
3.86300	3799
3.86367	3798
3.86433	3797
3.86500	3796
3.86567	3795
3.86633	3794
3.86700	3792
3.86767	3791
3.86833	3790
3.86900	3789
3.86967	3788
3.87033	3786
3.87100	3785
3.87167	3784
3.87233	3783
3.87300	3782
3.87367	3780
3.87433	3779
3.87500	3778
3.87567	3777
3.87633	3776
3.87700	3775
3.87767	3774
3.87833	3772
3.87900	3771
3.87967	3770
3.88033	3769
3.88100	3768
3.88167	3767
3.88233	3766
3.88300	3764
3.88367	3763
3.88433	3762
3.88500	3761
3.88567	3760
3.88633	3759
3.88700	3758
3.88767	3757
3.88833	3756
3.88900	3755
3.88967	3754
3.89033	3753
3.89100	3752
3.89167	3751
3.89233	3750
3.89300	3749
3.89367	3747
3.89433	3746
3.89500	3745
3.89567	3744
3.89633	3743
3.89700	3742
3.89767	3741
3.89833	3740
3.89900	3739
3.89967	3738
3.90033	3737
3.90100	3736
3.90167	3735
3.90233	3734
3.90300	3733
3.90367	3732
3.90433	3731
3.90500	3730
3.90567	3730
3.90633	3729
3.90700	3728
3.90767	3727
3.90833	3726
3.90900	3725
3.90967	3724
3.91033	3723
3.91100	3722
3.91167	3721
3.91233	3721
3.91300	3720
3.91367	3719
3.91433	3718
3.91500	3717
3.91567	3716
3.91633	3715
3.91700	3714
3.91767	3713
3.91833	3712
3.91900	3711
3.91967	3710
3.92033	3710
3.92100	3709
3.92167	3708
3.92233	3707
3.92300	3706
3.92367	3705
3.92433	3705
3.92500	3704
3.92567	3703
3.92633	3702
3.92700	3701
3.92767	3701
3.92833	3700
3.92900	3699
3.92967	3698
3.93033	3697
3.93100	3697
3.93167	3696
3.93233	3695
3.93300	3695
3.93367	3694
3.93433	3693
3.93500	3692
3.93567	3692
3.93633	3691
3.93700	3690
3.93767	3690
3.93833	3689
3.93900	3688
3.93967	3688
3.94033	3687
3.94100	3686
3.94167	3686
3.94233	3685
3.94300	3685
3.94367	3684
3.94433	3683
3.94500	3683
3.94567	3682
3.94633	3682
3.94700	3681
3.94767	3681
3.94833	3680
3.94900	3680
3.94967	3679
3.95033	3679
3.95100	3679
3.95167	3678
3.95233	3678
3.95300	3677
3.95367	3677
3.95433	3676
3.95500	3676
3.95567	3676
3.95633	3675
3.95700	3675
3.95767	3674
3.95833	3674
3.95900	3674
3.95967	3673
3.96033	3673
3.96100	3672
3.96167	3672
3.96233	3672
3.96300	3671
3.96367	3671
3.96433	3671
3.96500	3670
3.96567	3670
3.96633	3670
3.96700	3669
3.96767	3669
3.96833	3669
3.96900	3669
3.96967	3668
3.97033	3668
3.97100	3668
3.97167	3667
3.97233	3667
3.97300	3667
3.97367	3666
3.97433	3666
3.97500	3666
3.97567	3665
3.97633	3665
3.97700	3665
3.97767	3664
3.97833	3664
3.97900	3664
3.97967	3664
3.98033	3663
3.98100	3663
3.98167	3663
3.98233	3662
3.98300	3662
3.98367	3662
3.98433	3662
3.98500	3662
3.98567	3661
3.98633	3661
3.98700	3661
3.98767	3661
3.98833	3661
3.98900	3661
3.98967	3661
3.99033	3661
3.99100	3660
3.99167	3660
3.99233	3660
3.99300	3660
3.99367	3660
3.99433	3660
3.99500	3660
3.99567	3660
3.99633	3660
3.99700	3660
3.99767	3660
3.99833	3660
3.99900	3660
3.99967	3660
4.00033	3660
4.00100	3660
4.00167	3660
4.00233	3660
4.00300	3660
4.00367	3660
4.00433	3660
4.00500	3661
4.00567	3661
4.00633	3661
4.00700	3661
4.00767	3661
4.00833	3661
4.00900	3661
4.00967	3661
4.01033	3662
4.01100	3662
4.01167	3662
4.01233	3662
4.01300	3663
4.01367	3663
4.01433	3663
4.01500	3664
4.01567	3664
4.01633	3665
4.01700	3665
4.01767	3666
4.01833	3667
4.01900	3667
4.01967	3668
4.02033	3669
4.02100	3669
4.02167	3670
4.02233	3671
4.02300	3671
4.02367	3672
4.02433	3673
4.02500	3674
4.02567	3675
4.02633	3675
4.02700	3676
4.02767	3677
4.02833	3678
4.02900	3679
4.02967	3680
4.03033	3681
4.03100	3682
4.03167	3683
4.03233	3684
4.03300	3685
4.03367	3686
4.03433	3687
4.03500	3688
4.03567	3689
4.03633	3691
4.03700	3692
4.03767	3693
4.03833	3694
4.03900	3695
4.03967	3697
4.04033	3698
4.04100	3699
4.04167	3701
4.04233	3702
4.04300	3703
4.04367	3705
4.04433	3706
4.04500	3708
4.04567	3709
4.04633	3711
4.04700	3712
4.04767	3714
4.04833	3716
4.04900	3717
4.04967	3719
4.05033	3721
4.05100	3722
4.05167	3724
4.05233	3726
4.05300	3728
4.05367	3729
4.05433	3731
4.05500	3733
4.05567	3735
4.05633	3737
4.05700	3739
4.05767	3741
4.05833	3743
4.05900	3745
4.05967	3747
4.06033	3750
4.06100	3752
4.06167	3754
4.06233	3756
4.06300	3759
4.06367	3761
4.06433	3763
4.06500	3766
4.06567	3768
4.06633	3770
4.06700	3773
4.06767	3776
4.06833	3778
4.06900	3781
4.06967	3783
4.07033	3786
4.07100	3789
4.07167	3792
4.07233	3794
4.07300	3797
4.07367	3800
4.07433	3803
4.07500	3806
4.07567	3809
4.07633	3812
4.07700	3816
4.07767	3819
4.07833	3822
4.07900	3825
4.07967	3829
4.08033	3832
4.08100	3835
4.08167	3839
4.08233	3842
4.08300	3846
4.08367	3849
4.08433	3853
4.08500	3856
4.08567	3860
4.08633	3863
4.08700	3867
4.08767	3871
4.08833	3874
4.08900	3878
4.08967	3882
4.09033	3886
4.09100	3890
4.09167	3893
4.09233	3897
4.09300	3901
4.09367	3905
4.09433	3909
4.09500	3912
4.09567	3916
4.09633	3920
4.09700	3924
4.09767	3928
4.09833	3932
4.09900	3936
4.09967	3940
4.10033	3944
4.10100	3947
4.10167	3951
4.10233	3955
4.10300	3959
4.10367	3963
4.10433	3966
4.10500	3970
4.10567	3974
4.10633	3977
4.10700	3981
4.10767	3984
4.10833	3988
4.10900	3991
4.10967	3995
4.11033	3998
4.11100	4002
4.11167	4005
4.11233	4008
4.11300	4011
4.11367	4014
4.11433	4018
4.11500	4021
4.11567	4023
4.11633	4026
4.11700	4029
4.11767	4032
4.11833	4034
4.11900	4037
4.11967	4040
4.12033	4042
4.12100	4044
4.12167	4047
4.12233	4049
4.12300	4051
4.12367	4053
4.12433	4055
4.12500	4057
4.12567	4059
4.12633	4061
4.12700	4062
4.12767	4064
4.12833	4066
4.12900	4067
4.12967	4069
4.13033	4070
4.13100	4071
4.13167	4073
4.13233	4074
4.13300	4075
4.13367	4076
4.13433	4077
4.13500	4077
4.13567	4078
4.13633	4079
4.13700	4079
4.13767	4080
4.13833	4080
4.13900	4081
4.13967	4081
4.14033	4081
4.14100	4081
4.14167	4081
4.14233	4081
4.14300	4081
4.14367	4081
4.14433	4081
4.14500	4081
4.14567	4080
4.14633	4080
4.14700	4080
4.14767	4079
4.14833	4079
4.14900	4078
4.14967	4077
4.15033	4077
4.15100	4076
4.15167	4076
4.15233	4075
4.15300	4074
4.15367	4073
4.15433	4072
4.15500	4072
4.15567	4071
4.15633	4070
4.15700	4069
4.15767	4068
4.15833	4067
4.15900	4067
4.15967	4066
4.16033	4065
4.16100	4064
4.16167	4063
4.16233	4063
4.16300	4062
4.16367	4061
4.16433	4061
4.16500	4060
4.16567	4059
4.16633	4059
4.16700	4058
4.16767	4058
4.16833	4058
4.16900	4057
4.16967	4057
4.17033	4057
4.17100	4057
4.17167	4057
4.17233	4057
4.17300	4057
4.17367	4057
4.17433	4058
4.17500	4058
4.17567	4059
4.17633	4059
4.17700	4060
4.17767	4060
4.17833	4061
4.17900	4062
4.17967	4063
4.18033	4065
4.18100	4066
4.18167	4067
4.18233	4069
4.18300	4071
4.18367	4073
4.18433	4074
4.18500	4077
4.18567	4079
4.18633	4081
4.18700	4083
4.18767	4086
4.18833	4089
4.18900	4092
4.18967	4095
4.19033	4098
4.19100	4101
4.19167	4105
4.19233	4108
4.19300	4112
4.19367	4116
4.19433	4121
4.19500	4125
4.19567	4130
4.19633	4134
4.19700	4140
4.19767	4145
4.19833	4150
4.19900	4156
4.19967	4162
4.20033	4168
4.20100	4175
4.20167	4181
4.20233	4188
4.20300	4195
4.20367	4202
4.20433	4210
4.20500	4217
4.20567	4225
4.20633	4233
4.20700	4242
4.20767	4251
4.20833	4259
4.20900	4269
4.20967	4278
4.21033	4288
4.21100	4298
4.21167	4308
4.21233	4319
4.21300	4330
4.21367	4341
4.21433	4353
4.21500	4365
4.21567	4377
4.21633	4390
4.21700	4403
4.21767	4416
4.21833	4430
4.21900	4444
4.21967	4458
4.22033	4473
4.22100	4488
4.22167	4504
4.22233	4520
4.22300	4536
4.22367	4553
4.22433	4570
4.22500	4588
4.22567	4606
4.22633	4625
4.22700	4644
4.22767	4664
4.22833	4684
4.22900	4705
4.22967	4726
4.23033	4747
4.23100	4769
4.23167	4792
4.23233	4815
4.23300	4839
4.23367	4863
4.23433	4887
4.23500	4913
4.23567	4938
4.23633	4964
4.23700	4991
4.23767	5018
4.23833	5046
4.23900	5075
4.23967	5104
4.24033	5133
4.24100	5163
4.24167	5194
4.24233	5225
4.24300	5257
4.24367	5289
4.24433	5322
4.24500	5356
4.24567	5390
4.24633	5424
4.24700	5459
4.24767	5495
4.24833	5531
4.24900	5568
4.24967	5605
4.25033	5643
4.25100	5682
4.25167	5721
4.25233	5761
4.25300	5801
4.25367	5842
4.25433	5884
4.25500	5926
4.25567	5969
4.25633	6012
4.25700	6055
4.25767	6100
4.25833	6144
4.25900	6190
4.25967	6236
4.26033	6282
4.26100	6329
4.26167	6376
4.26233	6424
4.26300	6472
4.26367	6521
4.26433	6570
4.26500	6619
4.26567	6669
4.26633	6719
4.26700	6770
4.26767	6821
4.26833	6873
4.26900	6924
4.26967	6976
4.27033	7029
4.27100	7082
4.27167	7135
4.27233	7188
4.27300	7241
4.27367	7295
4.27433	7349
4.27500	7403
4.27567	7458
4.27633	7512
4.27700	7567
4.27767	7622
4.27833	7678
4.27900	7733
4.27967	7789
4.28033	7845
4.28100	7900
4.28167	7956
4.28233	8012
4.28300	8068
4.28367	8125
4.28433	8181
4.28500	8237
4.28567	8293
4.28633	8349
4.28700	8405
4.28767	8461
4.28833	8517
4.28900	8572
4.28967	8628
4.29033	8683
4.29100	8739
4.29167	8794
4.29233	8848
4.29300	8903
4.29367	8957
4.29433	9011
4.29500	9065
4.29567	9118
4.29633	9171
4.29700	9224
4.29767	9276
4.29833	9328
4.29900	9380
4.29967	9431
4.30033	9482
4.30100	9532
4.30167	9582
4.30233	9632
4.30300	9681
4.30367	9729
4.30433	9777
4.30500	9825
4.30567	9872
4.30633	9918
4.30700	9965
4.30767	10010
4.30833	10055
4.30900	10100
4.30967	10143
4.31033	10187
4.31100	10229
4.31167	10271
4.31233	10313
4.31300	10354
4.31367	10394
4.31433	10433
4.31500	10471
4.31567	10509
4.31633	10546
4.31700	10582
4.31767	10617
4.31833	10652
4.31900	10685
4.31967	10718
4.32033	10750
4.32100	10781
4.32167	10811
4.32233	10841
4.32300	10869
4.32367	10896
4.32433	10922
4.32500	10948
4.32567	10972
4.32633	10995
4.32700	11017
4.32767	11038
4.32833	11058
4.32900	11077
4.32967	11095
4.33033	11112
4.33100	11127
4.33167	11142
4.33233	11155
4.33300	11167
4.33367	11178
4.33433	11188
4.33500	11197
4.33567	11205
4.33633	11211
4.33700	11217
4.33767	11221
4.33833	11225
4.33900	11227
4.33967	11228
4.34033	11228
4.34100	11227
4.34167	11225
4.34233	11222
4.34300	11217
4.34367	11212
4.34433	11205
4.34500	11197
4.34567	11188
4.34633	11178
4.34700	11167
4.34767	11155
4.34833	11141
4.34900	11127
4.34967	11111
4.35033	11095
4.35100	11077
4.35167	11059
4.35233	11040
4.35300	11019
4.35367	10998
4.35433	10976
4.35500	10952
4.35567	10928
4.35633	10903
4.35700	10877
4.35767	10850
4.35833	10823
4.35900	10794
4.35967	10765
4.36033	10734
4.36100	10703
4.36167	10672
4.36233	10639
4.36300	10606
4.36367	10572
4.36433	10537
4.36500	10501
4.36567	10465
4.36633	10429
4.36700	10391
4.36767	10353
4.36833	10315
4.36900	10276
4.36967	10236
4.37033	10197
4.37100	10156
4.37167	10115
4.37233	10074
4.37300	10032
4.37367	9990
4.37433	9948
4.37500	9905
4.37567	9862
4.37633	9819
4.37700	9775
4.37767	9731
4.37833	9687
4.37900	9643
4.37967	9599
4.38033	9554
4.38100	9510
4.38167	9465
4.38233	9420
4.38300	9375
4.38367	9330
4.38433	9285
4.38500	9240
4.38567	9195
4.38633	9150
4.38700	9105
4.38767	9060
4.38833	9016
4.38900	8971
4.38967	8927
4.39033	8883
4.39100	8839
4.39167	8796
4.39233	8752
4.39300	8709
4.39367	8666
4.39433	8623
4.39500	8581
4.39567	8539
4.39633	8497
4.39700	8456
4.39767	8415
4.39833	8374
4.39900	8334
4.39967	8294
4.40033	8254
4.40100	8215
4.40167	8176
4.40233	8138
4.40300	8100
4.40367	8062
4.40433	8025
4.40500	7988
4.40567	7952
4.40633	7916
4.40700	7880
4.40767	7845
4.40833	7810
4.40900	7776
4.40967	7742
4.41033	7709
4.41100	7676
4.41167	7643
4.41233	7611
4.41300	7579
4.41367	7548
4.41433	7517
4.41500	7486
4.41567	7456
4.41633	7426
4.41700	7397
4.41767	7368
4.41833	7340
4.41900	7312
4.41967	7284
4.42033	7257
4.42100	7231
4.42167	7204
4.42233	7179
4.42300	7153
4.42367	7128
4.42433	7104
4.42500	7080
4.42567	7056
4.42633	7033
4.42700	7010
4.42767	6988
4.42833	6966
4.42900	6945
4.42967	6924
4.43033	6903
4.43100	6883
4.43167	6863
4.43233	6844
4.43300	6825
4.43367	6806
4.43433	6788
4.43500	6771
4.43567	6753
4.43633	6736
4.43700	6720
4.43767	6704
4.43833	6688
4.43900	6672
4.43967	6657
4.44033	6642
4.44100	6628
4.44167	6614
4.44233	6600
4.44300	6586
4.44367	6573
4.44433	6560
4.44500	6547
4.44567	6535
4.44633	6523
4.44700	6512
4.44767	6500
4.44833	6489
4.44900	6479
4.44967	6468
4.45033	6458
4.45100	6448
4.45167	6439
4.45233	6430
4.45300	6421
4.45367	6412
4.45433	6404
4.45500	6396
4.45567	6388
4.45633	6381
4.45700	6374
4.45767	6367
4.45833	6361
4.45900	6354
4.45967	6348
4.46033	6343
4.46100	6337
4.46167	6332
4.46233	6327
4.46300	6323
4.46367	6318
4.46433	6314
4.46500	6310
4.46567	6307
4.46633	6304
4.46700	6301
4.46767	6298
4.46833	6295
4.46900	6293
4.46967	6291
4.47033	6289
4.47100	6287
4.47167	6286
4.47233	6285
4.47300	6284
4.47367	6283
4.47433	6283
4.47500	6282
4.47567	6282
4.47633	6282
4.47700	6282
4.47767	6283
4.47833	6283
4.47900	6284
4.47967	6285
4.48033	6286
4.48100	6287
4.48167	6288
4.48233	6290
4.48300	6292
4.48367	6293
4.48433	6295
4.48500	6298
4.48567	6300
4.48633	6302
4.48700	6304
4.48767	6307
4.48833	6309
4.48900	6312
4.48967	6315
4.49033	6317
4.49100	6320
4.49167	6323
4.49233	6326
4.49300	6329
4.49367	6332
4.49433	6335
4.49500	6338
4.49567	6341
4.49633	6344
4.49700	6346
4.49767	6349
4.49833	6352
4.49900	6355
4.49967	6358
4.50033	6361
4.50100	6363
4.50167	6366
4.50233	6369
4.50300	6372
4.50367	6375
4.50433	6378
4.50500	6380
4.50567	6383
4.50633	6386
4.50700	6389
4.50767	6392
4.50833	6395
4.50900	6398
4.50967	6401
4.51033	6404
4.51100	6407
4.51167	6410
4.51233	6413
4.51300	6416
4.51367	6419
4.51433	6422
4.51500	6425
4.51567	6428
4.51633	6431
4.51700	6435
4.51767	6438
4.51833	6441
4.51900	6444
4.51967	6447
4.52033	6451
4.52100	6454
4.52167	6458
4.52233	6461
4.52300	6465
4.52367	6468
4.52433	6472
4.52500	6476
4.52567	6480
4.52633	6484
4.52700	6488
4.52767	6492
4.52833	6497
4.52900	6501
4.52967	6506
4.53033	6510
4.53100	6515
4.53167	6520
4.53233	6526
4.53300	6531
4.53367	6537
4.53433	6543
4.53500	6548
4.53567	6555
4.53633	6561
4.53700	6568
4.53767	6575
4.53833	6582
4.53900	6589
4.53967	6597
4.54033	6605
4.54100	6614
4.54167	6623
4.54233	6632
4.54300	6641
4.54367	6651
4.54433	6661
4.54500	6672
4.54567	6682
4.54633	6694
4.54700	6705
4.54767	6717
4.54833	6729
4.54900	6742
4.54967	6755
4.55033	6768
4.55100	6782
4.55167	6796
4.55233	6811
4.55300	6826
4.55367	6841
4.55433	6857
4.55500	6873
4.55567	6889
4.55633	6906
4.55700	6923
4.55767	6940
4.55833	6958
4.55900	6976
4.55967	6995
4.56033	7013
4.56100	7032
4.56167	7052
4.56233	7072
4.56300	7092
4.56367	7112
4.56433	7133
4.56500	7154
4.56567	7175
4.56633	7197
4.56700	7218
4.56767	7241
4.56833	7263
4.56900	7286
4.56967	7308
4.57033	7331
4.57100	7355
4.57167	7378
4.57233	7402
4.57300	7426
4.57367	7450
4.57433	7475
4.57500	7499
4.57567	7524
4.57633	7548
4.57700	7573
4.57767	7598
4.57833	7623
4.57900	7648
4.57967	7673
4.58033	7698
4.58100	7723
4.58167	7748
4.58233	7773
4.58300	7798
4.58367	7822
4.58433	7847
4.58500	7872
4.58567	7896
4.58633	7921
4.58700	7945
4.58767	7970
4.58833	7994
4.58900	8018
4.58967	8042
4.59033	8065
4.59100	8089
4.59167	8112
4.59233	8136
4.59300	8159
4.59367	8182
4.59433	8204
4.59500	8227
4.59567	8249
4.59633	8271
4.59700	8293
4.59767	8315
4.59833	8336
4.59900	8357
4.59967	8378
4.60033	8398
4.60100	8418
4.60167	8438
4.60233	8457
4.60300	8476
4.60367	8494
4.60433	8512
4.60500	8529
4.60567	8547
4.60633	8563
4.60700	8579
4.60767	8595
4.60833	8610
4.60900	8625
4.60967	8640
4.61033	8654
4.61100	8667
4.61167	8680
4.61233	8692
4.61300	8704
4.61367	8716
4.61433	8727
4.61500	8737
4.61567	8747
4.61633	8757
4.61700	8766
4.61767	8774
4.61833	8783
4.61900	8790
4.61967	8797
4.62033	8804
4.62100	8810
4.62167	8816
4.62233	8821
4.62300	8826
4.62367	8830
4.62433	8834
4.62500	8837
4.62567	8840
4.62633	8842
4.62700	8844
4.62767	8846
4.62833	8847
4.62900	8848
4.62967	8848
4.63033	8847
4.63100	8847
4.63167	8845
4.63233	8844
4.63300	8842
4.63367	8840
4.63433	8837
4.63500	8834
4.63567	8830
4.63633	8827
4.63700	8822
4.63767	8818
4.63833	8813
4.63900	8808
4.63967	8803
4.64033	8797
4.64100	8791
4.64167	8785
4.64233	8778
4.64300	8771
4.64367	8764
4.64433	8756
4.64500	8748
4.64567	8740
4.64633	8731
4.64700	8723
4.64767	8714
4.64833	8704
4.64900	8694
4.64967	8685
4.65033	8674
4.65100	8664
4.65167	8653
4.65233	8642
4.65300	8631
4.65367	8620
4.65433	8609
4.65500	8597
4.65567	8586
4.65633	8574
4.65700	8562
4.65767	8550
4.65833	8537
4.65900	8525
4.65967	8512
4.66033	8500
4.66100	8487
4.66167	8474
4.66233	8461
4.66300	8448
4.66367	8435
4.66433	8421
4.66500	8408
4.66567	8394
4.66633	8381
4.66700	8367
4.66767	8353
4.66833	8340
4.66900	8326
4.66967	8312
4.67033	8298
4.67100	8284
4.67167	8270
4.67233	8256
4.67300	8242
4.67367	8228
4.67433	8214
4.67500	8200
4.67567	8187
4.67633	8173
4.67700	8159
4.67767	8145
4.67833	8131
4.67900	8117
4.67967	8103
4.68033	8090
4.68100	8076
4.68167	8062
4.68233	8049
4.68300	8035
4.68367	8022
4.68433	8008
4.68500	7995
4.68567	7981
4.68633	7968
4.68700	7955
4.68767	7941
4.68833	7928
4.68900	7915
4.68967	7902
4.69033	7889
4.69100	7877
4.69167	7864
4.69233	7851
4.69300	7839
4.69367	7826
4.69433	7814
4.69500	7802
4.69567	7789
4.69633	7777
4.69700	7765
4.69767	7753
4.69833	7741
4.69900	7729
4.69967	7717
4.70033	7706
4.70100	7694
4.70167	7683
4.70233	7671
4.70300	7660
4.70367	7648
4.70433	7637
4.70500	7626
4.70567	7615
4.70633	7604
4.70700	7593
4.70767	7582
4.70833	7572
4.70900	7561
4.70967	7550
4.71033	7540
4.71100	7529
4.71167	7519
4.71233	7508
4.71300	7498
4.71367	7487
4.71433	7477
4.71500	7467
4.71567	7457
4.71633	7447
4.71700	7437
4.71767	7427
4.71833	7417
4.71900	7407
4.71967	7398
4.72033	7388
4.72100	7379
4.72167	7370
4.72233	7360
4.72300	7351
4.72367	7342
4.72433	7333
4.72500	7325
4.72567	7316
4.72633	7308
4.72700	7299
4.72767	7291
4.72833	7282
4.72900	7274
4.72967	7266
4.73033	7257
4.73100	7249
4.73167	7241
4.73233	7233
4.73300	7225
4.73367	7217
4.73433	7209
4.73500	7201
4.73567	7193
4.73633	7185
4.73700	7177
4.73767	7170
4.73833	7162
4.73900	7154
4.73967	7147
4.74033	7140
4.74100	7132
4.74167	7125
4.74233	7118
4.74300	7110
4.74367	7103
4.74433	7096
4.74500	7089
4.74567	7082
4.74633	7075
4.74700	7068
4.74767	7061
4.74833	7054
4.74900	7048
4.74967	7041
4.75033	7034
4.75100	7028
4.75167	7022
4.75233	7015
4.75300	7009
4.75367	7003
4.75433	6996
4.75500	6990
4.75567	6984
4.75633	6978
4.75700	6972
4.75767	6966
4.75833	6960
4.75900	6954
4.75967	6948
4.76033	6942
4.76100	6936
4.76167	6930
4.76233	6924
4.76300	6918
4.76367	6913
4.76433	6907
4.76500	6901
4.76567	6895
4.76633	6890
4.76700	6884
4.76767	6879
4.76833	6873
4.76900	6868
4.76967	6862
4.77033	6857
4.77100	6851
4.77167	6846
4.77233	6841
4.77300	6835
4.77367	6830
4.77433	6825
4.77500	6820
4.77567	6814
4.77633	6809
4.77700	6804
4.77767	6799
4.77833	6794
4.77900	6788
4.77967	6783
4.78033	6778
4.78100	6773
4.78167	6768
4.78233	6763
4.78300	6758
4.78367	6753
4.78433	6749
4.78500	6744
4.78567	6739
4.78633	6734
4.78700	6729
4.78767	6725
4.78833	6720
4.78900	6715
4.78967	6711
4.79033	6706
4.79100	6702
4.79167	6697
4.79233	6692
4.79300	6688
4.79367	6683
4.79433	6679
4.79500	6674
4.79567	6669
4.79633	6665
4.79700	6660
4.79767	6656
4.79833	6651
4.79900	6647
4.79967	6642
4.80033	6638
4.80100	6634
4.80167	6629
4.80233	6625
4.80300	6620
4.80367	6616
4.80433	6612
4.80500	6608
4.80567	6603
4.80633	6599
4.80700	6595
4.80767	6591
4.80833	6587
4.80900	6583
4.80967	6579
4.81033	6575
4.81100	6571
4.81167	6567
4.81233	6563
4.81300	6559
4.81367	6555
4.81433	6551
4.81500	6547
4.81567	6544
4.81633	6540
4.81700	6536
4.81767	6532
4.81833	6529
4.81900	6525
4.81967	6521
4.82033	6517
4.82100	6513
4.82167	6510
4.82233	6506
4.82300	6502
4.82367	6498
4.82433	6495
4.82500	6491
4.82567	6487
4.82633	6483
4.82700	6479
4.82767	6476
4.82833	6472
4.82900	6468
4.82967	6465
4.83033	6461
4.83100	6457
4.83167	6454
4.83233	6450
4.83300	6447
4.83367	6443
4.83433	6440
4.83500	6436
4.83567	6433
4.83633	6429
4.83700	6425
4.83767	6422
4.83833	6418
4.83900	6414
4.83967	6411
4.84033	6407
4.84100	6403
4.84167	6400
4.84233	6396
4.84300	6392
4.84367	6388
4.84433	6384
4.84500	6381
4.84567	6377
4.84633	6373
4.84700	6369
4.84767	6365
4.84833	6360
4.84900	6356
4.84967	6352
4.85033	6348
4.85100	6344
4.85167	6340
4.85233	6336
4.85300	6332
4.85367	6328
4.85433	6324
4.85500	6320
4.85567	6316
4.85633	6311
4.85700	6307
4.85767	6303
4.85833	6299
4.85900	6295
4.85967	6291
4.86033	6287
4.86100	6283
4.86167	6280
4.86233	6276
4.86300	6272
4.86367	6268
4.86433	6264
4.86500	6260
4.86567	6256
4.86633	6252
4.86700	6248
4.86767	6244
4.86833	6240
4.86900	6236
4.86967	6232
4.87033	6228
4.87100	6224
4.87167	6220
4.87233	6215
4.87300	6211
4.87367	6207
4.87433	6203
4.87500	6199
4.87567	6194
4.87633	6190
4.87700	6186
4.87767	6182
4.87833	6178
4.87900	6174
4.87967	6170
4.88033	6166
4.88100	6162
4.88167	6158
4.88233	6154
4.88300	6150
4.88367	6146
4.88433	6142
4.88500	6139
4.88567	6135
4.88633	6131
4.88700	6127
4.88767	6124
4.88833	6120
4.88900	6116
4.88967	6113
4.89033	6109
4.89100	6106
4.89167	6102
4.89233	6098
4.89300	6095
4.89367	6091
4.89433	6088
4.89500	6084
4.89567	6081
4.89633	6077
4.89700	6074
4.89767	6071
4.89833	6067
4.89900	6064
4.89967	6061
4.90033	6057
4.90100	6054
4.90167	6051
4.90233	6048
4.90300	6044
4.90367	6041
4.90433	6038
4.90500	6035
4.90567	6032
4.90633	6029
4.90700	6026
4.90767	6023
4.90833	6020
4.90900	6017
4.90967	6014
4.91033	6011
4.91100	6008
4.91167	6006
4.91233	6003
4.91300	6000
4.91367	5997
4.91433	5994
4.91500	5992
4.91567	5989
4.91633	5986
4.91700	5983
4.91767	5981
4.91833	5978
4.91900	5975
4.91967	5973
4.92033	5970
4.92100	5967
4.92167	5965
4.92233	5962
4.92300	5960
4.92367	5957
4.92433	5954
4.92500	5952
4.92567	5949
4.92633	5947
4.92700	5944
4.92767	5942
4.92833	5939
4.92900	5937
4.92967	5934
4.93033	5932
4.93100	5929
4.93167	5927
4.93233	5924
4.93300	5922
4.93367	5919
4.93433	5917
4.93500	5914
4.93567	5912
4.93633	5909
4.93700	5907
4.93767	5905
4.93833	5902
4.93900	5900
4.93967	5897
4.94033	5895
4.94100	5893
4.94167	5890
4.94233	5888
4.94300	5886
4.94367	5884
4.94433	5881
4.94500	5879
4.94567	5877
4.94633	5875
4.94700	5873
4.94767	5871
4.94833	5869
4.94900	5867
4.94967	5865
4.95033	5863
4.95100	5861
4.95167	5859
4.95233	5857
4.95300	5855
4.95367	5853
4.95433	5851
4.95500	5849
4.95567	5847
4.95633	5845
4.95700	5843
4.95767	5840
4.95833	5838
4.95900	5836
4.95967	5834
4.96033	5832
4.96100	5829
4.96167	5827
4.96233	5825
4.96300	5823
4.96367	5820
4.96433	5818
4.96500	5816
4.96567	5814
4.96633	5812
4.96700	5809
4.96767	5807
4.96833	5805
4.96900	5803
4.96967	5801
4.97033	5799
4.97100	5797
4.97167	5795
4.97233	5793
4.97300	5791
4.97367	5789
4.97433	5786
4.97500	5784
4.97567	5782
4.97633	5780
4.97700	5778
4.97767	5776
4.97833	5774
4.97900	5772
4.97967	5770
4.98033	5768
4.98100	5766
4.98167	5764
4.98233	5762
4.98300	5760
4.98367	5758
4.98433	5756
4.98500	5754
4.98567	5752
4.98633	5750
4.98700	5748
4.98767	5746
4.98833	5744
4.98900	5742
4.98967	5740
4.99033	5738
4.99100	5736
4.99167	5734
4.99233	5732
4.99300	5730
4.99367	5728
4.99433	5726
4.99500	5724
4.99567	5722
4.99633	5720
4.99700	5718
4.99767	5715
4.99833	5713
4.99900	5711
4.99967	5709
5.00033	5707
5.00100	5705
5.00167	5703
5.00233	5701
5.00300	5699
5.00367	5697
5.00433	5695
5.00500	5692
5.00567	5690
5.00633	5688
5.00700	5686
5.00767	5684
5.00833	5682
5.00900	5680
5.00967	5677
5.01033	5675
5.01100	5673
5.01167	5671
5.01233	5669
5.01300	5667
5.01367	5664
5.01433	5662
5.01500	5660
5.01567	5658
5.01633	5656
5.01700	5653
5.01767	5651
5.01833	5649
5.01900	5647
5.01967	5645
5.02033	5642
5.02100	5640
5.02167	5638
5.02233	5636
5.02300	5633
5.02367	5631
5.02433	5629
5.02500	5626
5.02567	5624
5.02633	5622
5.02700	5619
5.02767	5617
5.02833	5615
5.02900	5612
5.02967	5610
5.03033	5608
5.03100	5605
5.03167	5603
5.03233	5600
5.03300	5598
5.03367	5595
5.03433	5593
5.03500	5590
5.03567	5588
5.03633	5585
5.03700	5583
5.03767	5580
5.03833	5578
5.03900	5576
5.03967	5573
5.04033	5571
5.04100	5568
5.04167	5566
5.04233	5563
5.04300	5561
5.04367	5559
5.04433	5556
5.04500	5554
5.04567	5551
5.04633	5549
5.04700	5546
5.04767	5544
5.04833	5541
5.04900	5539
5.04967	5537
5.05033	5534
5.05100	5532
5.05167	5529
5.05233	5527
5.05300	5525
5.05367	5522
5.05433	5520
5.05500	5518
5.05567	5515
5.05633	5513
5.05700	5511
5.05767	5508
5.05833	5506
5.05900	5504
5.05967	5502
5.06033	5499
5.06100	5497
5.06167	5495
5.06233	5493
5.06300	5490
5.06367	5488
5.06433	5486
5.06500	5484
5.06567	5482
5.06633	5480
5.06700	5478
5.06767	5476
5.06833	5474
5.06900	5472
5.06967	5470
5.07033	5468
5.07100	5466
5.07167	5464
5.07233	5462
5.07300	5460
5.07367	5458
5.07433	5456
5.07500	5455
5.07567	5453
5.07633	5451
5.07700	5449
5.07767	5447
5.07833	5446
5.07900	5444
5.07967	5442
5.08033	5441
5.08100	5439
5.08167	5437
5.08233	5436
5.08300	5434
5.08367	5432
5.08433	5431
5.08500	5429
5.08567	5428
5.08633	5426
5.08700	5424
5.08767	5423
5.08833	5421
5.08900	5420
5.08967	5418
5.09033	5416
5.09100	5415
5.09167	5414
5.09233	5412
5.09300	5411
5.09367	5409
5.09433	5408
5.09500	5406
5.09567	5405
5.09633	5404
5.09700	5402
5.09767	5401
5.09833	5399
5.09900	5398
5.09967	5397
5.10033	5395
5.10100	5394
5.10167	5393
5.10233	5392
5.10300	5390
5.10367	5389
5.10433	5388
5.10500	5387
5.10567	5386
5.10633	5385
5.10700	5384
5.10767	5383
5.10833	5382
5.10900	5381
5.10967	5380
5.11033	5379
5.11100	5378
5.11167	5378
5.11233	5377
5.11300	5376
5.11367	5375
5.11433	5375
5.11500	5374
5.11567	5373
5.11633	5373
5.11700	5372
5.11767	5372
5.11833	5371
5.11900	5371
5.11967	5371
5.12033	5370
5.12100	5370
5.12167	5369
5.12233	5369
5.12300	5369
5.12367	5368
5.12433	5368
5.12500	5368
5.12567	5368
5.12633	5367
5.12700	5367
5.12767	5367
5.12833	5367
5.12900	5367
5.12967	5367
5.13033	5367
5.13100	5367
5.13167	5367
5.13233	5367
5.13300	5367
5.13367	5367
5.13433	5368
5.13500	5368
5.13567	5369
5.13633	5369
5.13700	5370
5.13767	5370
5.13833	5371
5.13900	5372
5.13967	5373
5.14033	5374
5.14100	5375
5.14167	5376
5.14233	5377
5.14300	5379
5.14367	5380
5.14433	5381
5.14500	5382
5.14567	5384
5.14633	5385
5.14700	5387
5.14767	5388
5.14833	5390
5.14900	5391
5.14967	5393
5.15033	5395
5.15100	5397
5.15167	5399
5.15233	5401
5.15300	5403
5.15367	5405
5.15433	5408
5.15500	5410
5.15567	5412
5.15633	5415
5.15700	5418
5.15767	5421
5.15833	5424
5.15900	5427
5.15967	5430
5.16033	5433
5.16100	5436
5.16167	5439
5.16233	5443
5.16300	5446
5.16367	5450
5.16433	5454
5.16500	5458
5.16567	5462
5.16633	5466
5.16700	5470
5.16767	5474
5.16833	5478
5.16900	5482
5.16967	5487
5.17033	5491
5.17100	5496
5.17167	5501
5.17233	5505
5.17300	5510
5.17367	5515
5.17433	5520
5.17500	5526
5.17567	5531
5.17633	5536
5.17700	5542
5.17767	5547
5.17833	5553
5.17900	5559
5.17967	5564
5.18033	5570
5.18100	5576
5.18167	5582
5.18233	5588
5.18300	5595
5.18367	5601
5.18433	5607
5.18500	5613
5.18567	5620
5.18633	5626
5.18700	5633
5.18767	5639
5.18833	5646
5.18900	5652
5.18967	5659
5.19033	5665
5.19100	5672
5.19167	5678
5.19233	5685
5.19300	5691
5.19367	5698
5.19433	5704
5.19500	5710
5.19567	5717
5.19633	5723
5.19700	5729
5.19767	5735
5.19833	5742
5.19900	5748
5.19967	5754
5.20033	5760
5.20100	5766
5.20167	5772
5.20233	5778
5.20300	5784
5.20367	5790
5.20433	5796
5.20500	5802
5.20567	5808
5.20633	5814
5.20700	5820
5.20767	5825
5.20833	5831
5.20900	5837
5.20967	5842
5.21033	5848
5.21100	5853
5.21167	5858
5.21233	5864
5.21300	5869
5.21367	5874
5.21433	5879
5.21500	5884
5.21567	5889
5.21633	5893
5.21700	5898
5.21767	5902
5.21833	5907
5.21900	5911
5.21967	5915
5.22033	5919
5.22100	5923
5.22167	5926
5.22233	5930
5.22300	5933
5.22367	5937
5.22433	5940
5.22500	5943
5.22567	5946
5.22633	5949
5.22700	5952
5.22767	5954
5.22833	5957
5.22900	5959
5.22967	5961
5.23033	5964
5.23100	5966
5.23167	5968
5.23233	5969
5.23300	5971
5.23367	5973
5.23433	5974
5.23500	5975
5.23567	5976
5.23633	5977
5.23700	5978
5.23767	5979
5.23833	5979
5.23900	5980
5.23967	5980
5.24033	5980
5.24100	5980
5.24167	5980
5.24233	5980
5.24300	5980
5.24367	5980
5.24433	5979
5.24500	5978
5.24567	5978
5.24633	5977
5.24700	5976
5.24767	5975
5.24833	5973
5.24900	5972
5.24967	5970
5.25033	5969
5.25100	5967
5.25167	5965
5.25233	5964
5.25300	5962
5.25367	5960
5.25433	5957
5.25500	5955
5.25567	5953
5.25633	5950
5.25700	5948
5.25767	5945
5.25833	5943
5.25900	5940
5.25967	5937
5.26033	5934
5.26100	5931
5.26167	5928
5.26233	5925
5.26300	5922
5.26367	5919
5.26433	5915
5.26500	5912
5.26567	5908
5.26633	5905
5.26700	5901
5.26767	5897
5.26833	5894
5.26900	5890
5.26967	5886
5.27033	5882
5.27100	5878
5.27167	5874
5.27233	5870
5.27300	5866
5.27367	5862
5.27433	5857
5.27500	5853
5.27567	5849
5.27633	5844
5.27700	5840
5.27767	5835
5.27833	5831
5.27900	5827
5.27967	5822
5.28033	5818
5.28100	5813
5.28167	5809
5.28233	5804
5.28300	5800
5.28367	5795
5.28433	5791
5.28500	5786
5.28567	5782
5.28633	5778
5.28700	5773
5.28767	5769
5.28833	5764
5.28900	5760
5.28967	5755
5.29033	5751
5.29100	5747
5.29167	5742
5.29233	5738
5.29300	5733
5.29367	5729
5.29433	5724
5.29500	5720
5.29567	5715
5.29633	5711
5.29700	5706
5.29767	5702
5.29833	5697
5.29900	5693
5.29967	5688
5.30033	5684
5.30100	5679
5.30167	5675
5.30233	5670
5.30300	5666
5.30367	5662
5.30433	5657
5.30500	5653
5.30567	5649
5.30633	5644
5.30700	5640
5.30767	5636
5.30833	5631
5.30900	5627
5.30967	5623
5.31033	5618
5.31100	5614
5.31167	5610
5.31233	5605
5.31300	5601
5.31367	5597
5.31433	5593
5.31500	5588
5.31567	5584
5.31633	5580
5.31700	5576
5.31767	5572
5.31833	5568
5.31900	5564
5.31967	5559
5.32033	5555
5.32100	5552
5.32167	5548
5.32233	5544
5.32300	5540
5.32367	5536
5.32433	5532
5.32500	5528
5.32567	5525
5.32633	5521
5.32700	5517
5.32767	5514
5.32833	5510
5.32900	5507
5.32967	5503
5.33033	5500
5.33100	5496
5.33167	5493
5.33233	5489
5.33300	5486
5.33367	5482
5.33433	5479
5.33500	5476
5.33567	5473
5.33633	5469
5.33700	5466
5.33767	5463
5.33833	5459
5.33900	5456
5.33967	5453
5.34033	5450
5.34100	5446
5.34167	5443
5.34233	5440
5.34300	5437
5.34367	5434
5.34433	5431
5.34500	5428
5.34567	5425
5.34633	5422
5.34700	5419
5.34767	5416
5.34833	5414
5.34900	5411
5.34967	5408
5.35033	5406
5.35100	5403
5.35167	5400
5.35233	5398
5.35300	5395
5.35367	5393
5.35433	5390
5.35500	5388
5.35567	5386
5.35633	5383
5.35700	5381
5.35767	5379
5.35833	5377
5.35900	5375
5.35967	5373
5.36033	5371
5.36100	5369
5.36167	5367
5.36233	5365
5.36300	5363
5.36367	5361
5.36433	5359
5.36500	5357
5.36567	5355
5.36633	5353
5.36700	5351
5.36767	5350
5.36833	5348
5.36900	5347
5.36967	5345
5.37033	5343
5.37100	5342
5.37167	5340
5.37233	5339
5.37300	5337
5.37367	5336
5.37433	5334
5.37500	5332
5.37567	5331
5.37633	5329
5.37700	5328
5.37767	5326
5.37833	5324
5.37900	5323
5.37967	5321
5.38033	5320
5.38100	5318
5.38167	5317
5.38233	5315
5.38300	5314
5.38367	5312
5.38433	5311
5.38500	5309
5.38567	5308
5.38633	5306
5.38700	5305
5.38767	5303
5.38833	5302
5.38900	5300
5.38967	5299
5.39033	5297
5.39100	5296
5.39167	5294
5.39233	5293
5.39300	5292
5.39367	5290
5.39433	5289
5.39500	5287
5.39567	5286
5.39633	5284
5.39700	5283
5.39767	5282
5.39833	5280
5.39900	5279
5.39967	5277
5.40033	5276
5.40100	5275
5.40167	5273
5.40233	5272
5.40300	5270
5.40367	5269
5.40433	5267
5.40500	5266
5.40567	5264
5.40633	5263
5.40700	5261
5.40767	5260
5.40833	5258
5.40900	5256
5.40967	5255
5.41033	5253
5.41100	5252
5.41167	5250
5.41233	5249
5.41300	5247
5.41367	5246
5.41433	5244
5.41500	5243
5.41567	5241
5.41633	5239
5.41700	5238
5.41767	5236
5.41833	5235
5.41900	5233
5.41967	5231
5.42033	5230
5.42100	5228
5.42167	5227
5.42233	5225
5.42300	5224
5.42367	5222
5.42433	5221
5.42500	5219
5.42567	5217
5.42633	5216
5.42700	5214
5.42767	5212
5.42833	5211
5.42900	5209
5.42967	5207
5.43033	5205
5.43100	5203
5.43167	5202
5.43233	5200
5.43300	5198
5.43367	5196
5.43433	5194
5.43500	5192
5.43567	5191
5.43633	5189
5.43700	5187
5.43767	5185
5.43833	5183
5.43900	5182
5.43967	5180
5.44033	5178
5.44100	5176
5.44167	5174
5.44233	5172
5.44300	5170
5.44367	5169
5.44433	5167
5.44500	5165
5.44567	5163
5.44633	5161
5.44700	5159
5.44767	5158
5.44833	5156
5.44900	5154
5.44967	5152
5.45033	5150
5.45100	5148
5.45167	5146
5.45233	5144
5.45300	5142
5.45367	5140
5.45433	5138
5.45500	5136
5.45567	5134
5.45633	5132
5.45700	5130
5.45767	5128
5.45833	5126
5.45900	5124
5.45967	5122
5.46033	5121
5.46100	5119
5.46167	5117
5.46233	5115
5.46300	5113
5.46367	5111
5.46433	5109
5.46500	5107
5.46567	5105
5.46633	5103
5.46700	5101
5.46767	5099
5.46833	5097
5.46900	5095
5.46967	5093
5.47033	5091
5.47100	5089
5.47167	5087
5.47233	5085
5.47300	5083
5.47367	5081
5.47433	5079
5.47500	5077
5.47567	5075
5.47633	5073
5.47700	5072
5.47767	5070
5.47833	5068
5.47900	5066
5.47967	5064
5.48033	5063
5.48100	5061
5.48167	5059
5.48233	5057
5.48300	5056
5.48367	5054
5.48433	5052
5.48500	5050
5.48567	5048
5.48633	5047
5.48700	5045
5.48767	5043
5.48833	5041
5.48900	5039
5.48967	5038
5.49033	5036
5.49100	5034
5.49167	5032
5.49233	5030
5.49300	5029
5.49367	5027
5.49433	5025
5.49500	5023
5.49567	5021
5.49633	5020
5.49700	5018
5.49767	5016
5.49833	5014
5.49900	5013
5.49967	5011
5.50033	5010
5.50100	5008
5.50167	5006
5.50233	5005
5.50300	5003
5.50367	5002
5.50433	5000
5.50500	4999
5.50567	4997
5.50633	4996
5.50700	4994
5.50767	4993
5.50833	4991
5.50900	4990
5.50967	4988
5.51033	4987
5.51100	4985
5.51167	4984
5.51233	4982
5.51300	4981
5.51367	4979
5.51433	4978
5.51500	4977
5.51567	4975
5.51633	4974
5.51700	4973
5.51767	4971
5.51833	4970
5.51900	4969
5.51967	4968
5.52033	4966
5.52100	4965
5.52167	4964
5.52233	4963
5.52300	4962
5.52367	4960
5.52433	4959
5.52500	4958
5.52567	4957
5.52633	4956
5.52700	4954
5.52767	4953
5.52833	4952
5.52900	4951
5.52967	4950
5.53033	4949
5.53100	4948
5.53167	4947
5.53233	4946
5.53300	4945
5.53367	4944
5.53433	4943
5.53500	4943
5.53567	4942
5.53633	4941
5.53700	4940
5.53767	4939
5.53833	4938
5.53900	4938
5.53967	4937
5.54033	4936
5.54100	4935
5.54167	4934
5.54233	4934
5.54300	4933
5.54367	4932
5.54433	4931
5.54500	4930
5.54567	4930
5.54633	4929
5.54700	4928
5.54767	4928
5.54833	4927
5.54900	4926
5.54967	4926
5.55033	4925
5.55100	4924
5.55167	4924
5.55233	4923
5.55300	4923
5.55367	4922
5.55433	4922
5.55500	4921
5.55567	4921
5.55633	4920
5.55700	4920
5.55767	4919
5.55833	4919
5.55900	4918
5.55967	4918
5.56033	4917
5.56100	4917
5.56167	4916
5.56233	4916
5.56300	4916
5.56367	4915
5.56433	4915
5.56500	4915
5.56567	4914
5.56633	4914
5.56700	4914
5.56767	4913
5.56833	4913
5.56900	4913
5.56967	4912
5.57033	4912
5.57100	4912
5.57167	4912
5.57233	4911
5.57300	4911
5.57367	4911
5.57433	4910
5.57500	4910
5.57567	4910
5.57633	4909
5.57700	4909
5.57767	4909
5.57833	4908
5.57900	4908
5.57967	4907
5.58033	4907
5.58100	4907
5.58167	4906
5.58233	4906
5.58300	4906
5.58367	4906
5.58433	4905
5.58500	4905
5.58567	4905
5.58633	4904
5.58700	4904
5.58767	4904
5.58833	4903
5.58900	4903
5.58967	4903
5.59033	4902
5.59100	4902
5.59167	4902
5.59233	4902
5.59300	4901
5.59367	4901
5.59433	4901
5.59500	4901
5.59567	4900
5.59633	4900
5.59700	4900
5.59767	4900
5.59833	4899
5.59900	4899
5.59967	4899
5.60033	4899
5.60100	4899
5.60167	4898
5.60233	4898
5.60300	4898
5.60367	4898
5.60433	4898
5.60500	4898
5.60567	4897
5.60633	4897
5.60700	4897
5.60767	4897
5.60833	4897
5.60900	4896
5.60967	4896
5.61033	4896
5.61100	4895
5.61167	4895
5.61233	4894
5.61300	4894
5.61367	4893
5.61433	4893
5.61500	4892
5.61567	4892
5.61633	4891
5.61700	4891
5.61767	4890
5.61833	4890
5.61900	4889
5.61967	4888
5.62033	4888
5.62100	4887
5.62167	4887
5.62233	4886
5.62300	4885
5.62367	4885
5.62433	4884
5.62500	4884
5.62567	4883
5.62633	4882
5.62700	4881
5.62767	4881
5.62833	4880
5.62900	4879
5.62967	4879
5.63033	4878
5.63100	4877
5.63167	4876
5.63233	4876
5.63300	4875
5.63367	4874
5.63433	4873
5.63500	4872
5.63567	4871
5.63633	4870
5.63700	4870
5.63767	4869
5.63833	4868
5.63900	4867
5.63967	4866
5.64033	4865
5.64100	4864
5.64167	4863
5.64233	4862
5.64300	4861
5.64367	4860
5.64433	4859
5.64500	4858
5.64567	4857
5.64633	4856
5.64700	4855
5.64767	4854
5.64833	4853
5.64900	4852
5.64967	4851
5.65033	4850
5.65100	4849
5.65167	4847
5.65233	4846
5.65300	4845
5.65367	4844
5.65433	4842
5.65500	4841
5.65567	4840
5.65633	4839
5.65700	4838
5.65767	4836
5.65833	4835
5.65900	4834
5.65967	4832
5.66033	4831
5.66100	4830
5.66167	4828
5.66233	4827
5.66300	4826
5.66367	4824
5.66433	4823
5.66500	4821
5.66567	4820
5.66633	4818
5.66700	4817
5.66767	4816
5.66833	4814
5.66900	4813
5.66967	4811
5.67033	4810
5.67100	4808
5.67167	4807
5.67233	4805
5.67300	4804
5.67367	4802
5.67433	4801
5.67500	4799
5.67567	4798
5.67633	4796
5.67700	4795
5.67767	4793
5.67833	4792
5.67900	4791
5.67967	4789
5.68033	4788
5.68100	4786
5.68167	4785
5.68233	4784
5.68300	4782
5.68367	4781
5.68433	4780
5.68500	4779
5.68567	4777
5.68633	4776
5.68700	4775
5.68767	4774
5.68833	4773
5.68900	4771
5.68967	4770
5.69033	4769
5.69100	4768
5.69167	4767
5.69233	4766
5.69300	4765
5.69367	4764
5.69433	4763
5.69500	4762
5.69567	4761
5.69633	4760
5.69700	4759
5.69767	4758
5.69833	4757
5.69900	4755
5.69967	4754
5.70033	4753
5.70100	4752
5.70167	4751
5.70233	4750
5.70300	4749
5.70367	4748
5.70433	4747
5.70500	4746
5.70567	4745
5.70633	4744
5.70700	4743
5.70767	4742
5.70833	4741
5.70900	4741
5.70967	4740
5.71033	4739
5.71100	4738
5.71167	4737
5.71233	4736
5.71300	4735
5.71367	4734
5.71433	4733
5.71500	4732
5.71567	4731
5.71633	4730
5.71700	4730
5.71767	4729
5.71833	4728
5.71900	4727
5.71967	4726
5.72033	4725
5.72100	4724
5.72167	4723
5.72233	4722
5.72300	4721
5.72367	4720
5.72433	4719
5.72500	4718
5.72567	4717
5.72633	4716
5.72700	4715
5.72767	4714
5.72833	4713
5.72900	4712
5.72967	4711
5.73033	4710
5.73100	4709
5.73167	4708
5.73233	4707
5.73300	4706
5.73367	4705
5.73433	4704
5.73500	4704
5.73567	4703
5.73633	4702
5.73700	4701
5.73767	4700
5.73833	4700
5.73900	4699
5.73967	4698
5.74033	4697
5.74100	4697
5.74167	4696
5.74233	4695
5.74300	4695
5.74367	4694
5.74433	4693
5.74500	4693
5.74567	4692
5.74633	4691
5.74700	4691
5.74767	4690
5.74833	4689
5.74900	4689
5.74967	4688
5.75033	4687
5.75100	4687
5.75167	4686
5.75233	4685
5.75300	4685
5.75367	4684
5.75433	4684
5.75500	4683
5.75567	4683
5.75633	4682
5.75700	4682
5.75767	4681
5.75833	4681
5.75900	4680
5.75967	4680
5.76033	4679
5.76100	4679
5.76167	4678
5.76233	4678
5.76300	4678
5.76367	4677
5.76433	4677
5.76500	4676
5.76567	4676
5.76633	4676
5.76700	4675
5.76767	4675
5.76833	4675
5.76900	4674
5.76967	4674
5.77033	4673
5.77100	4673
5.77167	4673
5.77233	4672
5.77300	4672
5.77367	4672
5.77433	4671
5.77500	4671
5.77567	4671
5.77633	4670
5.77700	4670
5.77767	4670
5.77833	4669
5.77900	4669
5.77967	4669
5.78033	4668
5.78100	4668
5.78167	4668
5.78233	4667
5.78300	4667
5.78367	4667
5.78433	4666
5.78500	4666
5.78567	4666
5.78633	4666
5.78700	4666
5.78767	4666
5.78833	4666
5.78900	4666
5.78967	4666
5.79033	4666
5.79100	4666
5.79167	4666
5.79233	4666
5.79300	4666
5.79367	4666
5.79433	4667
5.79500	4667
5.79567	4667
5.79633	4667
5.79700	4667
5.79767	4668
5.79833	4668
5.79900	4668
5.79967	4668
5.80033	4669
5.80100	4669
5.80167	4669
5.80233	4669
5.80300	4670
5.80367	4670
5.80433	4671
5.80500	4671
5.80567	4671
5.80633	4672
5.80700	4672
5.80767	4672
5.80833	4673
5.80900	4673
5.80967	4673
5.81033	4674
5.81100	4674
5.81167	4674
5.81233	4675
5.81300	4675
5.81367	4676
5.81433	4676
5.81500	4676
5.81567	4677
5.81633	4677
5.81700	4677
5.81767	4678
5.81833	4678
5.81900	4678
5.81967	4679
5.82033	4679
5.82100	4679
5.82167	4680
5.82233	4680
5.82300	4680
5.82367	4680
5.82433	4681
5.82500	4681
5.82567	4681
5.82633	4682
5.82700	4682
5.82767	4682
5.82833	4683
5.82900	4683
5.82967	4683
5.83033	4683
5.83100	4683
5.83167	4683
5.83233	4683
5.83300	4683
5.83367	4683
5.83433	4683
5.83500	4683
5.83567	4683
5.83633	4683
5.83700	4683
5.83767	4683
5.83833	4683
5.83900	4683
5.83967	4683
5.84033	4683
5.84100	4683
5.84167	4683
5.84233	4683
5.84300	4682
5.84367	4682
5.84433	4682
5.84500	4682
5.84567	4682
5.84633	4682
5.84700	4681
5.84767	4681
5.84833	4681
5.84900	4681
5.84967	4681
5.85033	4680
5.85100	4680
5.85167	4680
5.85233	4680
5.85300	4679
5.85367	4679
5.85433	4679
5.85500	4679
5.85567	4678
5.85633	4678
5.85700	4678
5.85767	4678
5.85833	4678
5.85900	4678
5.85967	4678
5.86033	4678
5.86100	4678
5.86167	4678
5.86233	4678
5.86300	4678
5.86367	4678
5.86433	4678
5.86500	4677
5.86567	4677
5.86633	4677
5.86700	4677
5.86767	4677
5.86833	4677
5.86900	4677
5.86967	4676
5.87033	4676
5.87100	4676
5.87167	4676
5.87233	4676
5.87300	4675
5.87367	4675
5.87433	4675
5.87500	4675
5.87567	4674
5.87633	4674
5.87700	4674
5.87767	4673
5.87833	4673
5.87900	4673
5.87967	4673
5.88033	4672
5.88100	4672
5.88167	4672
5.88233	4671
5.88300	4671
5.88367	4671
5.88433	4670
5.88500	4670
5.88567	4669
5.88633	4669
5.88700	4668
5.88767	4668
5.88833	4667
5.88900	4667
5.88967	4667
5.89033	4666
5.89100	4666
5.89167	4665
5.89233	4665
5.89300	4664
5.89367	4664
5.89433	4663
5.89500	4663
5.89567	4662
5.89633	4662
5.89700	4661
5.89767	4661
5.89833	4660
5.89900	4660
5.89967	4660
5.90033	4659
5.90100	4659
5.90167	4658
5.90233	4658
5.90300	4658
5.90367	4657
5.90433	4657
5.90500	4656
5.90567	4656
5.90633	4655
5.90700	4655
5.90767	4655
5.90833	4654
5.90900	4654
5.90967	4653
5.91033	4653
5.91100	4652
5.91167	4652
5.91233	4652
5.91300	4651
5.91367	4651
5.91433	4651
5.91500	4650
5.91567	4650
5.91633	4649
5.91700	4649
5.91767	4649
5.91833	4649
5.91900	4648
5.91967	4648
5.92033	4648
5.92100	4648
5.92167	4647
5.92233	4647
5.92300	4647
5.92367	4647
5.92433	4646
5.92500	4646
5.92567	4646
5.92633	4646
5.92700	4645
5.92767	4645
5.92833	4645
5.92900	4645
5.92967	4645
5.93033	4645
5.93100	4645
5.93167	4645
5.93233	4645
5.93300	4644
5.93367	4644
5.93433	4644
5.93500	4644
5.93567	4644
5.93633	4644
5.93700	4644
5.93767	4644
5.93833	4644
5.93900	4643
5.93967	4643
5.94033	4643
5.94100	4643
5.94167	4643
5.94233	4643
5.94300	4643
5.94367	4643
5.94433	4643
5.94500	4643
5.94567	4643
5.94633	4643
5.94700	4643
5.94767	4643
5.94833	4643
5.94900	4643
5.94967	4643
5.95033	4643
5.95100	4643
5.95167	4643
5.95233	4643
5.95300	4643
5.95367	4644
5.95433	4644
5.95500	4644
5.95567	4644
5.95633	4644
5.95700	4644
5.95767	4644
5.95833	4644
5.95900	4644
5.95967	4644
5.96033	4644
5.96100	4644
5.96167	4644
5.96233	4644
5.96300	4644
5.96367	4644
5.96433	4645
5.96500	4645
5.96567	4645
5.96633	4645
5.96700	4645
5.96767	4645
5.96833	4646
5.96900	4646
5.96967	4646
5.97033	4646
5.97100	4647
5.97167	4647
5.97233	4647
5.97300	4647
5.97367	4648
5.97433	4648
5.97500	4648
5.97567	4648
5.97633	4649
5.97700	4649
5.97767	4649
5.97833	4650
5.97900	4650
5.97967	4650
5.98033	4651
5.98100	4651
5.98167	4651
5.98233	4651
5.98300	4652
5.98367	4652
5.98433	4652
5.98500	4653
5.98567	4653
5.98633	4653
5.98700	4653
5.98767	4653
5.98833	4654
5.98900	4654
5.98967	4654
5.99033	4654
5.99100	4654
5.99167	4654
5.99233	4654
5.99300	4654
5.99367	4655
5.99433	4655
5.99500	4655
5.99567	4655
5.99633	4655
5.99700	4655
5.99767	4655
5.99833	4655
5.99900	4655
5.99967	4655
6.00033	4655
6.00100	4655
6.00167	4655
6.00233	4655
6.00300	4655
6.00367	4655
6.00433	4656
6.00500	4656
6.00567	4656
6.00633	4656
6.00700	4656
6.00767	4656
6.00833	4656
6.00900	4656
6.00967	4656
6.01033	4656
6.01100	4656
6.01167	4656
6.01233	4657
6.01300	4657
6.01367	4657
6.01433	4657
6.01500	4657
6.01567	4657
6.01633	4656
6.01700	4656
6.01767	4656
6.01833	4656
6.01900	4656
6.01967	4656
6.02033	4656
6.02100	4656
6.02167	4656
6.02233	4656
6.02300	4655
6.02367	4655
6.02433	4655
6.02500	4655
6.02567	4655
6.02633	4655
6.02700	4655
6.02767	4655
6.02833	4655
6.02900	4654
6.02967	4654
6.03033	4654
6.03100	4654
6.03167	4654
6.03233	4653
6.03300	4653
6.03367	4653
6.03433	4653
6.03500	4653
6.03567	4652
6.03633	4652
6.03700	4652
6.03767	4652
6.03833	4651
6.03900	4651
6.03967	4651
6.04033	4650
6.04100	4650
6.04167	4650
6.04233	4649
6.04300	4649
6.04367	4649
6.04433	4648
6.04500	4648
6.04567	4648
6.04633	4647
6.04700	4647
6.04767	4647
6.04833	4646
6.04900	4646
6.04967	4645
6.05033	4645
6.05100	4645
6.05167	4644
6.05233	4644
6.05300	4643
6.05367	4643
6.05433	4642
6.05500	4642
6.05567	4642
6.05633	4641
6.05700	4641
6.05767	4640
6.05833	4640
6.05900	4639
6.05967	4639
6.06033	4638
6.06100	4638
6.06167	4638
6.06233	4637
6.06300	4637
6.06367	4636
6.06433	4636
6.06500	4635
6.06567	4635
6.06633	4634
6.06700	4634
6.06767	4634
6.06833	4633
6.06900	4633
6.06967	4632
6.07033	4632
6.07100	4631
6.07167	4631
6.07233	4630
6.07300	4630
6.07367	4629
6.07433	4629
6.07500	4628
6.07567	4628
6.07633	4627
6.07700	4627
6.07767	4626
6.07833	4626
6.07900	4625
6.07967	4625
6.08033	4624
6.08100	4623
6.08167	4623
6.08233	4622
6.08300	4622
6.08367	4621
6.08433	4620
6.08500	4620
6.08567	4619
6.08633	4618
6.08700	4618
6.08767	4617
6.08833	4616
6.08900	4616
6.08967	4615
6.09033	4615
6.09100	4614
6.09167	4613
6.09233	4613
6.09300	4612
6.09367	4611
6.09433	4610
6.09500	4610
6.09567	4609
6.09633	4608
6.09700	4608
6.09767	4607
6.09833	4606
6.09900	4606
6.09967	4605
6.10033	4604
6.10100	4604
6.10167	4603
6.10233	4603
6.10300	4602
6.10367	4601
6.10433	4601
6.10500	4600
6.10567	4599
6.10633	4598
6.10700	4598
6.10767	4597
6.10833	4596
6.10900	4595
6.10967	4595
6.11033	4594
6.11100	4593
6.11167	4592
6.11233	4591
6.11300	4591
6.11367	4590
6.11433	4589
6.11500	4588
6.11567	4587
6.11633	4587
6.11700	4586
6.11767	4585
6.11833	4584
6.11900	4583
6.11967	4583
6.12033	4582
6.12100	4581
6.12167	4580
6.12233	4579
6.12300	4578
6.12367	4577
6.12433	4577
6.12500	4576
6.12567	4575
6.12633	4574
6.12700	4573
6.12767	4573
6.12833	4572
6.12900	4571
6.12967	4570
6.13033	4570
6.13100	4569
6.13167	4568
6.13233	4567
6.13300	4566
6.13367	4566
6.13433	4565
6.13500	4564
6.13567	4563
6.13633	4562
6.13700	4562
6.13767	4561
6.13833	4560
6.13900	4559
6.13967	4558
6.14033	4558
6.14100	4557
6.14167	4556
6.14233	4555
6.14300	4554
6.14367	4553
6.14433	4552
6.14500	4552
6.14567	4551
6.14633	4550
6.14700	4549
6.14767	4548
6.14833	4547
6.14900	4546
6.14967	4546
6.15033	4545
6.15100	4544
6.15167	4543
6.15233	4542
6.15300	4541
6.15367	4540
6.15433	4539
6.15500	4539
6.15567	4538
6.15633	4537
6.15700	4536
6.15767	4535
6.15833	4534
6.15900	4533
6.15967	4532
6.16033	4531
6.16100	4530
6.16167	4530
6.16233	4529
6.16300	4528
6.16367	4527
6.16433	4526
6.16500	4526
6.16567	4525
6.16633	4524
6.16700	4523
6.16767	4523
6.16833	4522
6.16900	4521
6.16967	4521
6.17033	4520
6.17100	4519
6.17167	4519
6.17233	4518
6.17300	4518
6.17367	4517
6.17433	4517
6.17500	4516
6.17567	4515
6.17633	4515
6.17700	4514
6.17767	4514
6.17833	4513
6.17900	4512
6.17967	4512
6.18033	4511
6.18100	4510
6.18167	4510
6.18233	4509
6.18300	4508
6.18367	4508
6.18433	4507
6.18500	4506
6.18567	4506
6.18633	4505
6.18700	4505
6.18767	4504
6.18833	4503
6.18900	4503
6.18967	4502
6.19033	4502
6.19100	4501
6.19167	4501
6.19233	4500
6.19300	4500
6.19367	4499
6.19433	4499
6.19500	4498
6.19567	4498
6.19633	4498
6.19700	4498
6.19767	4497
6.19833	4497
6.19900	4497
6.19967	4497
6.20033	4497
6.20100	4496
6.20167	4496
6.20233	4496
6.20300	4496
6.20367	4496
6.20433	4496
6.20500	4495
6.20567	4495
6.20633	4495
6.20700	4495
6.20767	4494
6.20833	4494
6.20900	4494
6.20967	4494
6.21033	4494
6.21100	4493
6.21167	4493
6.21233	4493
6.21300	4493
6.21367	4493
6.21433	4493
6.21500	4492
6.21567	4492
6.21633	4492
6.21700	4492
6.21767	4492
6.21833	4491
6.21900	4491
6.21967	4491
6.22033	4491
6.22100	4490
6.22167	4490
6.22233	4490
6.22300	4490
6.22367	4490
6.22433	4490
6.22500	4489
6.22567	4489
6.22633	4489
6.22700	4489
6.22767	4489
6.22833	4489
6.22900	4489
6.22967	4489
6.23033	4489
6.23100	4489
6.23167	4490
6.23233	4490
6.23300	4490
6.23367	4490
6.23433	4490
6.23500	4490
6.23567	4490
6.23633	4490
6.23700	4491
6.23767	4491
6.23833	4491
6.23900	4492
6.23967	4492
6.24033	4492
6.24100	4493
6.24167	4493
6.24233	4493
6.24300	4494
6.24367	4494
6.24433	4494
6.24500	4495
6.24567	4495
6.24633	4496
6.24700	4496
6.24767	4496
6.24833	4497
6.24900	4497
6.24967	4497
6.25033	4498
6.25100	4498
6.25167	4498
6.25233	4499
6.25300	4499
6.25367	4499
6.25433	4499
6.25500	4500
6.25567	4500
6.25633	4500
6.25700	4500
6.25767	4501
6.25833	4501
6.25900	4501
6.25967	4501
6.26033	4501
6.26100	4502
6.26167	4502
6.26233	4502
6.26300	4502
6.26367	4502
6.26433	4502
6.26500	4503
6.26567	4503
6.26633	4503
6.26700	4503
6.26767	4503
6.26833	4504
6.26900	4504
6.26967	4504
6.27033	4504
6.27100	4504
6.27167	4504
6.27233	4505
6.27300	4505
6.27367	4505
6.27433	4505
6.27500	4505
6.27567	4505
6.27633	4505
6.27700	4505
6.27767	4505
6.27833	4505
6.27900	4506
6.27967	4506
6.28033	4506
6.28100	4506
6.28167	4506
6.28233	4505
6.28300	4505
6.28367	4505
6.28433	4505
6.28500	4505
6.28567	4505
6.28633	4505
6.28700	4504
6.28767	4504
6.28833	4504
6.28900	4504
6.28967	4503
6.29033	4503
6.29100	4503
6.29167	4502
6.29233	4502
6.29300	4502
6.29367	4501
6.29433	4501
6.29500	4501
6.29567	4500
6.29633	4500
6.29700	4500
6.29767	4499
6.29833	4499
6.29900	4499
6.29967	4498
6.30033	4498
6.30100	4497
6.30167	4497
6.30233	4497
6.30300	4496
6.30367	4496
6.30433	4496
6.30500	4495
6.30567	4495
6.30633	4495
6.30700	4494
6.30767	4494
6.30833	4494
6.30900	4493
6.30967	4493
6.31033	4492
6.31100	4492
6.31167	4492
6.31233	4491
6.31300	4491
6.31367	4490
6.31433	4490
6.31500	4490
6.31567	4489
6.31633	4489
6.31700	4489
6.31767	4488
6.31833	4488
6.31900	4488
6.31967	4487
6.32033	4487
6.32100	4487
6.32167	4487
6.32233	4486
6.32300	4486
6.32367	4486
6.32433	4485
6.32500	4485
6.32567	4484
6.32633	4484
6.32700	4484
6.32767	4483
6.32833	4483
6.32900	4482
6.32967	4482
6.33033	4481
6.33100	4481
6.33167	4481
6.33233	4480
6.33300	4480
6.33367	4479
6.33433	4479
6.33500	4479
6.33567	4478
6.33633	4478
6.33700	4478
6.33767	4477
6.33833	4477
6.33900	4477
6.33967	4476
6.34033	4476
6.34100	4476
6.34167	4475
6.34233	4475
6.34300	4475
6.34367	4474
6.34433	4474
6.34500	4474
6.34567	4474
6.34633	4473
6.34700	4473
6.34767	4473
6.34833	4473
6.34900	4472
6.34967	4472
6.35033	4472
6.35100	4471
6.35167	4471
6.35233	4470
6.35300	4470
6.35367	4470
6.35433	4469
6.35500	4469
6.35567	4468
6.35633	4468
6.35700	4467
6.35767	4467
6.35833	4466
6.35900	4466
6.35967	4465
6.36033	4465
6.36100	4464
6.36167	4464
6.36233	4463
6.36300	4462
6.36367	4462
6.36433	4461
6.36500	4461
6.36567	4460
6.36633	4460
6.36700	4459
6.36767	4459
6.36833	4458
6.36900	4458
6.36967	4457
6.37033	4457
6.37100	4456
6.37167	4456
6.37233	4455
6.37300	4455
6.37367	4455
6.37433	4454
6.37500	4454
6.37567	4453
6.37633	4453
6.37700	4452
6.37767	4452
6.37833	4451
6.37900	4451
6.37967	4451
6.38033	4450
6.38100	4450
6.38167	4449
6.38233	4449
6.38300	4449
6.38367	4448
6.38433	4448
6.38500	4448
6.38567	4447
6.38633	4447
6.38700	4447
6.38767	4447
6.38833	4446
6.38900	4446
6.38967	4446
6.39033	4446
6.39100	4446
6.39167	4445
6.39233	4445
6.39300	4445
6.39367	4445
6.39433	4445
6.39500	4445
6.39567	4444
6.39633	4444
6.39700	4444
6.39767	4444
6.39833	4443
6.39900	4443
6.39967	4443

