[Header]
Application Name	LabSolutions
Version	5.73
Data File Name	C:\LabSolutions\Data\Project1\stephen\2016-01-06\75.gcd
Output Date	1/11/2016
Output Time	1:19:54 PM

[Configuration]
Instrument Name	WEISSTA-PC-Instrument1
Instrument #	1
Line #	1
# of Detectors	1
Detector ID	DET#2
Detector Name	DFID1
# of Channels	1

[Chromatogram (Ch1)]
Interval(msec)	40
# of Points	9600
Start Time(min)	0.000
End Time(min)	6.400
R.Time (min)	Intensity
0.00033	2
0.00100	2
0.00167	1
0.00233	1
0.00300	1
0.00367	1
0.00433	1
0.00500	1
0.00567	1
0.00633	1
0.00700	1
0.00767	1
0.00833	1
0.00900	1
0.00967	0
0.01033	0
0.01100	-0
0.01167	-1
0.01233	-2
0.01300	-3
0.01367	-4
0.01433	-5
0.01500	-6
0.01567	-8
0.01633	-10
0.01700	-12
0.01767	-14
0.01833	-16
0.01900	-18
0.01967	-21
0.02033	-23
0.02100	-26
0.02167	-29
0.02233	-31
0.02300	-34
0.02367	-37
0.02433	-40
0.02500	-43
0.02567	-46
0.02633	-48
0.02700	-51
0.02767	-54
0.02833	-56
0.02900	-59
0.02967	-61
0.03033	-63
0.03100	-65
0.03167	-67
0.03233	-69
0.03300	-71
0.03367	-73
0.03433	-74
0.03500	-75
0.03567	-77
0.03633	-78
0.03700	-79
0.03767	-80
0.03833	-81
0.03900	-82
0.03967	-83
0.04033	-83
0.04100	-84
0.04167	-84
0.04233	-85
0.04300	-85
0.04367	-85
0.04433	-85
0.04500	-85
0.04567	-85
0.04633	-85
0.04700	-85
0.04767	-85
0.04833	-85
0.04900	-85
0.04967	-85
0.05033	-85
0.05100	-85
0.05167	-84
0.05233	-84
0.05300	-84
0.05367	-84
0.05433	-83
0.05500	-83
0.05567	-83
0.05633	-82
0.05700	-82
0.05767	-82
0.05833	-81
0.05900	-81
0.05967	-81
0.06033	-80
0.06100	-80
0.06167	-80
0.06233	-79
0.06300	-79
0.06367	-78
0.06433	-78
0.06500	-78
0.06567	-77
0.06633	-77
0.06700	-76
0.06767	-76
0.06833	-76
0.06900	-75
0.06967	-75
0.07033	-74
0.07100	-74
0.07167	-74
0.07233	-73
0.07300	-73
0.07367	-73
0.07433	-72
0.07500	-72
0.07567	-72
0.07633	-71
0.07700	-71
0.07767	-71
0.07833	-70
0.07900	-70
0.07967	-70
0.08033	-70
0.08100	-69
0.08167	-69
0.08233	-69
0.08300	-68
0.08367	-68
0.08433	-68
0.08500	-68
0.08567	-67
0.08633	-67
0.08700	-66
0.08767	-65
0.08833	-62
0.08900	-55
0.08967	-41
0.09033	-13
0.09100	37
0.09167	121
0.09233	235
0.09300	368
0.09367	543
0.09433	775
0.09500	1065
0.09567	1445
0.09633	1863
0.09700	2321
0.09767	2813
0.09833	3317
0.09900	3847
0.09967	4422
0.10033	5060
0.10100	5775
0.10167	6550
0.10233	7361
0.10300	8272
0.10367	9241
0.10433	10236
0.10500	11265
0.10567	12363
0.10633	13552
0.10700	14839
0.10767	16113
0.10833	17388
0.10900	18626
0.10967	19828
0.11033	21042
0.11100	22277
0.11167	23506
0.11233	24692
0.11300	25839
0.11367	26951
0.11433	28046
0.11500	29098
0.11567	30112
0.11633	31117
0.11700	32101
0.11767	33048
0.11833	33935
0.11900	34743
0.11967	35551
0.12033	36377
0.12100	37204
0.12167	37993
0.12233	38727
0.12300	39429
0.12367	40046
0.12433	40588
0.12500	41083
0.12567	41545
0.12633	41994
0.12700	42411
0.12767	42777
0.12833	43085
0.12900	43372
0.12967	43632
0.13033	43867
0.13100	44068
0.13167	44225
0.13233	44337
0.13300	44383
0.13367	44372
0.13433	44331
0.13500	44315
0.13567	44501
0.13633	45403
0.13700	48271
0.13767	55584
0.13833	72029
0.13900	105264
0.13967	167620
0.14033	276503
0.14100	455007
0.14167	728543
0.14233	1123379
0.14300	1662520
0.14367	2366559
0.14433	3251977
0.14500	4332163
0.14567	5615747
0.14633	7107538
0.14700	8808512
0.14767	10718744
0.14833	12836832
0.14900	15160450
0.14967	17684035
0.15033	20392966
0.15100	23273788
0.15167	26338993
0.15233	29616722
0.15300	33121165
0.15367	36849108
0.15433	40785221
0.15500	44907488
0.15567	49190721
0.15633	53608941
0.15700	58137045
0.15767	62750750
0.15833	67427374
0.15900	72145091
0.15967	76883569
0.16033	81623439
0.16100	86346598
0.16167	91035646
0.16233	95674405
0.16300	100248041
0.16367	104743091
0.16433	109146933
0.16500	113448124
0.16567	117636529
0.16633	121702829
0.16700	125638332
0.16767	129435401
0.16833	133087800
0.16900	136590145
0.16967	139938116
0.17033	143128107
0.17100	146157621
0.17167	149024676
0.17233	151728151
0.17300	154267198
0.17367	156641685
0.17433	158851422
0.17500	160896708
0.17567	162778096
0.17633	164497305
0.17700	166056859
0.17767	167459006
0.17833	168705110
0.17900	169796082
0.17967	170732998
0.18033	171517481
0.18100	172151749
0.18167	172638460
0.18233	172980721
0.18300	173181949
0.18367	173245831
0.18433	173176110
0.18500	172976825
0.18567	172652063
0.18633	172206318
0.18700	171644089
0.18767	170970048
0.18833	170188834
0.18900	169305304
0.18967	168324227
0.19033	167250366
0.19100	166088371
0.19167	164842927
0.19233	163518606
0.19300	162119936
0.19367	160651342
0.19433	159117176
0.19500	157521731
0.19567	155869238
0.19633	154163858
0.19700	152409650
0.19767	150610567
0.19833	148770425
0.19900	146892944
0.19967	144981710
0.20033	143040226
0.20100	141071853
0.20167	139079891
0.20233	137067551
0.20300	135038091
0.20367	132994853
0.20433	130941269
0.20500	128880500
0.20567	126815116
0.20633	124747076
0.20700	122677971
0.20767	120609209
0.20833	118542191
0.20900	116478326
0.20967	114419054
0.21033	112365795
0.21100	110319994
0.21167	108283089
0.21233	106256472
0.21300	104241503
0.21367	102239471
0.21433	100251615
0.21500	98279104
0.21567	96323050
0.21633	94384490
0.21700	92464404
0.21767	90563689
0.21833	88683178
0.21900	86823634
0.21967	84985772
0.22033	83170245
0.22100	81377655
0.22167	79608544
0.22233	77863399
0.22300	76142646
0.22367	74446664
0.22433	72775781
0.22500	71130281
0.22567	69510406
0.22633	67916352
0.22700	66348270
0.22767	64806278
0.22833	63290457
0.22900	61800855
0.22967	60337487
0.23033	58900337
0.23100	57489363
0.23167	56104494
0.23233	54745636
0.23300	53412669
0.23367	52105457
0.23433	50823843
0.23500	49567650
0.23567	48336684
0.23633	47130736
0.23700	45949581
0.23767	44792980
0.23833	43660681
0.23900	42552420
0.23967	41467920
0.24033	40406897
0.24100	39369055
0.24167	38354095
0.24233	37361707
0.24300	36391576
0.24367	35443380
0.24433	34516795
0.24500	33611491
0.24567	32727132
0.24633	31863383
0.24700	31019907
0.24767	30196366
0.24833	29392420
0.24900	28607732
0.24967	27841959
0.25033	27094764
0.25100	26365805
0.25167	25654744
0.25233	24961250
0.25300	24285018
0.25367	23625781
0.25433	22983301
0.25500	22357343
0.25567	21747647
0.25633	21153914
0.25700	20575811
0.25767	20012980
0.25833	19465047
0.25900	18931638
0.25967	18412378
0.26033	17906907
0.26100	17414888
0.26167	16936007
0.26233	16469964
0.26300	16016462
0.26367	15575199
0.26433	15145868
0.26500	14728160
0.26567	14321769
0.26633	13926393
0.26700	13541739
0.26767	13167521
0.26833	12803465
0.26900	12449303
0.26967	12104778
0.27033	11769641
0.27100	11443649
0.27167	11126567
0.27233	10818166
0.27300	10518225
0.27367	10226526
0.27433	9942859
0.27500	9667017
0.27567	9398801
0.27633	9138014
0.27700	8884467
0.27767	8637971
0.27833	8398344
0.27900	8165408
0.27967	7938992
0.28033	7718923
0.28100	7505039
0.28167	7297175
0.28233	7095175
0.28300	6898885
0.28367	6708153
0.28433	6522833
0.28500	6342781
0.28567	6167857
0.28633	5997924
0.28700	5832848
0.28767	5672501
0.28833	5516755
0.28900	5365485
0.28967	5218570
0.29033	5075891
0.29100	4937334
0.29167	4802786
0.29233	4672136
0.29300	4545277
0.29367	4422106
0.29433	4302521
0.29500	4186421
0.29567	4073711
0.29633	3964296
0.29700	3858084
0.29767	3754983
0.29833	3654908
0.29900	3557773
0.29967	3463495
0.30033	3371992
0.30100	3283186
0.30167	3197000
0.30233	3113359
0.30300	3032189
0.30367	2953421
0.30433	2876985
0.30500	2802815
0.30567	2730845
0.30633	2661011
0.30700	2593253
0.30767	2527510
0.30833	2463724
0.30900	2401838
0.30967	2341797
0.31033	2283547
0.31100	2227035
0.31167	2172211
0.31233	2119025
0.31300	2067430
0.31367	2017378
0.31433	1968824
0.31500	1921724
0.31567	1876036
0.31633	1831718
0.31700	1788730
0.31767	1747033
0.31833	1706590
0.31900	1667366
0.31967	1629326
0.32033	1592439
0.32100	1556672
0.32167	1521997
0.32233	1488387
0.32300	1455815
0.32367	1424257
0.32433	1393690
0.32500	1364091
0.32567	1335440
0.32633	1307716
0.32700	1280902
0.32767	1254980
0.32833	1229934
0.32900	1205753
0.32967	1182425
0.33033	1159940
0.33100	1138292
0.33167	1117474
0.33233	1097484
0.33300	1078317
0.33367	1059971
0.33433	1042445
0.33500	1025739
0.33567	1009855
0.33633	994795
0.33700	980560
0.33767	967152
0.33833	954569
0.33900	942811
0.33967	931872
0.34033	921743
0.34100	912412
0.34167	903865
0.34233	896083
0.34300	889043
0.34367	882717
0.34433	877078
0.34500	872096
0.34567	867741
0.34633	863981
0.34700	860784
0.34767	858120
0.34833	855956
0.34900	854263
0.34967	853010
0.35033	852168
0.35100	851712
0.35167	851614
0.35233	851851
0.35300	852398
0.35367	853235
0.35433	854342
0.35500	855702
0.35567	857302
0.35633	859126
0.35700	861162
0.35767	863399
0.35833	865821
0.35900	868417
0.35967	871172
0.36033	874075
0.36100	877109
0.36167	880264
0.36233	883527
0.36300	886889
0.36367	890338
0.36433	893867
0.36500	897470
0.36567	901141
0.36633	904876
0.36700	908671
0.36767	912524
0.36833	916431
0.36900	920392
0.36967	924406
0.37033	928469
0.37100	932582
0.37167	936744
0.37233	940956
0.37300	945218
0.37367	949531
0.37433	953895
0.37500	958311
0.37567	962781
0.37633	967310
0.37700	971903
0.37767	976570
0.37833	981321
0.37900	986166
0.37967	991120
0.38033	996194
0.38100	1001398
0.38167	1006739
0.38233	1012222
0.38300	1017846
0.38367	1023609
0.38433	1029502
0.38500	1035516
0.38567	1041641
0.38633	1047863
0.38700	1054171
0.38767	1060551
0.38833	1066988
0.38900	1073469
0.38967	1079977
0.39033	1086500
0.39100	1093025
0.39167	1099541
0.39233	1106037
0.39300	1112502
0.39367	1118928
0.39433	1125304
0.39500	1131619
0.39567	1137862
0.39633	1144016
0.39700	1150065
0.39767	1155989
0.39833	1161768
0.39900	1167378
0.39967	1172791
0.40033	1177983
0.40100	1182927
0.40167	1187597
0.40233	1191967
0.40300	1196008
0.40367	1199692
0.40433	1202988
0.40500	1205864
0.40567	1208284
0.40633	1210214
0.40700	1211620
0.40767	1212466
0.40833	1212718
0.40900	1212344
0.40967	1211311
0.41033	1209590
0.41100	1207155
0.41167	1203984
0.41233	1200062
0.41300	1195377
0.41367	1189930
0.41433	1183723
0.41500	1176769
0.41567	1169083
0.41633	1160692
0.41700	1151622
0.41767	1141907
0.41833	1131581
0.41900	1120682
0.41967	1109248
0.42033	1097319
0.42100	1084934
0.42167	1072133
0.42233	1058955
0.42300	1045437
0.42367	1031617
0.42433	1017531
0.42500	1003212
0.42567	988693
0.42633	974006
0.42700	959181
0.42767	944246
0.42833	929227
0.42900	914148
0.42967	899034
0.43033	883907
0.43100	868786
0.43167	853690
0.43233	838638
0.43300	823645
0.43367	808727
0.43433	793899
0.43500	779171
0.43567	764557
0.43633	750067
0.43700	735712
0.43767	721502
0.43833	707444
0.43900	693547
0.43967	679817
0.44033	666262
0.44100	652886
0.44167	639695
0.44233	626692
0.44300	613881
0.44367	601264
0.44433	588845
0.44500	576625
0.44567	564604
0.44633	552785
0.44700	541168
0.44767	529755
0.44833	518545
0.44900	507540
0.44967	496740
0.45033	486146
0.45100	475758
0.45167	465575
0.45233	455597
0.45300	445822
0.45367	436251
0.45433	426881
0.45500	417711
0.45567	408739
0.45633	399964
0.45700	391384
0.45767	382996
0.45833	374798
0.45900	366789
0.45967	358966
0.46033	351328
0.46100	343871
0.46167	336594
0.46233	329494
0.46300	322571
0.46367	315821
0.46433	309243
0.46500	302836
0.46567	296597
0.46633	290526
0.46700	284621
0.46767	278880
0.46833	273302
0.46900	267883
0.46967	262621
0.47033	257511
0.47100	252550
0.47167	247732
0.47233	243055
0.47300	238514
0.47367	234107
0.47433	229829
0.47500	225677
0.47567	221646
0.47633	217734
0.47700	213937
0.47767	210251
0.47833	206672
0.47900	203198
0.47967	199825
0.48033	196550
0.48100	193370
0.48167	190281
0.48233	187281
0.48300	184368
0.48367	181538
0.48433	178788
0.48500	176117
0.48567	173522
0.48633	171000
0.48700	168549
0.48767	166166
0.48833	163850
0.48900	161598
0.48967	159409
0.49033	157279
0.49100	155207
0.49167	153192
0.49233	151230
0.49300	149321
0.49367	147462
0.49433	145651
0.49500	143887
0.49567	142168
0.49633	140492
0.49700	138858
0.49767	137265
0.49833	135710
0.49900	134194
0.49967	132713
0.50033	131268
0.50100	129857
0.50167	128479
0.50233	127133
0.50300	125817
0.50367	124530
0.50433	123272
0.50500	122042
0.50567	120838
0.50633	119660
0.50700	118506
0.50767	117377
0.50833	116270
0.50900	115185
0.50967	114123
0.51033	113080
0.51100	112058
0.51167	111056
0.51233	110072
0.51300	109106
0.51367	108158
0.51433	107228
0.51500	106313
0.51567	105415
0.51633	104532
0.51700	103664
0.51767	102811
0.51833	101971
0.51900	101145
0.51967	100333
0.52033	99533
0.52100	98745
0.52167	97970
0.52233	97207
0.52300	96454
0.52367	95713
0.52433	94982
0.52500	94262
0.52567	93552
0.52633	92852
0.52700	92161
0.52767	91479
0.52833	90807
0.52900	90143
0.52967	89488
0.53033	88841
0.53100	88203
0.53167	87572
0.53233	86949
0.53300	86333
0.53367	85725
0.53433	85124
0.53500	84531
0.53567	83944
0.53633	83364
0.53700	82791
0.53767	82224
0.53833	81663
0.53900	81109
0.53967	80560
0.54033	80018
0.54100	79481
0.54167	78951
0.54233	78426
0.54300	77906
0.54367	77392
0.54433	76884
0.54500	76381
0.54567	75883
0.54633	75391
0.54700	74905
0.54767	74424
0.54833	73948
0.54900	73478
0.54967	73013
0.55033	72554
0.55100	72102
0.55167	71655
0.55233	71214
0.55300	70779
0.55367	70351
0.55433	69929
0.55500	69513
0.55567	69104
0.55633	68702
0.55700	68306
0.55767	67916
0.55833	67533
0.55900	67156
0.55967	66785
0.56033	66420
0.56100	66061
0.56167	65707
0.56233	65358
0.56300	65014
0.56367	64674
0.56433	64338
0.56500	64006
0.56567	63677
0.56633	63351
0.56700	63028
0.56767	62707
0.56833	62389
0.56900	62072
0.56967	61757
0.57033	61444
0.57100	61133
0.57167	60822
0.57233	60513
0.57300	60205
0.57367	59899
0.57433	59593
0.57500	59288
0.57567	58985
0.57633	58682
0.57700	58380
0.57767	58079
0.57833	57779
0.57900	57480
0.57967	57182
0.58033	56885
0.58100	56588
0.58167	56293
0.58233	55998
0.58300	55704
0.58367	55412
0.58433	55120
0.58500	54829
0.58567	54540
0.58633	54251
0.58700	53964
0.58767	53677
0.58833	53392
0.58900	53109
0.58967	52826
0.59033	52545
0.59100	52265
0.59167	51987
0.59233	51710
0.59300	51435
0.59367	51161
0.59433	50889
0.59500	50618
0.59567	50350
0.59633	50082
0.59700	49817
0.59767	49553
0.59833	49292
0.59900	49032
0.59967	48773
0.60033	48517
0.60100	48262
0.60167	48009
0.60233	47759
0.60300	47510
0.60367	47263
0.60433	47018
0.60500	46774
0.60567	46533
0.60633	46294
0.60700	46057
0.60767	45821
0.60833	45588
0.60900	45356
0.60967	45127
0.61033	44899
0.61100	44674
0.61167	44450
0.61233	44229
0.61300	44009
0.61367	43792
0.61433	43576
0.61500	43363
0.61567	43151
0.61633	42942
0.61700	42735
0.61767	42530
0.61833	42326
0.61900	42125
0.61967	41926
0.62033	41729
0.62100	41534
0.62167	41340
0.62233	41149
0.62300	40959
0.62367	40771
0.62433	40585
0.62500	40401
0.62567	40218
0.62633	40037
0.62700	39858
0.62767	39680
0.62833	39504
0.62900	39329
0.62967	39156
0.63033	38984
0.63100	38813
0.63167	38644
0.63233	38476
0.63300	38310
0.63367	38145
0.63433	37981
0.63500	37819
0.63567	37658
0.63633	37499
0.63700	37340
0.63767	37184
0.63833	37028
0.63900	36874
0.63967	36721
0.64033	36570
0.64100	36420
0.64167	36272
0.64233	36125
0.64300	35979
0.64367	35835
0.64433	35691
0.64500	35550
0.64567	35409
0.64633	35270
0.64700	35132
0.64767	34996
0.64833	34861
0.64900	34726
0.64967	34594
0.65033	34462
0.65100	34331
0.65167	34201
0.65233	34073
0.65300	33945
0.65367	33818
0.65433	33692
0.65500	33567
0.65567	33443
0.65633	33320
0.65700	33197
0.65767	33075
0.65833	32954
0.65900	32833
0.65967	32713
0.66033	32594
0.66100	32475
0.66167	32357
0.66233	32239
0.66300	32122
0.66367	32006
0.66433	31889
0.66500	31774
0.66567	31659
0.66633	31544
0.66700	31430
0.66767	31317
0.66833	31204
0.66900	31092
0.66967	30980
0.67033	30869
0.67100	30759
0.67167	30649
0.67233	30539
0.67300	30431
0.67367	30322
0.67433	30215
0.67500	30108
0.67567	30002
0.67633	29897
0.67700	29793
0.67767	29689
0.67833	29587
0.67900	29486
0.67967	29386
0.68033	29288
0.68100	29191
0.68167	29096
0.68233	29003
0.68300	28912
0.68367	28824
0.68433	28739
0.68500	28656
0.68567	28577
0.68633	28502
0.68700	28430
0.68767	28363
0.68833	28301
0.68900	28244
0.68967	28192
0.69033	28146
0.69100	28107
0.69167	28073
0.69233	28047
0.69300	28027
0.69367	28015
0.69433	28010
0.69500	28012
0.69567	28022
0.69633	28040
0.69700	28064
0.69767	28096
0.69833	28135
0.69900	28180
0.69967	28232
0.70033	28289
0.70100	28352
0.70167	28419
0.70233	28490
0.70300	28564
0.70367	28641
0.70433	28718
0.70500	28797
0.70567	28875
0.70633	28953
0.70700	29028
0.70767	29101
0.70833	29170
0.70900	29235
0.70967	29296
0.71033	29351
0.71100	29401
0.71167	29445
0.71233	29483
0.71300	29514
0.71367	29538
0.71433	29555
0.71500	29565
0.71567	29569
0.71633	29565
0.71700	29554
0.71767	29537
0.71833	29513
0.71900	29482
0.71967	29445
0.72033	29402
0.72100	29353
0.72167	29299
0.72233	29239
0.72300	29174
0.72367	29105
0.72433	29031
0.72500	28952
0.72567	28870
0.72633	28784
0.72700	28694
0.72767	28601
0.72833	28505
0.72900	28406
0.72967	28304
0.73033	28200
0.73100	28094
0.73167	27986
0.73233	27876
0.73300	27764
0.73367	27651
0.73433	27537
0.73500	27421
0.73567	27305
0.73633	27188
0.73700	27069
0.73767	26951
0.73833	26831
0.73900	26712
0.73967	26592
0.74033	26472
0.74100	26352
0.74167	26232
0.74233	26111
0.74300	25992
0.74367	25872
0.74433	25753
0.74500	25634
0.74567	25515
0.74633	25397
0.74700	25280
0.74767	25163
0.74833	25046
0.74900	24931
0.74967	24816
0.75033	24702
0.75100	24589
0.75167	24476
0.75233	24364
0.75300	24253
0.75367	24143
0.75433	24034
0.75500	23926
0.75567	23819
0.75633	23712
0.75700	23607
0.75767	23502
0.75833	23399
0.75900	23297
0.75967	23195
0.76033	23095
0.76100	22995
0.76167	22897
0.76233	22799
0.76300	22703
0.76367	22608
0.76433	22513
0.76500	22420
0.76567	22328
0.76633	22236
0.76700	22146
0.76767	22057
0.76833	21968
0.76900	21881
0.76967	21795
0.77033	21710
0.77100	21626
0.77167	21543
0.77233	21460
0.77300	21379
0.77367	21299
0.77433	21219
0.77500	21141
0.77567	21064
0.77633	20987
0.77700	20911
0.77767	20837
0.77833	20763
0.77900	20690
0.77967	20618
0.78033	20547
0.78100	20477
0.78167	20407
0.78233	20339
0.78300	20271
0.78367	20204
0.78433	20138
0.78500	20072
0.78567	20008
0.78633	19944
0.78700	19881
0.78767	19819
0.78833	19757
0.78900	19696
0.78967	19636
0.79033	19577
0.79100	19518
0.79167	19460
0.79233	19402
0.79300	19346
0.79367	19290
0.79433	19234
0.79500	19179
0.79567	19125
0.79633	19072
0.79700	19019
0.79767	18967
0.79833	18915
0.79900	18864
0.79967	18814
0.80033	18764
0.80100	18715
0.80167	18666
0.80233	18618
0.80300	18571
0.80367	18524
0.80433	18478
0.80500	18432
0.80567	18387
0.80633	18342
0.80700	18298
0.80767	18254
0.80833	18211
0.80900	18169
0.80967	18127
0.81033	18085
0.81100	18044
0.81167	18003
0.81233	17963
0.81300	17923
0.81367	17884
0.81433	17846
0.81500	17807
0.81567	17770
0.81633	17733
0.81700	17696
0.81767	17660
0.81833	17624
0.81900	17589
0.81967	17555
0.82033	17521
0.82100	17487
0.82167	17454
0.82233	17421
0.82300	17388
0.82367	17356
0.82433	17324
0.82500	17293
0.82567	17261
0.82633	17231
0.82700	17200
0.82767	17170
0.82833	17140
0.82900	17111
0.82967	17081
0.83033	17052
0.83100	17023
0.83167	16995
0.83233	16966
0.83300	16938
0.83367	16910
0.83433	16883
0.83500	16855
0.83567	16827
0.83633	16800
0.83700	16772
0.83767	16745
0.83833	16718
0.83900	16691
0.83967	16664
0.84033	16637
0.84100	16610
0.84167	16583
0.84233	16557
0.84300	16530
0.84367	16503
0.84433	16477
0.84500	16450
0.84567	16423
0.84633	16397
0.84700	16370
0.84767	16343
0.84833	16316
0.84900	16290
0.84967	16263
0.85033	16236
0.85100	16209
0.85167	16182
0.85233	16155
0.85300	16128
0.85367	16101
0.85433	16074
0.85500	16047
0.85567	16020
0.85633	15992
0.85700	15965
0.85767	15938
0.85833	15911
0.85900	15883
0.85967	15856
0.86033	15829
0.86100	15801
0.86167	15774
0.86233	15747
0.86300	15720
0.86367	15693
0.86433	15665
0.86500	15638
0.86567	15611
0.86633	15584
0.86700	15557
0.86767	15530
0.86833	15504
0.86900	15477
0.86967	15450
0.87033	15424
0.87100	15397
0.87167	15371
0.87233	15345
0.87300	15318
0.87367	15292
0.87433	15266
0.87500	15241
0.87567	15215
0.87633	15189
0.87700	15164
0.87767	15138
0.87833	15113
0.87900	15088
0.87967	15063
0.88033	15038
0.88100	15013
0.88167	14989
0.88233	14964
0.88300	14940
0.88367	14916
0.88433	14892
0.88500	14868
0.88567	14845
0.88633	14821
0.88700	14798
0.88767	14775
0.88833	14752
0.88900	14729
0.88967	14707
0.89033	14684
0.89100	14662
0.89167	14640
0.89233	14618
0.89300	14596
0.89367	14574
0.89433	14552
0.89500	14531
0.89567	14509
0.89633	14488
0.89700	14467
0.89767	14446
0.89833	14425
0.89900	14404
0.89967	14383
0.90033	14362
0.90100	14342
0.90167	14321
0.90233	14301
0.90300	14281
0.90367	14260
0.90433	14240
0.90500	14220
0.90567	14200
0.90633	14181
0.90700	14161
0.90767	14141
0.90833	14122
0.90900	14102
0.90967	14083
0.91033	14064
0.91100	14045
0.91167	14025
0.91233	14006
0.91300	13987
0.91367	13968
0.91433	13950
0.91500	13931
0.91567	13912
0.91633	13894
0.91700	13876
0.91767	13857
0.91833	13839
0.91900	13821
0.91967	13803
0.92033	13785
0.92100	13768
0.92167	13750
0.92233	13733
0.92300	13715
0.92367	13698
0.92433	13681
0.92500	13664
0.92567	13647
0.92633	13630
0.92700	13614
0.92767	13597
0.92833	13581
0.92900	13565
0.92967	13549
0.93033	13534
0.93100	13518
0.93167	13502
0.93233	13487
0.93300	13472
0.93367	13457
0.93433	13442
0.93500	13427
0.93567	13413
0.93633	13398
0.93700	13384
0.93767	13369
0.93833	13355
0.93900	13341
0.93967	13326
0.94033	13312
0.94100	13298
0.94167	13284
0.94233	13271
0.94300	13257
0.94367	13243
0.94433	13229
0.94500	13215
0.94567	13201
0.94633	13188
0.94700	13174
0.94767	13160
0.94833	13146
0.94900	13133
0.94967	13119
0.95033	13105
0.95100	13091
0.95167	13078
0.95233	13064
0.95300	13050
0.95367	13037
0.95433	13023
0.95500	13009
0.95567	12996
0.95633	12982
0.95700	12968
0.95767	12955
0.95833	12941
0.95900	12928
0.95967	12914
0.96033	12901
0.96100	12888
0.96167	12874
0.96233	12861
0.96300	12848
0.96367	12835
0.96433	12821
0.96500	12808
0.96567	12795
0.96633	12782
0.96700	12769
0.96767	12756
0.96833	12742
0.96900	12729
0.96967	12716
0.97033	12703
0.97100	12690
0.97167	12677
0.97233	12664
0.97300	12650
0.97367	12637
0.97433	12624
0.97500	12611
0.97567	12598
0.97633	12585
0.97700	12571
0.97767	12558
0.97833	12545
0.97900	12531
0.97967	12518
0.98033	12504
0.98100	12490
0.98167	12477
0.98233	12463
0.98300	12449
0.98367	12435
0.98433	12422
0.98500	12408
0.98567	12394
0.98633	12380
0.98700	12366
0.98767	12351
0.98833	12337
0.98900	12323
0.98967	12309
0.99033	12295
0.99100	12281
0.99167	12266
0.99233	12252
0.99300	12238
0.99367	12224
0.99433	12210
0.99500	12196
0.99567	12182
0.99633	12168
0.99700	12154
0.99767	12140
0.99833	12126
0.99900	12112
0.99967	12098
1.00033	12084
1.00100	12070
1.00167	12056
1.00233	12042
1.00300	12028
1.00367	12015
1.00433	12001
1.00500	11988
1.00567	11974
1.00633	11961
1.00700	11947
1.00767	11934
1.00833	11921
1.00900	11908
1.00967	11895
1.01033	11882
1.01100	11869
1.01167	11857
1.01233	11845
1.01300	11833
1.01367	11821
1.01433	11810
1.01500	11798
1.01567	11787
1.01633	11777
1.01700	11766
1.01767	11756
1.01833	11746
1.01900	11737
1.01967	11728
1.02033	11720
1.02100	11711
1.02167	11703
1.02233	11696
1.02300	11689
1.02367	11682
1.02433	11676
1.02500	11670
1.02567	11664
1.02633	11658
1.02700	11653
1.02767	11648
1.02833	11644
1.02900	11639
1.02967	11635
1.03033	11631
1.03100	11627
1.03167	11622
1.03233	11618
1.03300	11614
1.03367	11610
1.03433	11606
1.03500	11602
1.03567	11598
1.03633	11593
1.03700	11588
1.03767	11583
1.03833	11578
1.03900	11573
1.03967	11568
1.04033	11562
1.04100	11556
1.04167	11549
1.04233	11543
1.04300	11536
1.04367	11529
1.04433	11521
1.04500	11514
1.04567	11506
1.04633	11498
1.04700	11490
1.04767	11481
1.04833	11472
1.04900	11463
1.04967	11454
1.05033	11445
1.05100	11435
1.05167	11426
1.05233	11416
1.05300	11406
1.05367	11396
1.05433	11386
1.05500	11375
1.05567	11365
1.05633	11354
1.05700	11343
1.05767	11332
1.05833	11321
1.05900	11310
1.05967	11298
1.06033	11287
1.06100	11275
1.06167	11264
1.06233	11252
1.06300	11241
1.06367	11229
1.06433	11217
1.06500	11206
1.06567	11194
1.06633	11182
1.06700	11170
1.06767	11159
1.06833	11147
1.06900	11135
1.06967	11123
1.07033	11111
1.07100	11099
1.07167	11087
1.07233	11076
1.07300	11064
1.07367	11052
1.07433	11040
1.07500	11028
1.07567	11016
1.07633	11004
1.07700	10993
1.07767	10981
1.07833	10969
1.07900	10957
1.07967	10946
1.08033	10934
1.08100	10922
1.08167	10911
1.08233	10899
1.08300	10887
1.08367	10876
1.08433	10864
1.08500	10853
1.08567	10842
1.08633	10830
1.08700	10819
1.08767	10808
1.08833	10797
1.08900	10785
1.08967	10774
1.09033	10763
1.09100	10752
1.09167	10741
1.09233	10731
1.09300	10720
1.09367	10709
1.09433	10698
1.09500	10688
1.09567	10677
1.09633	10666
1.09700	10656
1.09767	10645
1.09833	10635
1.09900	10624
1.09967	10614
1.10033	10603
1.10100	10593
1.10167	10583
1.10233	10572
1.10300	10562
1.10367	10552
1.10433	10542
1.10500	10532
1.10567	10522
1.10633	10512
1.10700	10502
1.10767	10492
1.10833	10482
1.10900	10473
1.10967	10463
1.11033	10454
1.11100	10444
1.11167	10435
1.11233	10426
1.11300	10417
1.11367	10407
1.11433	10398
1.11500	10389
1.11567	10380
1.11633	10372
1.11700	10363
1.11767	10354
1.11833	10346
1.11900	10337
1.11967	10329
1.12033	10320
1.12100	10312
1.12167	10304
1.12233	10296
1.12300	10289
1.12367	10281
1.12433	10274
1.12500	10267
1.12567	10259
1.12633	10253
1.12700	10246
1.12767	10239
1.12833	10233
1.12900	10227
1.12967	10222
1.13033	10217
1.13100	10212
1.13167	10207
1.13233	10203
1.13300	10200
1.13367	10196
1.13433	10194
1.13500	10191
1.13567	10189
1.13633	10187
1.13700	10186
1.13767	10185
1.13833	10184
1.13900	10183
1.13967	10183
1.14033	10183
1.14100	10183
1.14167	10184
1.14233	10184
1.14300	10184
1.14367	10185
1.14433	10186
1.14500	10186
1.14567	10187
1.14633	10187
1.14700	10187
1.14767	10187
1.14833	10187
1.14900	10187
1.14967	10186
1.15033	10186
1.15100	10185
1.15167	10184
1.15233	10182
1.15300	10180
1.15367	10178
1.15433	10176
1.15500	10173
1.15567	10170
1.15633	10167
1.15700	10164
1.15767	10160
1.15833	10156
1.15900	10152
1.15967	10147
1.16033	10142
1.16100	10137
1.16167	10132
1.16233	10126
1.16300	10120
1.16367	10114
1.16433	10108
1.16500	10101
1.16567	10094
1.16633	10087
1.16700	10080
1.16767	10073
1.16833	10066
1.16900	10058
1.16967	10050
1.17033	10042
1.17100	10034
1.17167	10026
1.17233	10018
1.17300	10009
1.17367	10001
1.17433	9992
1.17500	9983
1.17567	9975
1.17633	9966
1.17700	9957
1.17767	9948
1.17833	9939
1.17900	9930
1.17967	9921
1.18033	9912
1.18100	9903
1.18167	9894
1.18233	9885
1.18300	9876
1.18367	9867
1.18433	9858
1.18500	9849
1.18567	9840
1.18633	9831
1.18700	9822
1.18767	9813
1.18833	9804
1.18900	9795
1.18967	9787
1.19033	9778
1.19100	9769
1.19167	9761
1.19233	9752
1.19300	9744
1.19367	9735
1.19433	9727
1.19500	9719
1.19567	9711
1.19633	9702
1.19700	9694
1.19767	9686
1.19833	9678
1.19900	9671
1.19967	9663
1.20033	9655
1.20100	9648
1.20167	9640
1.20233	9633
1.20300	9626
1.20367	9619
1.20433	9612
1.20500	9605
1.20567	9599
1.20633	9592
1.20700	9586
1.20767	9580
1.20833	9574
1.20900	9568
1.20967	9562
1.21033	9556
1.21100	9550
1.21167	9545
1.21233	9539
1.21300	9534
1.21367	9529
1.21433	9524
1.21500	9519
1.21567	9514
1.21633	9509
1.21700	9505
1.21767	9500
1.21833	9496
1.21900	9491
1.21967	9487
1.22033	9483
1.22100	9479
1.22167	9475
1.22233	9471
1.22300	9467
1.22367	9463
1.22433	9460
1.22500	9456
1.22567	9452
1.22633	9449
1.22700	9445
1.22767	9442
1.22833	9438
1.22900	9435
1.22967	9431
1.23033	9428
1.23100	9425
1.23167	9421
1.23233	9418
1.23300	9415
1.23367	9412
1.23433	9408
1.23500	9405
1.23567	9402
1.23633	9399
1.23700	9396
1.23767	9393
1.23833	9389
1.23900	9386
1.23967	9383
1.24033	9380
1.24100	9377
1.24167	9374
1.24233	9371
1.24300	9368
1.24367	9365
1.24433	9362
1.24500	9359
1.24567	9356
1.24633	9353
1.24700	9350
1.24767	9347
1.24833	9344
1.24900	9341
1.24967	9339
1.25033	9336
1.25100	9333
1.25167	9331
1.25233	9328
1.25300	9325
1.25367	9323
1.25433	9320
1.25500	9318
1.25567	9316
1.25633	9313
1.25700	9311
1.25767	9309
1.25833	9306
1.25900	9304
1.25967	9302
1.26033	9300
1.26100	9298
1.26167	9295
1.26233	9293
1.26300	9292
1.26367	9290
1.26433	9288
1.26500	9286
1.26567	9284
1.26633	9283
1.26700	9281
1.26767	9279
1.26833	9278
1.26900	9277
1.26967	9275
1.27033	9274
1.27100	9273
1.27167	9272
1.27233	9271
1.27300	9270
1.27367	9269
1.27433	9268
1.27500	9268
1.27567	9267
1.27633	9267
1.27700	9267
1.27767	9267
1.27833	9267
1.27900	9267
1.27967	9267
1.28033	9268
1.28100	9269
1.28167	9270
1.28233	9271
1.28300	9272
1.28367	9273
1.28433	9275
1.28500	9277
1.28567	9278
1.28633	9280
1.28700	9282
1.28767	9284
1.28833	9286
1.28900	9289
1.28967	9291
1.29033	9293
1.29100	9295
1.29167	9297
1.29233	9299
1.29300	9301
1.29367	9303
1.29433	9304
1.29500	9306
1.29567	9307
1.29633	9309
1.29700	9310
1.29767	9310
1.29833	9311
1.29900	9312
1.29967	9312
1.30033	9312
1.30100	9312
1.30167	9312
1.30233	9311
1.30300	9311
1.30367	9310
1.30433	9309
1.30500	9307
1.30567	9306
1.30633	9304
1.30700	9302
1.30767	9300
1.30833	9298
1.30900	9295
1.30967	9293
1.31033	9290
1.31100	9287
1.31167	9284
1.31233	9280
1.31300	9277
1.31367	9273
1.31433	9269
1.31500	9265
1.31567	9261
1.31633	9257
1.31700	9253
1.31767	9248
1.31833	9243
1.31900	9239
1.31967	9234
1.32033	9229
1.32100	9223
1.32167	9218
1.32233	9213
1.32300	9207
1.32367	9202
1.32433	9196
1.32500	9190
1.32567	9184
1.32633	9178
1.32700	9172
1.32767	9165
1.32833	9159
1.32900	9152
1.32967	9146
1.33033	9139
1.33100	9132
1.33167	9125
1.33233	9118
1.33300	9111
1.33367	9104
1.33433	9097
1.33500	9090
1.33567	9082
1.33633	9075
1.33700	9067
1.33767	9060
1.33833	9052
1.33900	9045
1.33967	9037
1.34033	9030
1.34100	9022
1.34167	9014
1.34233	9007
1.34300	8999
1.34367	8991
1.34433	8983
1.34500	8976
1.34567	8968
1.34633	8960
1.34700	8952
1.34767	8945
1.34833	8937
1.34900	8929
1.34967	8922
1.35033	8914
1.35100	8907
1.35167	8899
1.35233	8891
1.35300	8884
1.35367	8876
1.35433	8869
1.35500	8861
1.35567	8854
1.35633	8846
1.35700	8839
1.35767	8832
1.35833	8824
1.35900	8817
1.35967	8810
1.36033	8803
1.36100	8796
1.36167	8789
1.36233	8782
1.36300	8775
1.36367	8769
1.36433	8762
1.36500	8755
1.36567	8749
1.36633	8742
1.36700	8736
1.36767	8729
1.36833	8723
1.36900	8717
1.36967	8711
1.37033	8705
1.37100	8699
1.37167	8693
1.37233	8687
1.37300	8681
1.37367	8676
1.37433	8670
1.37500	8664
1.37567	8659
1.37633	8653
1.37700	8648
1.37767	8642
1.37833	8637
1.37900	8631
1.37967	8626
1.38033	8621
1.38100	8615
1.38167	8610
1.38233	8605
1.38300	8600
1.38367	8595
1.38433	8590
1.38500	8585
1.38567	8580
1.38633	8575
1.38700	8570
1.38767	8566
1.38833	8561
1.38900	8556
1.38967	8552
1.39033	8547
1.39100	8542
1.39167	8538
1.39233	8533
1.39300	8528
1.39367	8524
1.39433	8519
1.39500	8515
1.39567	8510
1.39633	8505
1.39700	8501
1.39767	8496
1.39833	8492
1.39900	8487
1.39967	8483
1.40033	8478
1.40100	8473
1.40167	8469
1.40233	8464
1.40300	8460
1.40367	8455
1.40433	8451
1.40500	8447
1.40567	8442
1.40633	8438
1.40700	8433
1.40767	8429
1.40833	8424
1.40900	8420
1.40967	8415
1.41033	8411
1.41100	8406
1.41167	8402
1.41233	8398
1.41300	8393
1.41367	8389
1.41433	8384
1.41500	8380
1.41567	8375
1.41633	8371
1.41700	8366
1.41767	8362
1.41833	8358
1.41900	8353
1.41967	8349
1.42033	8344
1.42100	8340
1.42167	8335
1.42233	8331
1.42300	8327
1.42367	8322
1.42433	8318
1.42500	8314
1.42567	8310
1.42633	8306
1.42700	8302
1.42767	8298
1.42833	8294
1.42900	8291
1.42967	8287
1.43033	8283
1.43100	8280
1.43167	8277
1.43233	8273
1.43300	8270
1.43367	8267
1.43433	8264
1.43500	8261
1.43567	8259
1.43633	8256
1.43700	8253
1.43767	8251
1.43833	8248
1.43900	8246
1.43967	8244
1.44033	8241
1.44100	8239
1.44167	8237
1.44233	8235
1.44300	8233
1.44367	8231
1.44433	8230
1.44500	8228
1.44567	8226
1.44633	8225
1.44700	8223
1.44767	8222
1.44833	8220
1.44900	8219
1.44967	8217
1.45033	8216
1.45100	8214
1.45167	8213
1.45233	8211
1.45300	8210
1.45367	8208
1.45433	8206
1.45500	8205
1.45567	8203
1.45633	8201
1.45700	8199
1.45767	8197
1.45833	8195
1.45900	8193
1.45967	8191
1.46033	8189
1.46100	8187
1.46167	8184
1.46233	8182
1.46300	8179
1.46367	8176
1.46433	8174
1.46500	8171
1.46567	8168
1.46633	8165
1.46700	8162
1.46767	8159
1.46833	8155
1.46900	8152
1.46967	8149
1.47033	8146
1.47100	8142
1.47167	8139
1.47233	8136
1.47300	8133
1.47367	8129
1.47433	8126
1.47500	8123
1.47567	8119
1.47633	8116
1.47700	8113
1.47767	8109
1.47833	8106
1.47900	8102
1.47967	8099
1.48033	8096
1.48100	8092
1.48167	8089
1.48233	8085
1.48300	8082
1.48367	8079
1.48433	8075
1.48500	8072
1.48567	8069
1.48633	8065
1.48700	8062
1.48767	8058
1.48833	8055
1.48900	8051
1.48967	8048
1.49033	8045
1.49100	8041
1.49167	8038
1.49233	8034
1.49300	8030
1.49367	8027
1.49433	8023
1.49500	8019
1.49567	8016
1.49633	8012
1.49700	8008
1.49767	8004
1.49833	8001
1.49900	7997
1.49967	7993
1.50033	7989
1.50100	7985
1.50167	7982
1.50233	7978
1.50300	7974
1.50367	7970
1.50433	7966
1.50500	7962
1.50567	7958
1.50633	7953
1.50700	7949
1.50767	7945
1.50833	7941
1.50900	7937
1.50967	7933
1.51033	7929
1.51100	7925
1.51167	7921
1.51233	7917
1.51300	7913
1.51367	7909
1.51433	7906
1.51500	7902
1.51567	7898
1.51633	7894
1.51700	7890
1.51767	7887
1.51833	7883
1.51900	7879
1.51967	7876
1.52033	7872
1.52100	7868
1.52167	7865
1.52233	7861
1.52300	7858
1.52367	7854
1.52433	7851
1.52500	7848
1.52567	7844
1.52633	7841
1.52700	7838
1.52767	7835
1.52833	7832
1.52900	7829
1.52967	7826
1.53033	7823
1.53100	7820
1.53167	7817
1.53233	7814
1.53300	7811
1.53367	7808
1.53433	7805
1.53500	7803
1.53567	7800
1.53633	7797
1.53700	7794
1.53767	7791
1.53833	7789
1.53900	7786
1.53967	7783
1.54033	7780
1.54100	7778
1.54167	7775
1.54233	7772
1.54300	7769
1.54367	7767
1.54433	7764
1.54500	7761
1.54567	7759
1.54633	7756
1.54700	7754
1.54767	7751
1.54833	7749
1.54900	7746
1.54967	7744
1.55033	7741
1.55100	7739
1.55167	7737
1.55233	7734
1.55300	7732
1.55367	7729
1.55433	7727
1.55500	7724
1.55567	7722
1.55633	7720
1.55700	7717
1.55767	7715
1.55833	7713
1.55900	7710
1.55967	7708
1.56033	7706
1.56100	7703
1.56167	7701
1.56233	7699
1.56300	7697
1.56367	7694
1.56433	7692
1.56500	7690
1.56567	7687
1.56633	7685
1.56700	7683
1.56767	7680
1.56833	7678
1.56900	7676
1.56967	7673
1.57033	7671
1.57100	7669
1.57167	7666
1.57233	7664
1.57300	7662
1.57367	7660
1.57433	7657
1.57500	7655
1.57567	7653
1.57633	7651
1.57700	7648
1.57767	7646
1.57833	7644
1.57900	7642
1.57967	7639
1.58033	7637
1.58100	7635
1.58167	7633
1.58233	7630
1.58300	7628
1.58367	7626
1.58433	7624
1.58500	7622
1.58567	7619
1.58633	7617
1.58700	7615
1.58767	7613
1.58833	7610
1.58900	7608
1.58967	7606
1.59033	7604
1.59100	7602
1.59167	7599
1.59233	7597
1.59300	7595
1.59367	7593
1.59433	7590
1.59500	7588
1.59567	7586
1.59633	7584
1.59700	7581
1.59767	7579
1.59833	7577
1.59900	7575
1.59967	7572
1.60033	7570
1.60100	7568
1.60167	7566
1.60233	7564
1.60300	7562
1.60367	7559
1.60433	7557
1.60500	7555
1.60567	7553
1.60633	7551
1.60700	7549
1.60767	7547
1.60833	7544
1.60900	7542
1.60967	7540
1.61033	7538
1.61100	7536
1.61167	7534
1.61233	7533
1.61300	7531
1.61367	7529
1.61433	7527
1.61500	7525
1.61567	7524
1.61633	7522
1.61700	7520
1.61767	7518
1.61833	7517
1.61900	7515
1.61967	7514
1.62033	7512
1.62100	7510
1.62167	7509
1.62233	7507
1.62300	7506
1.62367	7504
1.62433	7502
1.62500	7501
1.62567	7499
1.62633	7497
1.62700	7496
1.62767	7494
1.62833	7492
1.62900	7491
1.62967	7489
1.63033	7487
1.63100	7486
1.63167	7484
1.63233	7482
1.63300	7481
1.63367	7479
1.63433	7477
1.63500	7476
1.63567	7474
1.63633	7473
1.63700	7471
1.63767	7470
1.63833	7468
1.63900	7466
1.63967	7465
1.64033	7464
1.64100	7462
1.64167	7461
1.64233	7459
1.64300	7458
1.64367	7457
1.64433	7455
1.64500	7454
1.64567	7453
1.64633	7452
1.64700	7451
1.64767	7450
1.64833	7449
1.64900	7448
1.64967	7448
1.65033	7447
1.65100	7446
1.65167	7446
1.65233	7445
1.65300	7444
1.65367	7444
1.65433	7443
1.65500	7443
1.65567	7442
1.65633	7442
1.65700	7441
1.65767	7441
1.65833	7440
1.65900	7440
1.65967	7439
1.66033	7439
1.66100	7438
1.66167	7438
1.66233	7438
1.66300	7437
1.66367	7437
1.66433	7436
1.66500	7436
1.66567	7435
1.66633	7434
1.66700	7434
1.66767	7433
1.66833	7432
1.66900	7431
1.66967	7430
1.67033	7430
1.67100	7429
1.67167	7428
1.67233	7426
1.67300	7425
1.67367	7424
1.67433	7423
1.67500	7422
1.67567	7420
1.67633	7419
1.67700	7417
1.67767	7416
1.67833	7414
1.67900	7413
1.67967	7411
1.68033	7409
1.68100	7407
1.68167	7406
1.68233	7404
1.68300	7402
1.68367	7400
1.68433	7398
1.68500	7396
1.68567	7394
1.68633	7392
1.68700	7390
1.68767	7387
1.68833	7385
1.68900	7383
1.68967	7381
1.69033	7378
1.69100	7376
1.69167	7374
1.69233	7372
1.69300	7369
1.69367	7367
1.69433	7364
1.69500	7362
1.69567	7360
1.69633	7357
1.69700	7355
1.69767	7352
1.69833	7350
1.69900	7347
1.69967	7345
1.70033	7342
1.70100	7340
1.70167	7337
1.70233	7334
1.70300	7332
1.70367	7329
1.70433	7327
1.70500	7324
1.70567	7321
1.70633	7319
1.70700	7316
1.70767	7314
1.70833	7311
1.70900	7309
1.70967	7307
1.71033	7304
1.71100	7302
1.71167	7300
1.71233	7297
1.71300	7295
1.71367	7293
1.71433	7291
1.71500	7290
1.71567	7288
1.71633	7287
1.71700	7286
1.71767	7285
1.71833	7285
1.71900	7285
1.71967	7286
1.72033	7288
1.72100	7291
1.72167	7296
1.72233	7302
1.72300	7310
1.72367	7320
1.72433	7334
1.72500	7351
1.72567	7372
1.72633	7399
1.72700	7431
1.72767	7471
1.72833	7519
1.72900	7578
1.72967	7648
1.73033	7731
1.73100	7831
1.73167	7950
1.73233	8091
1.73300	8256
1.73367	8450
1.73433	8677
1.73500	8942
1.73567	9249
1.73633	9605
1.73700	10015
1.73767	10486
1.73833	11026
1.73900	11641
1.73967	12339
1.74033	13130
1.74100	14022
1.74167	15023
1.74233	16142
1.74300	17388
1.74367	18771
1.74433	20298
1.74500	21981
1.74567	23827
1.74633	25849
1.74700	28055
1.74767	30456
1.74833	33061
1.74900	35877
1.74967	38916
1.75033	42185
1.75100	45693
1.75167	49444
1.75233	53444
1.75300	57695
1.75367	62198
1.75433	66951
1.75500	71950
1.75567	77190
1.75633	82663
1.75700	88362
1.75767	94276
1.75833	100391
1.75900	106694
1.75967	113168
1.76033	119793
1.76100	126550
1.76167	133418
1.76233	140375
1.76300	147399
1.76367	154464
1.76433	161543
1.76500	168609
1.76567	175636
1.76633	182597
1.76700	189463
1.76767	196207
1.76833	202801
1.76900	209218
1.76967	215431
1.77033	221417
1.77100	227152
1.77167	232615
1.77233	237787
1.77300	242651
1.77367	247191
1.77433	251397
1.77500	255258
1.77567	258768
1.77633	261921
1.77700	264717
1.77767	267156
1.77833	269240
1.77900	270975
1.77967	272366
1.78033	273421
1.78100	274149
1.78167	274560
1.78233	274666
1.78300	274477
1.78367	274007
1.78433	273267
1.78500	272272
1.78567	271034
1.78633	269567
1.78700	267885
1.78767	266002
1.78833	263930
1.78900	261684
1.78967	259276
1.79033	256718
1.79100	254024
1.79167	251204
1.79233	248271
1.79300	245234
1.79367	242105
1.79433	238893
1.79500	235609
1.79567	232260
1.79633	228856
1.79700	225404
1.79767	221912
1.79833	218387
1.79900	214837
1.79967	211267
1.80033	207683
1.80100	204091
1.80167	200496
1.80233	196903
1.80300	193316
1.80367	189740
1.80433	186178
1.80500	182635
1.80567	179113
1.80633	175615
1.80700	172144
1.80767	168704
1.80833	165296
1.80900	161922
1.80967	158585
1.81033	155285
1.81100	152026
1.81167	148808
1.81233	145632
1.81300	142501
1.81367	139413
1.81433	136372
1.81500	133376
1.81567	130427
1.81633	127526
1.81700	124673
1.81767	121868
1.81833	119111
1.81900	116403
1.81967	113744
1.82033	111133
1.82100	108571
1.82167	106058
1.82233	103593
1.82300	101176
1.82367	98808
1.82433	96487
1.82500	94213
1.82567	91987
1.82633	89808
1.82700	87674
1.82767	85587
1.82833	83544
1.82900	81547
1.82967	79593
1.83033	77684
1.83100	75817
1.83167	73993
1.83233	72210
1.83300	70469
1.83367	68769
1.83433	67109
1.83500	65487
1.83567	63905
1.83633	62361
1.83700	60854
1.83767	59384
1.83833	57950
1.83900	56552
1.83967	55188
1.84033	53858
1.84100	52562
1.84167	51299
1.84233	50067
1.84300	48868
1.84367	47699
1.84433	46560
1.84500	45451
1.84567	44371
1.84633	43319
1.84700	42294
1.84767	41297
1.84833	40326
1.84900	39381
1.84967	38461
1.85033	37566
1.85100	36695
1.85167	35848
1.85233	35023
1.85300	34221
1.85367	33440
1.85433	32681
1.85500	31943
1.85567	31225
1.85633	30527
1.85700	29848
1.85767	29188
1.85833	28546
1.85900	27922
1.85967	27315
1.86033	26725
1.86100	26152
1.86167	25595
1.86233	25053
1.86300	24527
1.86367	24015
1.86433	23519
1.86500	23036
1.86567	22567
1.86633	22111
1.86700	21668
1.86767	21238
1.86833	20820
1.86900	20414
1.86967	20019
1.87033	19636
1.87100	19264
1.87167	18903
1.87233	18552
1.87300	18211
1.87367	17879
1.87433	17558
1.87500	17245
1.87567	16942
1.87633	16648
1.87700	16362
1.87767	16084
1.87833	15814
1.87900	15552
1.87967	15298
1.88033	15051
1.88100	14812
1.88167	14579
1.88233	14353
1.88300	14134
1.88367	13921
1.88433	13714
1.88500	13513
1.88567	13319
1.88633	13130
1.88700	12946
1.88767	12768
1.88833	12595
1.88900	12427
1.88967	12264
1.89033	12105
1.89100	11952
1.89167	11802
1.89233	11657
1.89300	11517
1.89367	11380
1.89433	11248
1.89500	11119
1.89567	10994
1.89633	10872
1.89700	10755
1.89767	10640
1.89833	10529
1.89900	10421
1.89967	10317
1.90033	10215
1.90100	10116
1.90167	10020
1.90233	9927
1.90300	9837
1.90367	9749
1.90433	9663
1.90500	9581
1.90567	9500
1.90633	9422
1.90700	9346
1.90767	9272
1.90833	9200
1.90900	9131
1.90967	9063
1.91033	8997
1.91100	8933
1.91167	8871
1.91233	8810
1.91300	8751
1.91367	8693
1.91433	8638
1.91500	8583
1.91567	8530
1.91633	8479
1.91700	8428
1.91767	8379
1.91833	8332
1.91900	8285
1.91967	8240
1.92033	8196
1.92100	8153
1.92167	8111
1.92233	8069
1.92300	8029
1.92367	7990
1.92433	7952
1.92500	7915
1.92567	7879
1.92633	7843
1.92700	7808
1.92767	7774
1.92833	7741
1.92900	7709
1.92967	7677
1.93033	7647
1.93100	7616
1.93167	7587
1.93233	7558
1.93300	7530
1.93367	7503
1.93433	7476
1.93500	7450
1.93567	7424
1.93633	7399
1.93700	7375
1.93767	7351
1.93833	7328
1.93900	7305
1.93967	7283
1.94033	7262
1.94100	7241
1.94167	7220
1.94233	7200
1.94300	7180
1.94367	7161
1.94433	7142
1.94500	7124
1.94567	7106
1.94633	7089
1.94700	7072
1.94767	7055
1.94833	7039
1.94900	7023
1.94967	7007
1.95033	6992
1.95100	6977
1.95167	6963
1.95233	6948
1.95300	6934
1.95367	6921
1.95433	6908
1.95500	6895
1.95567	6882
1.95633	6870
1.95700	6858
1.95767	6847
1.95833	6835
1.95900	6824
1.95967	6813
1.96033	6803
1.96100	6793
1.96167	6782
1.96233	6773
1.96300	6763
1.96367	6753
1.96433	6744
1.96500	6735
1.96567	6726
1.96633	6718
1.96700	6709
1.96767	6701
1.96833	6693
1.96900	6685
1.96967	6677
1.97033	6669
1.97100	6661
1.97167	6654
1.97233	6646
1.97300	6639
1.97367	6632
1.97433	6625
1.97500	6617
1.97567	6610
1.97633	6603
1.97700	6597
1.97767	6590
1.97833	6583
1.97900	6577
1.97967	6570
1.98033	6564
1.98100	6557
1.98167	6551
1.98233	6545
1.98300	6539
1.98367	6533
1.98433	6527
1.98500	6521
1.98567	6515
1.98633	6509
1.98700	6504
1.98767	6498
1.98833	6493
1.98900	6487
1.98967	6482
1.99033	6477
1.99100	6472
1.99167	6467
1.99233	6462
1.99300	6457
1.99367	6452
1.99433	6447
1.99500	6442
1.99567	6437
1.99633	6432
1.99700	6428
1.99767	6423
1.99833	6418
1.99900	6414
1.99967	6409
2.00033	6405
2.00100	6400
2.00167	6396
2.00233	6391
2.00300	6387
2.00367	6382
2.00433	6378
2.00500	6374
2.00567	6369
2.00633	6365
2.00700	6360
2.00767	6356
2.00833	6352
2.00900	6347
2.00967	6343
2.01033	6339
2.01100	6335
2.01167	6330
2.01233	6326
2.01300	6322
2.01367	6318
2.01433	6314
2.01500	6309
2.01567	6305
2.01633	6301
2.01700	6297
2.01767	6293
2.01833	6289
2.01900	6285
2.01967	6281
2.02033	6277
2.02100	6272
2.02167	6268
2.02233	6265
2.02300	6261
2.02367	6257
2.02433	6253
2.02500	6249
2.02567	6245
2.02633	6241
2.02700	6237
2.02767	6233
2.02833	6229
2.02900	6226
2.02967	6222
2.03033	6218
2.03100	6214
2.03167	6211
2.03233	6207
2.03300	6204
2.03367	6200
2.03433	6197
2.03500	6193
2.03567	6190
2.03633	6186
2.03700	6183
2.03767	6180
2.03833	6176
2.03900	6173
2.03967	6170
2.04033	6167
2.04100	6163
2.04167	6160
2.04233	6157
2.04300	6154
2.04367	6151
2.04433	6147
2.04500	6144
2.04567	6141
2.04633	6138
2.04700	6135
2.04767	6132
2.04833	6129
2.04900	6126
2.04967	6123
2.05033	6120
2.05100	6117
2.05167	6114
2.05233	6111
2.05300	6108
2.05367	6105
2.05433	6102
2.05500	6099
2.05567	6096
2.05633	6093
2.05700	6090
2.05767	6087
2.05833	6084
2.05900	6081
2.05967	6078
2.06033	6075
2.06100	6072
2.06167	6069
2.06233	6066
2.06300	6063
2.06367	6060
2.06433	6057
2.06500	6054
2.06567	6051
2.06633	6048
2.06700	6045
2.06767	6042
2.06833	6039
2.06900	6036
2.06967	6033
2.07033	6030
2.07100	6027
2.07167	6024
2.07233	6021
2.07300	6018
2.07367	6016
2.07433	6013
2.07500	6010
2.07567	6007
2.07633	6004
2.07700	6001
2.07767	5998
2.07833	5995
2.07900	5992
2.07967	5989
2.08033	5986
2.08100	5984
2.08167	5981
2.08233	5978
2.08300	5975
2.08367	5972
2.08433	5969
2.08500	5966
2.08567	5963
2.08633	5960
2.08700	5958
2.08767	5955
2.08833	5952
2.08900	5949
2.08967	5946
2.09033	5943
2.09100	5940
2.09167	5937
2.09233	5935
2.09300	5932
2.09367	5929
2.09433	5926
2.09500	5924
2.09567	5921
2.09633	5918
2.09700	5916
2.09767	5913
2.09833	5910
2.09900	5908
2.09967	5905
2.10033	5902
2.10100	5900
2.10167	5897
2.10233	5895
2.10300	5892
2.10367	5889
2.10433	5887
2.10500	5884
2.10567	5882
2.10633	5879
2.10700	5876
2.10767	5874
2.10833	5871
2.10900	5869
2.10967	5867
2.11033	5864
2.11100	5862
2.11167	5859
2.11233	5857
2.11300	5855
2.11367	5852
2.11433	5850
2.11500	5848
2.11567	5846
2.11633	5843
2.11700	5841
2.11767	5839
2.11833	5836
2.11900	5834
2.11967	5832
2.12033	5830
2.12100	5827
2.12167	5825
2.12233	5823
2.12300	5820
2.12367	5818
2.12433	5816
2.12500	5813
2.12567	5811
2.12633	5808
2.12700	5806
2.12767	5804
2.12833	5801
2.12900	5799
2.12967	5796
2.13033	5794
2.13100	5792
2.13167	5789
2.13233	5787
2.13300	5784
2.13367	5782
2.13433	5779
2.13500	5777
2.13567	5775
2.13633	5772
2.13700	5770
2.13767	5767
2.13833	5765
2.13900	5763
2.13967	5760
2.14033	5758
2.14100	5756
2.14167	5753
2.14233	5751
2.14300	5749
2.14367	5746
2.14433	5744
2.14500	5742
2.14567	5739
2.14633	5737
2.14700	5734
2.14767	5732
2.14833	5730
2.14900	5727
2.14967	5725
2.15033	5723
2.15100	5720
2.15167	5718
2.15233	5715
2.15300	5713
2.15367	5711
2.15433	5708
2.15500	5706
2.15567	5704
2.15633	5701
2.15700	5699
2.15767	5696
2.15833	5694
2.15900	5692
2.15967	5689
2.16033	5687
2.16100	5685
2.16167	5683
2.16233	5680
2.16300	5678
2.16367	5676
2.16433	5674
2.16500	5672
2.16567	5669
2.16633	5667
2.16700	5665
2.16767	5663
2.16833	5661
2.16900	5659
2.16967	5657
2.17033	5654
2.17100	5652
2.17167	5650
2.17233	5648
2.17300	5646
2.17367	5644
2.17433	5642
2.17500	5640
2.17567	5638
2.17633	5636
2.17700	5633
2.17767	5631
2.17833	5629
2.17900	5627
2.17967	5625
2.18033	5623
2.18100	5621
2.18167	5619
2.18233	5617
2.18300	5615
2.18367	5613
2.18433	5611
2.18500	5609
2.18567	5607
2.18633	5605
2.18700	5603
2.18767	5601
2.18833	5599
2.18900	5597
2.18967	5595
2.19033	5593
2.19100	5591
2.19167	5589
2.19233	5587
2.19300	5585
2.19367	5582
2.19433	5580
2.19500	5578
2.19567	5576
2.19633	5574
2.19700	5572
2.19767	5571
2.19833	5569
2.19900	5567
2.19967	5565
2.20033	5563
2.20100	5561
2.20167	5560
2.20233	5558
2.20300	5557
2.20367	5555
2.20433	5554
2.20500	5552
2.20567	5551
2.20633	5550
2.20700	5548
2.20767	5547
2.20833	5546
2.20900	5545
2.20967	5544
2.21033	5543
2.21100	5543
2.21167	5542
2.21233	5541
2.21300	5541
2.21367	5540
2.21433	5539
2.21500	5539
2.21567	5538
2.21633	5538
2.21700	5538
2.21767	5537
2.21833	5537
2.21900	5537
2.21967	5537
2.22033	5537
2.22100	5536
2.22167	5536
2.22233	5536
2.22300	5536
2.22367	5536
2.22433	5536
2.22500	5536
2.22567	5536
2.22633	5536
2.22700	5535
2.22767	5535
2.22833	5535
2.22900	5535
2.22967	5535
2.23033	5534
2.23100	5534
2.23167	5534
2.23233	5533
2.23300	5533
2.23367	5532
2.23433	5532
2.23500	5531
2.23567	5531
2.23633	5530
2.23700	5529
2.23767	5529
2.23833	5528
2.23900	5527
2.23967	5526
2.24033	5526
2.24100	5525
2.24167	5524
2.24233	5523
2.24300	5523
2.24367	5522
2.24433	5521
2.24500	5520
2.24567	5519
2.24633	5518
2.24700	5517
2.24767	5516
2.24833	5515
2.24900	5514
2.24967	5514
2.25033	5513
2.25100	5511
2.25167	5510
2.25233	5509
2.25300	5508
2.25367	5507
2.25433	5506
2.25500	5505
2.25567	5504
2.25633	5503
2.25700	5502
2.25767	5501
2.25833	5500
2.25900	5499
2.25967	5498
2.26033	5497
2.26100	5495
2.26167	5494
2.26233	5493
2.26300	5492
2.26367	5490
2.26433	5489
2.26500	5488
2.26567	5486
2.26633	5485
2.26700	5483
2.26767	5482
2.26833	5480
2.26900	5479
2.26967	5477
2.27033	5476
2.27100	5474
2.27167	5473
2.27233	5471
2.27300	5469
2.27367	5468
2.27433	5466
2.27500	5464
2.27567	5463
2.27633	5461
2.27700	5459
2.27767	5457
2.27833	5455
2.27900	5453
2.27967	5451
2.28033	5449
2.28100	5447
2.28167	5445
2.28233	5443
2.28300	5441
2.28367	5439
2.28433	5437
2.28500	5435
2.28567	5433
2.28633	5431
2.28700	5429
2.28767	5427
2.28833	5425
2.28900	5423
2.28967	5421
2.29033	5419
2.29100	5417
2.29167	5416
2.29233	5414
2.29300	5412
2.29367	5410
2.29433	5408
2.29500	5407
2.29567	5405
2.29633	5403
2.29700	5402
2.29767	5400
2.29833	5398
2.29900	5397
2.29967	5395
2.30033	5393
2.30100	5392
2.30167	5390
2.30233	5389
2.30300	5387
2.30367	5386
2.30433	5384
2.30500	5383
2.30567	5382
2.30633	5380
2.30700	5379
2.30767	5378
2.30833	5376
2.30900	5375
2.30967	5374
2.31033	5373
2.31100	5372
2.31167	5371
2.31233	5370
2.31300	5369
2.31367	5368
2.31433	5367
2.31500	5366
2.31567	5365
2.31633	5364
2.31700	5363
2.31767	5362
2.31833	5362
2.31900	5361
2.31967	5360
2.32033	5360
2.32100	5359
2.32167	5359
2.32233	5358
2.32300	5357
2.32367	5357
2.32433	5357
2.32500	5356
2.32567	5356
2.32633	5355
2.32700	5355
2.32767	5354
2.32833	5354
2.32900	5353
2.32967	5353
2.33033	5353
2.33100	5352
2.33167	5352
2.33233	5351
2.33300	5351
2.33367	5351
2.33433	5350
2.33500	5350
2.33567	5350
2.33633	5350
2.33700	5350
2.33767	5349
2.33833	5349
2.33900	5349
2.33967	5349
2.34033	5349
2.34100	5348
2.34167	5348
2.34233	5348
2.34300	5348
2.34367	5348
2.34433	5348
2.34500	5348
2.34567	5348
2.34633	5348
2.34700	5348
2.34767	5348
2.34833	5348
2.34900	5348
2.34967	5348
2.35033	5347
2.35100	5347
2.35167	5347
2.35233	5347
2.35300	5347
2.35367	5347
2.35433	5347
2.35500	5347
2.35567	5347
2.35633	5347
2.35700	5347
2.35767	5347
2.35833	5347
2.35900	5347
2.35967	5347
2.36033	5347
2.36100	5347
2.36167	5347
2.36233	5346
2.36300	5346
2.36367	5346
2.36433	5346
2.36500	5346
2.36567	5346
2.36633	5346
2.36700	5346
2.36767	5346
2.36833	5346
2.36900	5345
2.36967	5345
2.37033	5345
2.37100	5345
2.37167	5344
2.37233	5344
2.37300	5344
2.37367	5343
2.37433	5343
2.37500	5342
2.37567	5342
2.37633	5342
2.37700	5341
2.37767	5341
2.37833	5340
2.37900	5340
2.37967	5339
2.38033	5338
2.38100	5338
2.38167	5337
2.38233	5336
2.38300	5336
2.38367	5335
2.38433	5334
2.38500	5333
2.38567	5332
2.38633	5331
2.38700	5331
2.38767	5330
2.38833	5329
2.38900	5328
2.38967	5327
2.39033	5326
2.39100	5325
2.39167	5324
2.39233	5323
2.39300	5321
2.39367	5320
2.39433	5319
2.39500	5318
2.39567	5317
2.39633	5316
2.39700	5314
2.39767	5313
2.39833	5312
2.39900	5311
2.39967	5310
2.40033	5308
2.40100	5307
2.40167	5306
2.40233	5305
2.40300	5303
2.40367	5302
2.40433	5301
2.40500	5300
2.40567	5299
2.40633	5297
2.40700	5296
2.40767	5295
2.40833	5295
2.40900	5294
2.40967	5293
2.41033	5292
2.41100	5291
2.41167	5290
2.41233	5289
2.41300	5288
2.41367	5287
2.41433	5286
2.41500	5285
2.41567	5284
2.41633	5284
2.41700	5283
2.41767	5282
2.41833	5281
2.41900	5280
2.41967	5279
2.42033	5278
2.42100	5277
2.42167	5276
2.42233	5276
2.42300	5275
2.42367	5274
2.42433	5273
2.42500	5272
2.42567	5271
2.42633	5270
2.42700	5269
2.42767	5268
2.42833	5267
2.42900	5266
2.42967	5265
2.43033	5264
2.43100	5263
2.43167	5262
2.43233	5261
2.43300	5260
2.43367	5258
2.43433	5257
2.43500	5256
2.43567	5255
2.43633	5253
2.43700	5252
2.43767	5250
2.43833	5249
2.43900	5247
2.43967	5246
2.44033	5244
2.44100	5243
2.44167	5241
2.44233	5239
2.44300	5237
2.44367	5236
2.44433	5234
2.44500	5232
2.44567	5230
2.44633	5228
2.44700	5227
2.44767	5225
2.44833	5223
2.44900	5221
2.44967	5219
2.45033	5217
2.45100	5215
2.45167	5213
2.45233	5211
2.45300	5209
2.45367	5206
2.45433	5204
2.45500	5202
2.45567	5200
2.45633	5198
2.45700	5196
2.45767	5193
2.45833	5191
2.45900	5189
2.45967	5187
2.46033	5184
2.46100	5182
2.46167	5180
2.46233	5177
2.46300	5175
2.46367	5173
2.46433	5170
2.46500	5168
2.46567	5166
2.46633	5164
2.46700	5161
2.46767	5159
2.46833	5157
2.46900	5155
2.46967	5152
2.47033	5150
2.47100	5148
2.47167	5146
2.47233	5144
2.47300	5141
2.47367	5139
2.47433	5137
2.47500	5135
2.47567	5133
2.47633	5130
2.47700	5128
2.47767	5126
2.47833	5124
2.47900	5121
2.47967	5119
2.48033	5117
2.48100	5115
2.48167	5112
2.48233	5110
2.48300	5108
2.48367	5106
2.48433	5103
2.48500	5101
2.48567	5099
2.48633	5096
2.48700	5094
2.48767	5092
2.48833	5090
2.48900	5087
2.48967	5085
2.49033	5083
2.49100	5081
2.49167	5079
2.49233	5076
2.49300	5074
2.49367	5072
2.49433	5070
2.49500	5068
2.49567	5066
2.49633	5064
2.49700	5061
2.49767	5059
2.49833	5057
2.49900	5055
2.49967	5052
2.50033	5050
2.50100	5048
2.50167	5046
2.50233	5044
2.50300	5042
2.50367	5040
2.50433	5038
2.50500	5036
2.50567	5034
2.50633	5032
2.50700	5030
2.50767	5027
2.50833	5025
2.50900	5023
2.50967	5021
2.51033	5019
2.51100	5017
2.51167	5015
2.51233	5013
2.51300	5011
2.51367	5008
2.51433	5006
2.51500	5004
2.51567	5002
2.51633	5000
2.51700	4998
2.51767	4995
2.51833	4993
2.51900	4991
2.51967	4989
2.52033	4987
2.52100	4985
2.52167	4983
2.52233	4981
2.52300	4979
2.52367	4977
2.52433	4975
2.52500	4973
2.52567	4971
2.52633	4969
2.52700	4967
2.52767	4966
2.52833	4964
2.52900	4962
2.52967	4960
2.53033	4958
2.53100	4956
2.53167	4954
2.53233	4952
2.53300	4950
2.53367	4949
2.53433	4947
2.53500	4945
2.53567	4943
2.53633	4941
2.53700	4939
2.53767	4937
2.53833	4935
2.53900	4933
2.53967	4931
2.54033	4929
2.54100	4927
2.54167	4925
2.54233	4923
2.54300	4922
2.54367	4920
2.54433	4918
2.54500	4916
2.54567	4914
2.54633	4913
2.54700	4911
2.54767	4909
2.54833	4907
2.54900	4906
2.54967	4904
2.55033	4902
2.55100	4900
2.55167	4899
2.55233	4897
2.55300	4895
2.55367	4894
2.55433	4892
2.55500	4890
2.55567	4889
2.55633	4887
2.55700	4885
2.55767	4884
2.55833	4882
2.55900	4880
2.55967	4879
2.56033	4877
2.56100	4876
2.56167	4874
2.56233	4872
2.56300	4871
2.56367	4869
2.56433	4867
2.56500	4866
2.56567	4864
2.56633	4863
2.56700	4861
2.56767	4860
2.56833	4858
2.56900	4857
2.56967	4855
2.57033	4853
2.57100	4852
2.57167	4850
2.57233	4849
2.57300	4847
2.57367	4846
2.57433	4844
2.57500	4843
2.57567	4841
2.57633	4840
2.57700	4838
2.57767	4837
2.57833	4835
2.57900	4834
2.57967	4833
2.58033	4831
2.58100	4830
2.58167	4829
2.58233	4827
2.58300	4826
2.58367	4825
2.58433	4824
2.58500	4822
2.58567	4821
2.58633	4820
2.58700	4818
2.58767	4817
2.58833	4816
2.58900	4815
2.58967	4813
2.59033	4812
2.59100	4811
2.59167	4810
2.59233	4808
2.59300	4807
2.59367	4806
2.59433	4805
2.59500	4804
2.59567	4802
2.59633	4801
2.59700	4800
2.59767	4799
2.59833	4797
2.59900	4796
2.59967	4795
2.60033	4794
2.60100	4793
2.60167	4791
2.60233	4790
2.60300	4789
2.60367	4788
2.60433	4786
2.60500	4785
2.60567	4784
2.60633	4783
2.60700	4781
2.60767	4780
2.60833	4779
2.60900	4778
2.60967	4776
2.61033	4775
2.61100	4774
2.61167	4772
2.61233	4771
2.61300	4770
2.61367	4768
2.61433	4767
2.61500	4766
2.61567	4764
2.61633	4763
2.61700	4762
2.61767	4760
2.61833	4759
2.61900	4758
2.61967	4756
2.62033	4755
2.62100	4754
2.62167	4752
2.62233	4751
2.62300	4750
2.62367	4749
2.62433	4747
2.62500	4746
2.62567	4745
2.62633	4744
2.62700	4742
2.62767	4741
2.62833	4740
2.62900	4739
2.62967	4738
2.63033	4736
2.63100	4735
2.63167	4734
2.63233	4733
2.63300	4732
2.63367	4731
2.63433	4730
2.63500	4729
2.63567	4728
2.63633	4727
2.63700	4726
2.63767	4725
2.63833	4724
2.63900	4723
2.63967	4722
2.64033	4721
2.64100	4720
2.64167	4719
2.64233	4718
2.64300	4717
2.64367	4716
2.64433	4715
2.64500	4714
2.64567	4712
2.64633	4711
2.64700	4710
2.64767	4709
2.64833	4708
2.64900	4707
2.64967	4706
2.65033	4704
2.65100	4703
2.65167	4702
2.65233	4701
2.65300	4699
2.65367	4698
2.65433	4697
2.65500	4696
2.65567	4694
2.65633	4693
2.65700	4692
2.65767	4690
2.65833	4689
2.65900	4688
2.65967	4687
2.66033	4685
2.66100	4684
2.66167	4683
2.66233	4682
2.66300	4681
2.66367	4679
2.66433	4678
2.66500	4677
2.66567	4676
2.66633	4675
2.66700	4673
2.66767	4672
2.66833	4671
2.66900	4670
2.66967	4668
2.67033	4667
2.67100	4666
2.67167	4665
2.67233	4664
2.67300	4663
2.67367	4661
2.67433	4660
2.67500	4659
2.67567	4658
2.67633	4656
2.67700	4655
2.67767	4654
2.67833	4653
2.67900	4651
2.67967	4650
2.68033	4649
2.68100	4648
2.68167	4647
2.68233	4646
2.68300	4644
2.68367	4643
2.68433	4642
2.68500	4641
2.68567	4640
2.68633	4639
2.68700	4638
2.68767	4637
2.68833	4635
2.68900	4634
2.68967	4633
2.69033	4632
2.69100	4631
2.69167	4630
2.69233	4628
2.69300	4627
2.69367	4626
2.69433	4625
2.69500	4624
2.69567	4623
2.69633	4621
2.69700	4620
2.69767	4619
2.69833	4618
2.69900	4617
2.69967	4616
2.70033	4615
2.70100	4613
2.70167	4612
2.70233	4611
2.70300	4610
2.70367	4609
2.70433	4608
2.70500	4607
2.70567	4606
2.70633	4605
2.70700	4604
2.70767	4603
2.70833	4602
2.70900	4601
2.70967	4600
2.71033	4599
2.71100	4598
2.71167	4597
2.71233	4596
2.71300	4595
2.71367	4594
2.71433	4593
2.71500	4592
2.71567	4591
2.71633	4590
2.71700	4589
2.71767	4588
2.71833	4587
2.71900	4586
2.71967	4586
2.72033	4585
2.72100	4584
2.72167	4583
2.72233	4582
2.72300	4581
2.72367	4580
2.72433	4579
2.72500	4578
2.72567	4577
2.72633	4576
2.72700	4575
2.72767	4575
2.72833	4574
2.72900	4573
2.72967	4572
2.73033	4571
2.73100	4570
2.73167	4569
2.73233	4569
2.73300	4568
2.73367	4567
2.73433	4566
2.73500	4565
2.73567	4565
2.73633	4564
2.73700	4563
2.73767	4562
2.73833	4561
2.73900	4560
2.73967	4560
2.74033	4559
2.74100	4558
2.74167	4557
2.74233	4556
2.74300	4556
2.74367	4555
2.74433	4554
2.74500	4553
2.74567	4553
2.74633	4552
2.74700	4551
2.74767	4551
2.74833	4550
2.74900	4549
2.74967	4549
2.75033	4548
2.75100	4548
2.75167	4547
2.75233	4547
2.75300	4546
2.75367	4546
2.75433	4545
2.75500	4544
2.75567	4544
2.75633	4543
2.75700	4543
2.75767	4542
2.75833	4542
2.75900	4541
2.75967	4541
2.76033	4540
2.76100	4540
2.76167	4540
2.76233	4539
2.76300	4539
2.76367	4539
2.76433	4538
2.76500	4538
2.76567	4538
2.76633	4538
2.76700	4538
2.76767	4538
2.76833	4538
2.76900	4538
2.76967	4538
2.77033	4538
2.77100	4538
2.77167	4538
2.77233	4538
2.77300	4538
2.77367	4538
2.77433	4539
2.77500	4539
2.77567	4539
2.77633	4540
2.77700	4540
2.77767	4541
2.77833	4542
2.77900	4542
2.77967	4543
2.78033	4544
2.78100	4545
2.78167	4546
2.78233	4547
2.78300	4548
2.78367	4549
2.78433	4551
2.78500	4552
2.78567	4554
2.78633	4555
2.78700	4557
2.78767	4558
2.78833	4560
2.78900	4562
2.78967	4564
2.79033	4566
2.79100	4568
2.79167	4570
2.79233	4572
2.79300	4575
2.79367	4577
2.79433	4580
2.79500	4582
2.79567	4584
2.79633	4587
2.79700	4590
2.79767	4592
2.79833	4595
2.79900	4598
2.79967	4601
2.80033	4604
2.80100	4607
2.80167	4610
2.80233	4613
2.80300	4616
2.80367	4619
2.80433	4622
2.80500	4626
2.80567	4629
2.80633	4632
2.80700	4636
2.80767	4639
2.80833	4643
2.80900	4646
2.80967	4649
2.81033	4653
2.81100	4656
2.81167	4660
2.81233	4663
2.81300	4666
2.81367	4670
2.81433	4673
2.81500	4676
2.81567	4679
2.81633	4682
2.81700	4685
2.81767	4688
2.81833	4691
2.81900	4694
2.81967	4697
2.82033	4699
2.82100	4702
2.82167	4704
2.82233	4707
2.82300	4709
2.82367	4711
2.82433	4714
2.82500	4716
2.82567	4718
2.82633	4719
2.82700	4721
2.82767	4723
2.82833	4724
2.82900	4726
2.82967	4727
2.83033	4728
2.83100	4729
2.83167	4730
2.83233	4730
2.83300	4731
2.83367	4731
2.83433	4731
2.83500	4731
2.83567	4731
2.83633	4731
2.83700	4730
2.83767	4730
2.83833	4729
2.83900	4729
2.83967	4728
2.84033	4727
2.84100	4726
2.84167	4725
2.84233	4724
2.84300	4722
2.84367	4721
2.84433	4719
2.84500	4718
2.84567	4716
2.84633	4714
2.84700	4713
2.84767	4711
2.84833	4709
2.84900	4707
2.84967	4705
2.85033	4703
2.85100	4701
2.85167	4699
2.85233	4696
2.85300	4694
2.85367	4692
2.85433	4690
2.85500	4688
2.85567	4685
2.85633	4683
2.85700	4681
2.85767	4679
2.85833	4676
2.85900	4674
2.85967	4672
2.86033	4670
2.86100	4668
2.86167	4665
2.86233	4663
2.86300	4661
2.86367	4659
2.86433	4657
2.86500	4655
2.86567	4653
2.86633	4651
2.86700	4649
2.86767	4647
2.86833	4645
2.86900	4643
2.86967	4642
2.87033	4640
2.87100	4639
2.87167	4637
2.87233	4636
2.87300	4634
2.87367	4633
2.87433	4632
2.87500	4631
2.87567	4630
2.87633	4629
2.87700	4628
2.87767	4627
2.87833	4627
2.87900	4626
2.87967	4625
2.88033	4625
2.88100	4625
2.88167	4625
2.88233	4625
2.88300	4625
2.88367	4625
2.88433	4625
2.88500	4625
2.88567	4626
2.88633	4626
2.88700	4627
2.88767	4627
2.88833	4628
2.88900	4629
2.88967	4630
2.89033	4631
2.89100	4632
2.89167	4633
2.89233	4634
2.89300	4635
2.89367	4637
2.89433	4638
2.89500	4639
2.89567	4641
2.89633	4642
2.89700	4644
2.89767	4645
2.89833	4647
2.89900	4648
2.89967	4650
2.90033	4651
2.90100	4653
2.90167	4654
2.90233	4656
2.90300	4657
2.90367	4658
2.90433	4659
2.90500	4660
2.90567	4661
2.90633	4662
2.90700	4663
2.90767	4664
2.90833	4665
2.90900	4665
2.90967	4666
2.91033	4666
2.91100	4667
2.91167	4667
2.91233	4667
2.91300	4666
2.91367	4666
2.91433	4665
2.91500	4665
2.91567	4664
2.91633	4663
2.91700	4662
2.91767	4660
2.91833	4659
2.91900	4657
2.91967	4655
2.92033	4653
2.92100	4651
2.92167	4649
2.92233	4646
2.92300	4644
2.92367	4641
2.92433	4638
2.92500	4635
2.92567	4631
2.92633	4628
2.92700	4624
2.92767	4620
2.92833	4616
2.92900	4612
2.92967	4608
2.93033	4604
2.93100	4600
2.93167	4595
2.93233	4590
2.93300	4586
2.93367	4581
2.93433	4576
2.93500	4571
2.93567	4566
2.93633	4561
2.93700	4556
2.93767	4551
2.93833	4546
2.93900	4540
2.93967	4535
2.94033	4529
2.94100	4524
2.94167	4518
2.94233	4513
2.94300	4507
2.94367	4502
2.94433	4496
2.94500	4491
2.94567	4485
2.94633	4480
2.94700	4474
2.94767	4469
2.94833	4463
2.94900	4457
2.94967	4452
2.95033	4446
2.95100	4441
2.95167	4435
2.95233	4430
2.95300	4424
2.95367	4419
2.95433	4414
2.95500	4408
2.95567	4403
2.95633	4398
2.95700	4392
2.95767	4387
2.95833	4382
2.95900	4377
2.95967	4372
2.96033	4367
2.96100	4362
2.96167	4357
2.96233	4353
2.96300	4348
2.96367	4343
2.96433	4339
2.96500	4334
2.96567	4330
2.96633	4326
2.96700	4321
2.96767	4317
2.96833	4313
2.96900	4309
2.96967	4305
2.97033	4301
2.97100	4297
2.97167	4293
2.97233	4289
2.97300	4285
2.97367	4282
2.97433	4278
2.97500	4274
2.97567	4271
2.97633	4267
2.97700	4264
2.97767	4260
2.97833	4257
2.97900	4254
2.97967	4250
2.98033	4247
2.98100	4244
2.98167	4241
2.98233	4237
2.98300	4234
2.98367	4231
2.98433	4228
2.98500	4225
2.98567	4222
2.98633	4219
2.98700	4216
2.98767	4213
2.98833	4211
2.98900	4208
2.98967	4205
2.99033	4203
2.99100	4200
2.99167	4198
2.99233	4195
2.99300	4193
2.99367	4190
2.99433	4188
2.99500	4186
2.99567	4183
2.99633	4181
2.99700	4179
2.99767	4176
2.99833	4174
2.99900	4172
2.99967	4169
3.00033	4167
3.00100	4165
3.00167	4163
3.00233	4161
3.00300	4159
3.00367	4157
3.00433	4155
3.00500	4153
3.00567	4151
3.00633	4149
3.00700	4147
3.00767	4145
3.00833	4143
3.00900	4141
3.00967	4139
3.01033	4138
3.01100	4136
3.01167	4134
3.01233	4132
3.01300	4130
3.01367	4128
3.01433	4127
3.01500	4125
3.01567	4123
3.01633	4121
3.01700	4120
3.01767	4118
3.01833	4116
3.01900	4115
3.01967	4113
3.02033	4111
3.02100	4110
3.02167	4108
3.02233	4106
3.02300	4104
3.02367	4103
3.02433	4101
3.02500	4099
3.02567	4098
3.02633	4096
3.02700	4094
3.02767	4093
3.02833	4091
3.02900	4090
3.02967	4088
3.03033	4087
3.03100	4085
3.03167	4084
3.03233	4082
3.03300	4081
3.03367	4080
3.03433	4078
3.03500	4077
3.03567	4075
3.03633	4074
3.03700	4073
3.03767	4071
3.03833	4070
3.03900	4069
3.03967	4067
3.04033	4066
3.04100	4065
3.04167	4064
3.04233	4062
3.04300	4061
3.04367	4060
3.04433	4059
3.04500	4058
3.04567	4056
3.04633	4055
3.04700	4054
3.04767	4053
3.04833	4052
3.04900	4051
3.04967	4050
3.05033	4049
3.05100	4048
3.05167	4047
3.05233	4046
3.05300	4045
3.05367	4044
3.05433	4043
3.05500	4042
3.05567	4042
3.05633	4041
3.05700	4040
3.05767	4040
3.05833	4039
3.05900	4038
3.05967	4038
3.06033	4037
3.06100	4037
3.06167	4036
3.06233	4036
3.06300	4036
3.06367	4035
3.06433	4035
3.06500	4035
3.06567	4034
3.06633	4034
3.06700	4034
3.06767	4034
3.06833	4034
3.06900	4034
3.06967	4034
3.07033	4034
3.07100	4034
3.07167	4034
3.07233	4034
3.07300	4034
3.07367	4034
3.07433	4034
3.07500	4034
3.07567	4035
3.07633	4035
3.07700	4035
3.07767	4035
3.07833	4036
3.07900	4036
3.07967	4036
3.08033	4037
3.08100	4037
3.08167	4037
3.08233	4038
3.08300	4038
3.08367	4038
3.08433	4039
3.08500	4039
3.08567	4039
3.08633	4040
3.08700	4040
3.08767	4040
3.08833	4041
3.08900	4041
3.08967	4041
3.09033	4041
3.09100	4041
3.09167	4041
3.09233	4042
3.09300	4042
3.09367	4041
3.09433	4041
3.09500	4041
3.09567	4041
3.09633	4041
3.09700	4041
3.09767	4040
3.09833	4040
3.09900	4040
3.09967	4039
3.10033	4039
3.10100	4038
3.10167	4038
3.10233	4037
3.10300	4037
3.10367	4036
3.10433	4035
3.10500	4035
3.10567	4034
3.10633	4033
3.10700	4032
3.10767	4032
3.10833	4031
3.10900	4030
3.10967	4029
3.11033	4028
3.11100	4026
3.11167	4025
3.11233	4024
3.11300	4023
3.11367	4022
3.11433	4020
3.11500	4019
3.11567	4018
3.11633	4017
3.11700	4015
3.11767	4014
3.11833	4013
3.11900	4011
3.11967	4010
3.12033	4008
3.12100	4007
3.12167	4005
3.12233	4004
3.12300	4002
3.12367	4001
3.12433	3999
3.12500	3998
3.12567	3996
3.12633	3995
3.12700	3993
3.12767	3992
3.12833	3990
3.12900	3989
3.12967	3987
3.13033	3986
3.13100	3984
3.13167	3983
3.13233	3981
3.13300	3980
3.13367	3978
3.13433	3977
3.13500	3975
3.13567	3974
3.13633	3972
3.13700	3971
3.13767	3969
3.13833	3968
3.13900	3966
3.13967	3965
3.14033	3964
3.14100	3962
3.14167	3961
3.14233	3960
3.14300	3958
3.14367	3957
3.14433	3956
3.14500	3954
3.14567	3953
3.14633	3952
3.14700	3950
3.14767	3949
3.14833	3948
3.14900	3947
3.14967	3945
3.15033	3944
3.15100	3943
3.15167	3941
3.15233	3940
3.15300	3939
3.15367	3938
3.15433	3936
3.15500	3935
3.15567	3934
3.15633	3933
3.15700	3931
3.15767	3930
3.15833	3929
3.15900	3927
3.15967	3926
3.16033	3925
3.16100	3924
3.16167	3922
3.16233	3921
3.16300	3920
3.16367	3919
3.16433	3917
3.16500	3916
3.16567	3915
3.16633	3914
3.16700	3913
3.16767	3911
3.16833	3910
3.16900	3909
3.16967	3908
3.17033	3907
3.17100	3906
3.17167	3905
3.17233	3904
3.17300	3903
3.17367	3902
3.17433	3900
3.17500	3899
3.17567	3898
3.17633	3897
3.17700	3896
3.17767	3895
3.17833	3894
3.17900	3892
3.17967	3891
3.18033	3890
3.18100	3889
3.18167	3888
3.18233	3887
3.18300	3886
3.18367	3885
3.18433	3883
3.18500	3883
3.18567	3882
3.18633	3881
3.18700	3880
3.18767	3879
3.18833	3878
3.18900	3877
3.18967	3876
3.19033	3875
3.19100	3874
3.19167	3873
3.19233	3872
3.19300	3871
3.19367	3870
3.19433	3869
3.19500	3869
3.19567	3868
3.19633	3867
3.19700	3866
3.19767	3865
3.19833	3864
3.19900	3863
3.19967	3862
3.20033	3862
3.20100	3861
3.20167	3860
3.20233	3859
3.20300	3858
3.20367	3858
3.20433	3857
3.20500	3856
3.20567	3855
3.20633	3854
3.20700	3853
3.20767	3853
3.20833	3852
3.20900	3851
3.20967	3850
3.21033	3849
3.21100	3848
3.21167	3848
3.21233	3847
3.21300	3846
3.21367	3845
3.21433	3844
3.21500	3844
3.21567	3843
3.21633	3842
3.21700	3842
3.21767	3841
3.21833	3840
3.21900	3840
3.21967	3839
3.22033	3839
3.22100	3838
3.22167	3837
3.22233	3837
3.22300	3836
3.22367	3836
3.22433	3835
3.22500	3835
3.22567	3834
3.22633	3834
3.22700	3833
3.22767	3833
3.22833	3832
3.22900	3832
3.22967	3831
3.23033	3831
3.23100	3831
3.23167	3830
3.23233	3830
3.23300	3830
3.23367	3829
3.23433	3829
3.23500	3829
3.23567	3828
3.23633	3828
3.23700	3828
3.23767	3828
3.23833	3827
3.23900	3827
3.23967	3827
3.24033	3826
3.24100	3826
3.24167	3826
3.24233	3825
3.24300	3825
3.24367	3825
3.24433	3825
3.24500	3824
3.24567	3824
3.24633	3824
3.24700	3824
3.24767	3824
3.24833	3823
3.24900	3823
3.24967	3823
3.25033	3823
3.25100	3822
3.25167	3822
3.25233	3822
3.25300	3822
3.25367	3821
3.25433	3821
3.25500	3821
3.25567	3820
3.25633	3820
3.25700	3820
3.25767	3820
3.25833	3819
3.25900	3819
3.25967	3819
3.26033	3819
3.26100	3818
3.26167	3818
3.26233	3818
3.26300	3818
3.26367	3817
3.26433	3817
3.26500	3817
3.26567	3817
3.26633	3816
3.26700	3816
3.26767	3816
3.26833	3815
3.26900	3815
3.26967	3815
3.27033	3815
3.27100	3814
3.27167	3814
3.27233	3814
3.27300	3814
3.27367	3813
3.27433	3813
3.27500	3813
3.27567	3813
3.27633	3812
3.27700	3812
3.27767	3812
3.27833	3812
3.27900	3812
3.27967	3811
3.28033	3811
3.28100	3811
3.28167	3811
3.28233	3810
3.28300	3810
3.28367	3810
3.28433	3810
3.28500	3809
3.28567	3809
3.28633	3809
3.28700	3809
3.28767	3808
3.28833	3808
3.28900	3808
3.28967	3807
3.29033	3807
3.29100	3807
3.29167	3807
3.29233	3806
3.29300	3806
3.29367	3806
3.29433	3806
3.29500	3805
3.29567	3805
3.29633	3805
3.29700	3805
3.29767	3804
3.29833	3804
3.29900	3804
3.29967	3804
3.30033	3804
3.30100	3803
3.30167	3803
3.30233	3803
3.30300	3803
3.30367	3803
3.30433	3802
3.30500	3802
3.30567	3802
3.30633	3802
3.30700	3801
3.30767	3801
3.30833	3801
3.30900	3801
3.30967	3800
3.31033	3800
3.31100	3800
3.31167	3800
3.31233	3799
3.31300	3799
3.31367	3799
3.31433	3799
3.31500	3798
3.31567	3798
3.31633	3798
3.31700	3797
3.31767	3797
3.31833	3797
3.31900	3796
3.31967	3796
3.32033	3795
3.32100	3795
3.32167	3795
3.32233	3794
3.32300	3794
3.32367	3793
3.32433	3793
3.32500	3793
3.32567	3792
3.32633	3792
3.32700	3791
3.32767	3791
3.32833	3790
3.32900	3790
3.32967	3790
3.33033	3789
3.33100	3789
3.33167	3788
3.33233	3788
3.33300	3787
3.33367	3787
3.33433	3786
3.33500	3786
3.33567	3785
3.33633	3785
3.33700	3784
3.33767	3784
3.33833	3783
3.33900	3783
3.33967	3783
3.34033	3782
3.34100	3782
3.34167	3781
3.34233	3781
3.34300	3780
3.34367	3780
3.34433	3779
3.34500	3779
3.34567	3778
3.34633	3778
3.34700	3778
3.34767	3777
3.34833	3777
3.34900	3776
3.34967	3776
3.35033	3775
3.35100	3775
3.35167	3774
3.35233	3774
3.35300	3774
3.35367	3773
3.35433	3773
3.35500	3773
3.35567	3772
3.35633	3772
3.35700	3771
3.35767	3771
3.35833	3771
3.35900	3770
3.35967	3770
3.36033	3770
3.36100	3770
3.36167	3769
3.36233	3769
3.36300	3769
3.36367	3768
3.36433	3768
3.36500	3768
3.36567	3768
3.36633	3767
3.36700	3767
3.36767	3767
3.36833	3767
3.36900	3767
3.36967	3767
3.37033	3766
3.37100	3766
3.37167	3766
3.37233	3766
3.37300	3766
3.37367	3766
3.37433	3765
3.37500	3765
3.37567	3765
3.37633	3765
3.37700	3765
3.37767	3765
3.37833	3765
3.37900	3765
3.37967	3765
3.38033	3765
3.38100	3765
3.38167	3765
3.38233	3765
3.38300	3765
3.38367	3765
3.38433	3765
3.38500	3765
3.38567	3766
3.38633	3766
3.38700	3766
3.38767	3766
3.38833	3766
3.38900	3766
3.38967	3766
3.39033	3767
3.39100	3767
3.39167	3767
3.39233	3767
3.39300	3767
3.39367	3767
3.39433	3768
3.39500	3768
3.39567	3768
3.39633	3768
3.39700	3769
3.39767	3769
3.39833	3769
3.39900	3770
3.39967	3770
3.40033	3770
3.40100	3771
3.40167	3771
3.40233	3772
3.40300	3772
3.40367	3772
3.40433	3773
3.40500	3773
3.40567	3774
3.40633	3774
3.40700	3775
3.40767	3775
3.40833	3775
3.40900	3776
3.40967	3776
3.41033	3777
3.41100	3777
3.41167	3778
3.41233	3778
3.41300	3779
3.41367	3780
3.41433	3780
3.41500	3781
3.41567	3781
3.41633	3782
3.41700	3783
3.41767	3783
3.41833	3784
3.41900	3785
3.41967	3786
3.42033	3786
3.42100	3787
3.42167	3788
3.42233	3789
3.42300	3790
3.42367	3791
3.42433	3792
3.42500	3793
3.42567	3794
3.42633	3795
3.42700	3796
3.42767	3797
3.42833	3798
3.42900	3799
3.42967	3800
3.43033	3801
3.43100	3802
3.43167	3803
3.43233	3804
3.43300	3806
3.43367	3807
3.43433	3808
3.43500	3810
3.43567	3811
3.43633	3812
3.43700	3814
3.43767	3815
3.43833	3817
3.43900	3818
3.43967	3820
3.44033	3821
3.44100	3823
3.44167	3824
3.44233	3826
3.44300	3828
3.44367	3829
3.44433	3831
3.44500	3833
3.44567	3835
3.44633	3837
3.44700	3838
3.44767	3840
3.44833	3842
3.44900	3844
3.44967	3846
3.45033	3848
3.45100	3851
3.45167	3853
3.45233	3855
3.45300	3857
3.45367	3859
3.45433	3862
3.45500	3864
3.45567	3866
3.45633	3869
3.45700	3871
3.45767	3874
3.45833	3876
3.45900	3879
3.45967	3881
3.46033	3884
3.46100	3887
3.46167	3890
3.46233	3892
3.46300	3895
3.46367	3898
3.46433	3901
3.46500	3904
3.46567	3907
3.46633	3910
3.46700	3913
3.46767	3916
3.46833	3919
3.46900	3922
3.46967	3925
3.47033	3929
3.47100	3932
3.47167	3935
3.47233	3939
3.47300	3942
3.47367	3946
3.47433	3949
3.47500	3952
3.47567	3956
3.47633	3959
3.47700	3963
3.47767	3967
3.47833	3970
3.47900	3974
3.47967	3977
3.48033	3981
3.48100	3985
3.48167	3989
3.48233	3992
3.48300	3996
3.48367	4000
3.48433	4004
3.48500	4008
3.48567	4012
3.48633	4016
3.48700	4021
3.48767	4025
3.48833	4029
3.48900	4034
3.48967	4038
3.49033	4042
3.49100	4047
3.49167	4052
3.49233	4057
3.49300	4062
3.49367	4067
3.49433	4072
3.49500	4078
3.49567	4083
3.49633	4089
3.49700	4095
3.49767	4101
3.49833	4107
3.49900	4114
3.49967	4120
3.50033	4127
3.50100	4135
3.50167	4142
3.50233	4150
3.50300	4157
3.50367	4166
3.50433	4174
3.50500	4183
3.50567	4192
3.50633	4202
3.50700	4212
3.50767	4222
3.50833	4233
3.50900	4244
3.50967	4256
3.51033	4268
3.51100	4280
3.51167	4294
3.51233	4307
3.51300	4321
3.51367	4336
3.51433	4352
3.51500	4368
3.51567	4384
3.51633	4401
3.51700	4419
3.51767	4438
3.51833	4457
3.51900	4477
3.51967	4498
3.52033	4519
3.52100	4541
3.52167	4564
3.52233	4588
3.52300	4613
3.52367	4638
3.52433	4664
3.52500	4691
3.52567	4719
3.52633	4747
3.52700	4776
3.52767	4806
3.52833	4837
3.52900	4869
3.52967	4902
3.53033	4935
3.53100	4969
3.53167	5004
3.53233	5040
3.53300	5076
3.53367	5114
3.53433	5152
3.53500	5190
3.53567	5230
3.53633	5270
3.53700	5311
3.53767	5353
3.53833	5395
3.53900	5438
3.53967	5481
3.54033	5525
3.54100	5570
3.54167	5614
3.54233	5660
3.54300	5705
3.54367	5752
3.54433	5798
3.54500	5845
3.54567	5892
3.54633	5939
3.54700	5986
3.54767	6034
3.54833	6081
3.54900	6129
3.54967	6177
3.55033	6225
3.55100	6272
3.55167	6320
3.55233	6368
3.55300	6415
3.55367	6462
3.55433	6509
3.55500	6556
3.55567	6602
3.55633	6648
3.55700	6693
3.55767	6738
3.55833	6783
3.55900	6827
3.55967	6870
3.56033	6913
3.56100	6955
3.56167	6997
3.56233	7038
3.56300	7078
3.56367	7117
3.56433	7155
3.56500	7192
3.56567	7229
3.56633	7264
3.56700	7299
3.56767	7333
3.56833	7365
3.56900	7397
3.56967	7428
3.57033	7457
3.57100	7486
3.57167	7514
3.57233	7540
3.57300	7566
3.57367	7591
3.57433	7615
3.57500	7638
3.57567	7659
3.57633	7680
3.57700	7700
3.57767	7718
3.57833	7736
3.57900	7752
3.57967	7767
3.58033	7782
3.58100	7795
3.58167	7807
3.58233	7818
3.58300	7828
3.58367	7837
3.58433	7845
3.58500	7852
3.58567	7858
3.58633	7863
3.58700	7868
3.58767	7871
3.58833	7873
3.58900	7875
3.58967	7875
3.59033	7875
3.59100	7873
3.59167	7871
3.59233	7869
3.59300	7865
3.59367	7861
3.59433	7856
3.59500	7850
3.59567	7844
3.59633	7837
3.59700	7830
3.59767	7821
3.59833	7812
3.59900	7803
3.59967	7793
3.60033	7782
3.60100	7771
3.60167	7759
3.60233	7747
3.60300	7734
3.60367	7720
3.60433	7707
3.60500	7692
3.60567	7678
3.60633	7662
3.60700	7647
3.60767	7631
3.60833	7615
3.60900	7598
3.60967	7581
3.61033	7563
3.61100	7545
3.61167	7527
3.61233	7508
3.61300	7490
3.61367	7470
3.61433	7451
3.61500	7431
3.61567	7411
3.61633	7390
3.61700	7370
3.61767	7349
3.61833	7327
3.61900	7306
3.61967	7284
3.62033	7262
3.62100	7240
3.62167	7217
3.62233	7195
3.62300	7172
3.62367	7149
3.62433	7125
3.62500	7102
3.62567	7078
3.62633	7054
3.62700	7030
3.62767	7005
3.62833	6981
3.62900	6956
3.62967	6931
3.63033	6906
3.63100	6880
3.63167	6855
3.63233	6829
3.63300	6803
3.63367	6777
3.63433	6750
3.63500	6724
3.63567	6697
3.63633	6671
3.63700	6644
3.63767	6617
3.63833	6590
3.63900	6563
3.63967	6535
3.64033	6508
3.64100	6481
3.64167	6454
3.64233	6426
3.64300	6399
3.64367	6371
3.64433	6344
3.64500	6317
3.64567	6289
3.64633	6262
3.64700	6235
3.64767	6207
3.64833	6180
3.64900	6153
3.64967	6126
3.65033	6099
3.65100	6072
3.65167	6045
3.65233	6018
3.65300	5992
3.65367	5966
3.65433	5939
3.65500	5913
3.65567	5887
3.65633	5862
3.65700	5836
3.65767	5810
3.65833	5785
3.65900	5760
3.65967	5735
3.66033	5710
3.66100	5685
3.66167	5660
3.66233	5636
3.66300	5612
3.66367	5588
3.66433	5564
3.66500	5540
3.66567	5517
3.66633	5494
3.66700	5471
3.66767	5448
3.66833	5426
3.66900	5404
3.66967	5382
3.67033	5360
3.67100	5338
3.67167	5317
3.67233	5296
3.67300	5275
3.67367	5255
3.67433	5235
3.67500	5214
3.67567	5195
3.67633	5175
3.67700	5156
3.67767	5136
3.67833	5118
3.67900	5099
3.67967	5080
3.68033	5062
3.68100	5044
3.68167	5026
3.68233	5009
3.68300	4991
3.68367	4974
3.68433	4957
3.68500	4940
3.68567	4924
3.68633	4907
3.68700	4891
3.68767	4875
3.68833	4859
3.68900	4844
3.68967	4828
3.69033	4813
3.69100	4799
3.69167	4784
3.69233	4769
3.69300	4755
3.69367	4741
3.69433	4727
3.69500	4714
3.69567	4700
3.69633	4687
3.69700	4674
3.69767	4661
3.69833	4649
3.69900	4636
3.69967	4624
3.70033	4612
3.70100	4600
3.70167	4588
3.70233	4576
3.70300	4565
3.70367	4553
3.70433	4542
3.70500	4531
3.70567	4520
3.70633	4510
3.70700	4499
3.70767	4488
3.70833	4478
3.70900	4468
3.70967	4458
3.71033	4448
3.71100	4438
3.71167	4429
3.71233	4419
3.71300	4410
3.71367	4400
3.71433	4391
3.71500	4382
3.71567	4373
3.71633	4364
3.71700	4356
3.71767	4347
3.71833	4339
3.71900	4330
3.71967	4322
3.72033	4314
3.72100	4306
3.72167	4298
3.72233	4290
3.72300	4283
3.72367	4275
3.72433	4267
3.72500	4260
3.72567	4252
3.72633	4245
3.72700	4238
3.72767	4231
3.72833	4224
3.72900	4217
3.72967	4210
3.73033	4203
3.73100	4197
3.73167	4190
3.73233	4184
3.73300	4178
3.73367	4172
3.73433	4166
3.73500	4160
3.73567	4154
3.73633	4148
3.73700	4142
3.73767	4137
3.73833	4131
3.73900	4126
3.73967	4120
3.74033	4115
3.74100	4109
3.74167	4104
3.74233	4099
3.74300	4094
3.74367	4089
3.74433	4083
3.74500	4078
3.74567	4073
3.74633	4068
3.74700	4064
3.74767	4059
3.74833	4054
3.74900	4049
3.74967	4045
3.75033	4040
3.75100	4035
3.75167	4031
3.75233	4026
3.75300	4022
3.75367	4018
3.75433	4013
3.75500	4009
3.75567	4005
3.75633	4001
3.75700	3997
3.75767	3993
3.75833	3989
3.75900	3985
3.75967	3981
3.76033	3977
3.76100	3973
3.76167	3969
3.76233	3965
3.76300	3961
3.76367	3957
3.76433	3953
3.76500	3950
3.76567	3946
3.76633	3942
3.76700	3938
3.76767	3935
3.76833	3931
3.76900	3927
3.76967	3924
3.77033	3920
3.77100	3917
3.77167	3913
3.77233	3910
3.77300	3907
3.77367	3903
3.77433	3900
3.77500	3896
3.77567	3893
3.77633	3890
3.77700	3886
3.77767	3883
3.77833	3880
3.77900	3877
3.77967	3874
3.78033	3871
3.78100	3867
3.78167	3864
3.78233	3861
3.78300	3858
3.78367	3855
3.78433	3852
3.78500	3850
3.78567	3847
3.78633	3844
3.78700	3841
3.78767	3838
3.78833	3835
3.78900	3833
3.78967	3830
3.79033	3827
3.79100	3825
3.79167	3822
3.79233	3819
3.79300	3817
3.79367	3814
3.79433	3811
3.79500	3809
3.79567	3806
3.79633	3804
3.79700	3801
3.79767	3798
3.79833	3796
3.79900	3793
3.79967	3791
3.80033	3788
3.80100	3786
3.80167	3783
3.80233	3781
3.80300	3778
3.80367	3776
3.80433	3774
3.80500	3771
3.80567	3769
3.80633	3767
3.80700	3764
3.80767	3762
3.80833	3760
3.80900	3758
3.80967	3755
3.81033	3753
3.81100	3751
3.81167	3749
3.81233	3747
3.81300	3744
3.81367	3742
3.81433	3740
3.81500	3738
3.81567	3736
3.81633	3734
3.81700	3731
3.81767	3729
3.81833	3727
3.81900	3725
3.81967	3723
3.82033	3721
3.82100	3719
3.82167	3717
3.82233	3715
3.82300	3713
3.82367	3710
3.82433	3708
3.82500	3706
3.82567	3704
3.82633	3702
3.82700	3700
3.82767	3698
3.82833	3696
3.82900	3694
3.82967	3692
3.83033	3690
3.83100	3688
3.83167	3686
3.83233	3684
3.83300	3682
3.83367	3680
3.83433	3678
3.83500	3677
3.83567	3675
3.83633	3673
3.83700	3671
3.83767	3669
3.83833	3667
3.83900	3665
3.83967	3663
3.84033	3661
3.84100	3660
3.84167	3658
3.84233	3656
3.84300	3654
3.84367	3652
3.84433	3651
3.84500	3649
3.84567	3647
3.84633	3645
3.84700	3644
3.84767	3642
3.84833	3640
3.84900	3639
3.84967	3637
3.85033	3636
3.85100	3634
3.85167	3632
3.85233	3631
3.85300	3629
3.85367	3627
3.85433	3626
3.85500	3624
3.85567	3623
3.85633	3622
3.85700	3620
3.85767	3619
3.85833	3617
3.85900	3616
3.85967	3615
3.86033	3613
3.86100	3612
3.86167	3611
3.86233	3610
3.86300	3608
3.86367	3607
3.86433	3606
3.86500	3605
3.86567	3604
3.86633	3602
3.86700	3601
3.86767	3600
3.86833	3599
3.86900	3597
3.86967	3596
3.87033	3595
3.87100	3594
3.87167	3593
3.87233	3591
3.87300	3590
3.87367	3589
3.87433	3588
3.87500	3586
3.87567	3585
3.87633	3584
3.87700	3583
3.87767	3581
3.87833	3580
3.87900	3579
3.87967	3578
3.88033	3576
3.88100	3575
3.88167	3574
3.88233	3573
3.88300	3571
3.88367	3570
3.88433	3569
3.88500	3567
3.88567	3566
3.88633	3565
3.88700	3564
3.88767	3562
3.88833	3561
3.88900	3560
3.88967	3559
3.89033	3557
3.89100	3556
3.89167	3555
3.89233	3554
3.89300	3553
3.89367	3551
3.89433	3550
3.89500	3549
3.89567	3548
3.89633	3547
3.89700	3546
3.89767	3545
3.89833	3544
3.89900	3543
3.89967	3542
3.90033	3541
3.90100	3540
3.90167	3539
3.90233	3538
3.90300	3537
3.90367	3536
3.90433	3535
3.90500	3534
3.90567	3533
3.90633	3532
3.90700	3531
3.90767	3530
3.90833	3529
3.90900	3528
3.90967	3527
3.91033	3526
3.91100	3525
3.91167	3524
3.91233	3522
3.91300	3521
3.91367	3520
3.91433	3519
3.91500	3518
3.91567	3517
3.91633	3516
3.91700	3515
3.91767	3514
3.91833	3513
3.91900	3512
3.91967	3511
3.92033	3510
3.92100	3509
3.92167	3508
3.92233	3507
3.92300	3506
3.92367	3505
3.92433	3504
3.92500	3503
3.92567	3502
3.92633	3501
3.92700	3500
3.92767	3498
3.92833	3497
3.92900	3496
3.92967	3495
3.93033	3494
3.93100	3493
3.93167	3492
3.93233	3491
3.93300	3490
3.93367	3489
3.93433	3488
3.93500	3487
3.93567	3486
3.93633	3485
3.93700	3484
3.93767	3483
3.93833	3482
3.93900	3481
3.93967	3480
3.94033	3479
3.94100	3478
3.94167	3476
3.94233	3475
3.94300	3474
3.94367	3473
3.94433	3472
3.94500	3471
3.94567	3470
3.94633	3469
3.94700	3468
3.94767	3467
3.94833	3467
3.94900	3466
3.94967	3465
3.95033	3464
3.95100	3463
3.95167	3462
3.95233	3461
3.95300	3460
3.95367	3459
3.95433	3458
3.95500	3457
3.95567	3456
3.95633	3455
3.95700	3454
3.95767	3453
3.95833	3452
3.95900	3452
3.95967	3451
3.96033	3450
3.96100	3450
3.96167	3449
3.96233	3449
3.96300	3448
3.96367	3448
3.96433	3448
3.96500	3447
3.96567	3447
3.96633	3446
3.96700	3446
3.96767	3446
3.96833	3446
3.96900	3445
3.96967	3445
3.97033	3445
3.97100	3445
3.97167	3445
3.97233	3444
3.97300	3444
3.97367	3444
3.97433	3444
3.97500	3444
3.97567	3444
3.97633	3444
3.97700	3444
3.97767	3444
3.97833	3444
3.97900	3444
3.97967	3444
3.98033	3444
3.98100	3444
3.98167	3444
3.98233	3444
3.98300	3444
3.98367	3444
3.98433	3444
3.98500	3444
3.98567	3444
3.98633	3445
3.98700	3445
3.98767	3445
3.98833	3445
3.98900	3445
3.98967	3445
3.99033	3446
3.99100	3446
3.99167	3446
3.99233	3446
3.99300	3446
3.99367	3447
3.99433	3447
3.99500	3447
3.99567	3447
3.99633	3448
3.99700	3448
3.99767	3449
3.99833	3449
3.99900	3449
3.99967	3450
4.00033	3451
4.00100	3451
4.00167	3452
4.00233	3452
4.00300	3453
4.00367	3454
4.00433	3455
4.00500	3455
4.00567	3456
4.00633	3457
4.00700	3458
4.00767	3459
4.00833	3460
4.00900	3461
4.00967	3463
4.01033	3464
4.01100	3465
4.01167	3466
4.01233	3468
4.01300	3469
4.01367	3471
4.01433	3473
4.01500	3475
4.01567	3476
4.01633	3478
4.01700	3480
4.01767	3482
4.01833	3485
4.01900	3487
4.01967	3489
4.02033	3491
4.02100	3494
4.02167	3496
4.02233	3498
4.02300	3501
4.02367	3504
4.02433	3506
4.02500	3509
4.02567	3512
4.02633	3515
4.02700	3517
4.02767	3520
4.02833	3523
4.02900	3527
4.02967	3530
4.03033	3533
4.03100	3536
4.03167	3540
4.03233	3543
4.03300	3547
4.03367	3550
4.03433	3554
4.03500	3557
4.03567	3561
4.03633	3565
4.03700	3569
4.03767	3573
4.03833	3577
4.03900	3581
4.03967	3585
4.04033	3589
4.04100	3593
4.04167	3597
4.04233	3601
4.04300	3606
4.04367	3610
4.04433	3615
4.04500	3619
4.04567	3624
4.04633	3628
4.04700	3633
4.04767	3638
4.04833	3642
4.04900	3647
4.04967	3652
4.05033	3657
4.05100	3661
4.05167	3666
4.05233	3671
4.05300	3676
4.05367	3681
4.05433	3685
4.05500	3690
4.05567	3695
4.05633	3700
4.05700	3705
4.05767	3710
4.05833	3715
4.05900	3720
4.05967	3725
4.06033	3729
4.06100	3734
4.06167	3739
4.06233	3744
4.06300	3749
4.06367	3754
4.06433	3759
4.06500	3763
4.06567	3768
4.06633	3773
4.06700	3777
4.06767	3782
4.06833	3786
4.06900	3791
4.06967	3795
4.07033	3800
4.07100	3804
4.07167	3809
4.07233	3813
4.07300	3817
4.07367	3822
4.07433	3826
4.07500	3830
4.07567	3834
4.07633	3838
4.07700	3842
4.07767	3846
4.07833	3850
4.07900	3854
4.07967	3857
4.08033	3861
4.08100	3864
4.08167	3868
4.08233	3871
4.08300	3874
4.08367	3878
4.08433	3881
4.08500	3884
4.08567	3887
4.08633	3890
4.08700	3893
4.08767	3896
4.08833	3899
4.08900	3901
4.08967	3904
4.09033	3907
4.09100	3909
4.09167	3912
4.09233	3914
4.09300	3916
4.09367	3919
4.09433	3921
4.09500	3923
4.09567	3925
4.09633	3927
4.09700	3929
4.09767	3931
4.09833	3933
4.09900	3935
4.09967	3936
4.10033	3938
4.10100	3940
4.10167	3941
4.10233	3943
4.10300	3944
4.10367	3945
4.10433	3947
4.10500	3948
4.10567	3949
4.10633	3950
4.10700	3952
4.10767	3953
4.10833	3954
4.10900	3955
4.10967	3956
4.11033	3957
4.11100	3957
4.11167	3958
4.11233	3959
4.11300	3960
4.11367	3960
4.11433	3961
4.11500	3962
4.11567	3962
4.11633	3963
4.11700	3963
4.11767	3963
4.11833	3964
4.11900	3964
4.11967	3964
4.12033	3965
4.12100	3965
4.12167	3965
4.12233	3965
4.12300	3966
4.12367	3966
4.12433	3966
4.12500	3966
4.12567	3966
4.12633	3966
4.12700	3966
4.12767	3966
4.12833	3966
4.12900	3966
4.12967	3966
4.13033	3966
4.13100	3967
4.13167	3967
4.13233	3967
4.13300	3967
4.13367	3967
4.13433	3967
4.13500	3967
4.13567	3967
4.13633	3967
4.13700	3967
4.13767	3967
4.13833	3966
4.13900	3966
4.13967	3966
4.14033	3966
4.14100	3966
4.14167	3966
4.14233	3966
4.14300	3966
4.14367	3966
4.14433	3965
4.14500	3965
4.14567	3965
4.14633	3965
4.14700	3965
4.14767	3964
4.14833	3964
4.14900	3964
4.14967	3964
4.15033	3964
4.15100	3963
4.15167	3963
4.15233	3963
4.15300	3962
4.15367	3962
4.15433	3962
4.15500	3961
4.15567	3961
4.15633	3961
4.15700	3960
4.15767	3960
4.15833	3960
4.15900	3959
4.15967	3959
4.16033	3958
4.16100	3958
4.16167	3957
4.16233	3957
4.16300	3956
4.16367	3956
4.16433	3956
4.16500	3955
4.16567	3955
4.16633	3954
4.16700	3954
4.16767	3953
4.16833	3953
4.16900	3953
4.16967	3952
4.17033	3952
4.17100	3952
4.17167	3951
4.17233	3951
4.17300	3950
4.17367	3950
4.17433	3950
4.17500	3950
4.17567	3949
4.17633	3949
4.17700	3949
4.17767	3949
4.17833	3948
4.17900	3948
4.17967	3948
4.18033	3948
4.18100	3948
4.18167	3948
4.18233	3948
4.18300	3948
4.18367	3948
4.18433	3948
4.18500	3948
4.18567	3948
4.18633	3949
4.18700	3949
4.18767	3950
4.18833	3950
4.18900	3951
4.18967	3952
4.19033	3952
4.19100	3953
4.19167	3954
4.19233	3955
4.19300	3957
4.19367	3958
4.19433	3959
4.19500	3961
4.19567	3962
4.19633	3964
4.19700	3965
4.19767	3967
4.19833	3969
4.19900	3971
4.19967	3973
4.20033	3976
4.20100	3978
4.20167	3981
4.20233	3983
4.20300	3986
4.20367	3989
4.20433	3992
4.20500	3995
4.20567	3999
4.20633	4002
4.20700	4006
4.20767	4010
4.20833	4014
4.20900	4018
4.20967	4022
4.21033	4027
4.21100	4032
4.21167	4036
4.21233	4042
4.21300	4047
4.21367	4052
4.21433	4058
4.21500	4064
4.21567	4070
4.21633	4077
4.21700	4083
4.21767	4090
4.21833	4097
4.21900	4104
4.21967	4112
4.22033	4120
4.22100	4128
4.22167	4136
4.22233	4145
4.22300	4154
4.22367	4163
4.22433	4172
4.22500	4182
4.22567	4192
4.22633	4202
4.22700	4213
4.22767	4224
4.22833	4235
4.22900	4247
4.22967	4259
4.23033	4271
4.23100	4283
4.23167	4296
4.23233	4309
4.23300	4323
4.23367	4336
4.23433	4351
4.23500	4365
4.23567	4380
4.23633	4395
4.23700	4410
4.23767	4426
4.23833	4442
4.23900	4458
4.23967	4475
4.24033	4492
4.24100	4510
4.24167	4527
4.24233	4546
4.24300	4564
4.24367	4583
4.24433	4602
4.24500	4622
4.24567	4642
4.24633	4663
4.24700	4683
4.24767	4705
4.24833	4726
4.24900	4748
4.24967	4771
4.25033	4794
4.25100	4817
4.25167	4840
4.25233	4864
4.25300	4889
4.25367	4913
4.25433	4938
4.25500	4964
4.25567	4989
4.25633	5015
4.25700	5042
4.25767	5069
4.25833	5096
4.25900	5123
4.25967	5151
4.26033	5179
4.26100	5208
4.26167	5237
4.26233	5266
4.26300	5296
4.26367	5325
4.26433	5356
4.26500	5386
4.26567	5417
4.26633	5448
4.26700	5479
4.26767	5511
4.26833	5543
4.26900	5575
4.26967	5608
4.27033	5641
4.27100	5674
4.27167	5707
4.27233	5741
4.27300	5774
4.27367	5808
4.27433	5843
4.27500	5877
4.27567	5912
4.27633	5947
4.27700	5982
4.27767	6017
4.27833	6053
4.27900	6089
4.27967	6125
4.28033	6161
4.28100	6197
4.28167	6234
4.28233	6271
4.28300	6308
4.28367	6345
4.28433	6382
4.28500	6419
4.28567	6456
4.28633	6494
4.28700	6531
4.28767	6569
4.28833	6607
4.28900	6644
4.28967	6682
4.29033	6720
4.29100	6757
4.29167	6795
4.29233	6832
4.29300	6870
4.29367	6907
4.29433	6944
4.29500	6982
4.29567	7019
4.29633	7055
4.29700	7092
4.29767	7129
4.29833	7165
4.29900	7202
4.29967	7238
4.30033	7274
4.30100	7309
4.30167	7345
4.30233	7380
4.30300	7415
4.30367	7449
4.30433	7484
4.30500	7518
4.30567	7552
4.30633	7585
4.30700	7618
4.30767	7651
4.30833	7683
4.30900	7715
4.30967	7747
4.31033	7778
4.31100	7808
4.31167	7839
4.31233	7868
4.31300	7898
4.31367	7927
4.31433	7955
4.31500	7983
4.31567	8010
4.31633	8037
4.31700	8064
4.31767	8089
4.31833	8115
4.31900	8140
4.31967	8164
4.32033	8187
4.32100	8210
4.32167	8233
4.32233	8255
4.32300	8276
4.32367	8297
4.32433	8317
4.32500	8336
4.32567	8355
4.32633	8373
4.32700	8390
4.32767	8407
4.32833	8423
4.32900	8438
4.32967	8453
4.33033	8467
4.33100	8480
4.33167	8493
4.33233	8505
4.33300	8517
4.33367	8527
4.33433	8538
4.33500	8547
4.33567	8556
4.33633	8565
4.33700	8572
4.33767	8580
4.33833	8586
4.33900	8592
4.33967	8598
4.34033	8603
4.34100	8607
4.34167	8611
4.34233	8614
4.34300	8616
4.34367	8618
4.34433	8620
4.34500	8621
4.34567	8621
4.34633	8622
4.34700	8621
4.34767	8620
4.34833	8619
4.34900	8617
4.34967	8615
4.35033	8613
4.35100	8610
4.35167	8607
4.35233	8604
4.35300	8600
4.35367	8596
4.35433	8592
4.35500	8587
4.35567	8583
4.35633	8578
4.35700	8573
4.35767	8568
4.35833	8564
4.35900	8559
4.35967	8554
4.36033	8549
4.36100	8544
4.36167	8540
4.36233	8535
4.36300	8531
4.36367	8528
4.36433	8524
4.36500	8521
4.36567	8518
4.36633	8516
4.36700	8514
4.36767	8513
4.36833	8512
4.36900	8512
4.36967	8512
4.37033	8513
4.37100	8515
4.37167	8517
4.37233	8520
4.37300	8524
4.37367	8529
4.37433	8535
4.37500	8541
4.37567	8548
4.37633	8557
4.37700	8566
4.37767	8577
4.37833	8588
4.37900	8601
4.37967	8614
4.38033	8629
4.38100	8645
4.38167	8662
4.38233	8681
4.38300	8700
4.38367	8721
4.38433	8744
4.38500	8767
4.38567	8792
4.38633	8819
4.38700	8846
4.38767	8875
4.38833	8906
4.38900	8938
4.38967	8971
4.39033	9005
4.39100	9041
4.39167	9079
4.39233	9117
4.39300	9158
4.39367	9199
4.39433	9242
4.39500	9287
4.39567	9333
4.39633	9380
4.39700	9429
4.39767	9480
4.39833	9532
4.39900	9586
4.39967	9641
4.40033	9697
4.40100	9756
4.40167	9815
4.40233	9876
4.40300	9939
4.40367	10002
4.40433	10067
4.40500	10134
4.40567	10201
4.40633	10270
4.40700	10340
4.40767	10411
4.40833	10484
4.40900	10557
4.40967	10631
4.41033	10706
4.41100	10782
4.41167	10859
4.41233	10937
4.41300	11016
4.41367	11095
4.41433	11175
4.41500	11256
4.41567	11337
4.41633	11419
4.41700	11502
4.41767	11585
4.41833	11669
4.41900	11753
4.41967	11837
4.42033	11922
4.42100	12007
4.42167	12093
4.42233	12179
4.42300	12265
4.42367	12351
4.42433	12437
4.42500	12524
4.42567	12610
4.42633	12696
4.42700	12782
4.42767	12868
4.42833	12953
4.42900	13039
4.42967	13123
4.43033	13207
4.43100	13291
4.43167	13374
4.43233	13456
4.43300	13537
4.43367	13617
4.43433	13697
4.43500	13775
4.43567	13852
4.43633	13928
4.43700	14003
4.43767	14077
4.43833	14149
4.43900	14219
4.43967	14288
4.44033	14356
4.44100	14422
4.44167	14486
4.44233	14548
4.44300	14609
4.44367	14668
4.44433	14725
4.44500	14780
4.44567	14833
4.44633	14885
4.44700	14934
4.44767	14981
4.44833	15026
4.44900	15069
4.44967	15109
4.45033	15148
4.45100	15184
4.45167	15218
4.45233	15249
4.45300	15279
4.45367	15306
4.45433	15331
4.45500	15353
4.45567	15373
4.45633	15391
4.45700	15406
4.45767	15419
4.45833	15430
4.45900	15438
4.45967	15444
4.46033	15447
4.46100	15448
4.46167	15446
4.46233	15441
4.46300	15435
4.46367	15425
4.46433	15414
4.46500	15399
4.46567	15383
4.46633	15364
4.46700	15342
4.46767	15319
4.46833	15293
4.46900	15264
4.46967	15234
4.47033	15201
4.47100	15166
4.47167	15128
4.47233	15088
4.47300	15047
4.47367	15003
4.47433	14956
4.47500	14908
4.47567	14858
4.47633	14806
4.47700	14752
4.47767	14695
4.47833	14638
4.47900	14578
4.47967	14516
4.48033	14453
4.48100	14389
4.48167	14322
4.48233	14254
4.48300	14185
4.48367	14115
4.48433	14043
4.48500	13969
4.48567	13895
4.48633	13819
4.48700	13742
4.48767	13664
4.48833	13585
4.48900	13505
4.48967	13424
4.49033	13343
4.49100	13260
4.49167	13177
4.49233	13093
4.49300	13008
4.49367	12923
4.49433	12837
4.49500	12751
4.49567	12665
4.49633	12578
4.49700	12491
4.49767	12403
4.49833	12316
4.49900	12228
4.49967	12140
4.50033	12052
4.50100	11964
4.50167	11877
4.50233	11789
4.50300	11702
4.50367	11615
4.50433	11528
4.50500	11441
4.50567	11355
4.50633	11269
4.50700	11183
4.50767	11098
4.50833	11014
4.50900	10930
4.50967	10846
4.51033	10764
4.51100	10682
4.51167	10601
4.51233	10521
4.51300	10441
4.51367	10363
4.51433	10285
4.51500	10208
4.51567	10133
4.51633	10058
4.51700	9985
4.51767	9912
4.51833	9841
4.51900	9771
4.51967	9703
4.52033	9635
4.52100	9569
4.52167	9504
4.52233	9440
4.52300	9378
4.52367	9317
4.52433	9257
4.52500	9199
4.52567	9142
4.52633	9086
4.52700	9032
4.52767	8980
4.52833	8928
4.52900	8879
4.52967	8831
4.53033	8784
4.53100	8739
4.53167	8696
4.53233	8654
4.53300	8613
4.53367	8575
4.53433	8538
4.53500	8502
4.53567	8468
4.53633	8436
4.53700	8405
4.53767	8376
4.53833	8349
4.53900	8324
4.53967	8300
4.54033	8277
4.54100	8257
4.54167	8238
4.54233	8220
4.54300	8205
4.54367	8191
4.54433	8178
4.54500	8168
4.54567	8158
4.54633	8151
4.54700	8145
4.54767	8141
4.54833	8138
4.54900	8137
4.54967	8137
4.55033	8139
4.55100	8143
4.55167	8148
4.55233	8155
4.55300	8163
4.55367	8173
4.55433	8184
4.55500	8197
4.55567	8211
4.55633	8227
4.55700	8244
4.55767	8262
4.55833	8282
4.55900	8304
4.55967	8326
4.56033	8351
4.56100	8376
4.56167	8403
4.56233	8430
4.56300	8459
4.56367	8490
4.56433	8521
4.56500	8554
4.56567	8587
4.56633	8622
4.56700	8658
4.56767	8695
4.56833	8732
4.56900	8771
4.56967	8811
4.57033	8851
4.57100	8892
4.57167	8935
4.57233	8977
4.57300	9021
4.57367	9065
4.57433	9110
4.57500	9156
4.57567	9202
4.57633	9249
4.57700	9296
4.57767	9344
4.57833	9393
4.57900	9441
4.57967	9491
4.58033	9540
4.58100	9590
4.58167	9641
4.58233	9691
4.58300	9742
4.58367	9793
4.58433	9844
4.58500	9896
4.58567	9947
4.58633	9999
4.58700	10050
4.58767	10101
4.58833	10153
4.58900	10204
4.58967	10255
4.59033	10305
4.59100	10356
4.59167	10406
4.59233	10455
4.59300	10505
4.59367	10554
4.59433	10602
4.59500	10650
4.59567	10697
4.59633	10744
4.59700	10791
4.59767	10837
4.59833	10882
4.59900	10927
4.59967	10971
4.60033	11015
4.60100	11058
4.60167	11100
4.60233	11141
4.60300	11182
4.60367	11222
4.60433	11261
4.60500	11300
4.60567	11337
4.60633	11374
4.60700	11410
4.60767	11445
4.60833	11480
4.60900	11513
4.60967	11546
4.61033	11578
4.61100	11609
4.61167	11639
4.61233	11668
4.61300	11697
4.61367	11724
4.61433	11751
4.61500	11777
4.61567	11802
4.61633	11825
4.61700	11848
4.61767	11870
4.61833	11891
4.61900	11911
4.61967	11930
4.62033	11948
4.62100	11965
4.62167	11981
4.62233	11996
4.62300	12011
4.62367	12024
4.62433	12036
4.62500	12048
4.62567	12058
4.62633	12068
4.62700	12076
4.62767	12084
4.62833	12090
4.62900	12096
4.62967	12101
4.63033	12104
4.63100	12107
4.63167	12109
4.63233	12110
4.63300	12111
4.63367	12110
4.63433	12108
4.63500	12106
4.63567	12102
4.63633	12098
4.63700	12093
4.63767	12087
4.63833	12081
4.63900	12073
4.63967	12065
4.64033	12056
4.64100	12047
4.64167	12037
4.64233	12026
4.64300	12015
4.64367	12003
4.64433	11991
4.64500	11978
4.64567	11965
4.64633	11951
4.64700	11937
4.64767	11922
4.64833	11907
4.64900	11891
4.64967	11875
4.65033	11858
4.65100	11841
4.65167	11823
4.65233	11805
4.65300	11786
4.65367	11767
4.65433	11748
4.65500	11728
4.65567	11707
4.65633	11687
4.65700	11666
4.65767	11644
4.65833	11623
4.65900	11600
4.65967	11578
4.66033	11555
4.66100	11533
4.66167	11509
4.66233	11486
4.66300	11463
4.66367	11439
4.66433	11415
4.66500	11391
4.66567	11367
4.66633	11343
4.66700	11318
4.66767	11294
4.66833	11269
4.66900	11244
4.66967	11219
4.67033	11194
4.67100	11169
4.67167	11144
4.67233	11119
4.67300	11094
4.67367	11069
4.67433	11044
4.67500	11019
4.67567	10994
4.67633	10969
4.67700	10944
4.67767	10919
4.67833	10895
4.67900	10870
4.67967	10845
4.68033	10820
4.68100	10795
4.68167	10770
4.68233	10745
4.68300	10720
4.68367	10695
4.68433	10670
4.68500	10645
4.68567	10621
4.68633	10596
4.68700	10571
4.68767	10546
4.68833	10522
4.68900	10497
4.68967	10473
4.69033	10449
4.69100	10424
4.69167	10400
4.69233	10376
4.69300	10353
4.69367	10329
4.69433	10305
4.69500	10282
4.69567	10259
4.69633	10236
4.69700	10213
4.69767	10190
4.69833	10167
4.69900	10145
4.69967	10123
4.70033	10101
4.70100	10079
4.70167	10057
4.70233	10036
4.70300	10014
4.70367	9993
4.70433	9972
4.70500	9952
4.70567	9931
4.70633	9911
4.70700	9891
4.70767	9871
4.70833	9851
4.70900	9832
4.70967	9812
4.71033	9793
4.71100	9774
4.71167	9755
4.71233	9736
4.71300	9718
4.71367	9699
4.71433	9681
4.71500	9662
4.71567	9644
4.71633	9626
4.71700	9608
4.71767	9590
4.71833	9573
4.71900	9555
4.71967	9537
4.72033	9520
4.72100	9503
4.72167	9485
4.72233	9468
4.72300	9451
4.72367	9434
4.72433	9418
4.72500	9401
4.72567	9385
4.72633	9369
4.72700	9353
4.72767	9337
4.72833	9322
4.72900	9306
4.72967	9291
4.73033	9276
4.73100	9261
4.73167	9246
4.73233	9232
4.73300	9217
4.73367	9203
4.73433	9189
4.73500	9174
4.73567	9161
4.73633	9147
4.73700	9133
4.73767	9119
4.73833	9106
4.73900	9093
4.73967	9079
4.74033	9066
4.74100	9054
4.74167	9041
4.74233	9028
4.74300	9016
4.74367	9003
4.74433	8991
4.74500	8978
4.74567	8966
4.74633	8954
4.74700	8942
4.74767	8931
4.74833	8919
4.74900	8908
4.74967	8896
4.75033	8885
4.75100	8874
4.75167	8863
4.75233	8852
4.75300	8841
4.75367	8830
4.75433	8820
4.75500	8809
4.75567	8799
4.75633	8788
4.75700	8778
4.75767	8768
4.75833	8758
4.75900	8748
4.75967	8738
4.76033	8728
4.76100	8718
4.76167	8708
4.76233	8698
4.76300	8688
4.76367	8679
4.76433	8669
4.76500	8660
4.76567	8650
4.76633	8641
4.76700	8631
4.76767	8622
4.76833	8612
4.76900	8603
4.76967	8594
4.77033	8584
4.77100	8575
4.77167	8566
4.77233	8556
4.77300	8547
4.77367	8538
4.77433	8529
4.77500	8520
4.77567	8511
4.77633	8502
4.77700	8493
4.77767	8484
4.77833	8475
4.77900	8466
4.77967	8458
4.78033	8449
4.78100	8441
4.78167	8432
4.78233	8423
4.78300	8415
4.78367	8406
4.78433	8398
4.78500	8389
4.78567	8381
4.78633	8372
4.78700	8364
4.78767	8356
4.78833	8347
4.78900	8339
4.78967	8331
4.79033	8322
4.79100	8314
4.79167	8306
4.79233	8298
4.79300	8289
4.79367	8281
4.79433	8273
4.79500	8265
4.79567	8257
4.79633	8249
4.79700	8241
4.79767	8233
4.79833	8225
4.79900	8218
4.79967	8210
4.80033	8202
4.80100	8194
4.80167	8187
4.80233	8179
4.80300	8171
4.80367	8163
4.80433	8155
4.80500	8148
4.80567	8140
4.80633	8132
4.80700	8125
4.80767	8117
4.80833	8109
4.80900	8102
4.80967	8094
4.81033	8086
4.81100	8079
4.81167	8071
4.81233	8064
4.81300	8056
4.81367	8049
4.81433	8041
4.81500	8034
4.81567	8026
4.81633	8019
4.81700	8011
4.81767	8004
4.81833	7996
4.81900	7989
4.81967	7982
4.82033	7974
4.82100	7967
4.82167	7960
4.82233	7952
4.82300	7945
4.82367	7938
4.82433	7931
4.82500	7924
4.82567	7916
4.82633	7909
4.82700	7902
4.82767	7895
4.82833	7888
4.82900	7881
4.82967	7874
4.83033	7867
4.83100	7860
4.83167	7853
4.83233	7846
4.83300	7839
4.83367	7833
4.83433	7826
4.83500	7820
4.83567	7813
4.83633	7807
4.83700	7800
4.83767	7794
4.83833	7788
4.83900	7782
4.83967	7776
4.84033	7770
4.84100	7764
4.84167	7758
4.84233	7752
4.84300	7746
4.84367	7740
4.84433	7734
4.84500	7728
4.84567	7722
4.84633	7716
4.84700	7710
4.84767	7704
4.84833	7698
4.84900	7693
4.84967	7687
4.85033	7681
4.85100	7675
4.85167	7670
4.85233	7664
4.85300	7658
4.85367	7652
4.85433	7647
4.85500	7641
4.85567	7635
4.85633	7630
4.85700	7624
4.85767	7618
4.85833	7612
4.85900	7607
4.85967	7601
4.86033	7595
4.86100	7589
4.86167	7583
4.86233	7577
4.86300	7571
4.86367	7565
4.86433	7559
4.86500	7553
4.86567	7547
4.86633	7542
4.86700	7536
4.86767	7530
4.86833	7524
4.86900	7518
4.86967	7512
4.87033	7506
4.87100	7500
4.87167	7494
4.87233	7489
4.87300	7483
4.87367	7477
4.87433	7471
4.87500	7465
4.87567	7460
4.87633	7454
4.87700	7448
4.87767	7442
4.87833	7437
4.87900	7431
4.87967	7425
4.88033	7419
4.88100	7413
4.88167	7407
4.88233	7401
4.88300	7395
4.88367	7389
4.88433	7383
4.88500	7377
4.88567	7371
4.88633	7365
4.88700	7359
4.88767	7353
4.88833	7347
4.88900	7341
4.88967	7335
4.89033	7329
4.89100	7323
4.89167	7317
4.89233	7311
4.89300	7305
4.89367	7299
4.89433	7293
4.89500	7287
4.89567	7281
4.89633	7275
4.89700	7269
4.89767	7263
4.89833	7258
4.89900	7252
4.89967	7246
4.90033	7241
4.90100	7235
4.90167	7230
4.90233	7224
4.90300	7219
4.90367	7214
4.90433	7209
4.90500	7203
4.90567	7198
4.90633	7193
4.90700	7188
4.90767	7183
4.90833	7178
4.90900	7173
4.90967	7168
4.91033	7162
4.91100	7157
4.91167	7152
4.91233	7147
4.91300	7142
4.91367	7137
4.91433	7133
4.91500	7128
4.91567	7123
4.91633	7118
4.91700	7113
4.91767	7108
4.91833	7104
4.91900	7099
4.91967	7094
4.92033	7090
4.92100	7085
4.92167	7081
4.92233	7076
4.92300	7072
4.92367	7067
4.92433	7063
4.92500	7059
4.92567	7054
4.92633	7050
4.92700	7046
4.92767	7041
4.92833	7037
4.92900	7033
4.92967	7029
4.93033	7025
4.93100	7020
4.93167	7016
4.93233	7012
4.93300	7007
4.93367	7003
4.93433	6999
4.93500	6995
4.93567	6991
4.93633	6986
4.93700	6982
4.93767	6978
4.93833	6974
4.93900	6969
4.93967	6965
4.94033	6961
4.94100	6956
4.94167	6952
4.94233	6948
4.94300	6943
4.94367	6939
4.94433	6934
4.94500	6930
4.94567	6926
4.94633	6921
4.94700	6917
4.94767	6913
4.94833	6909
4.94900	6904
4.94967	6900
4.95033	6896
4.95100	6892
4.95167	6888
4.95233	6884
4.95300	6880
4.95367	6876
4.95433	6872
4.95500	6868
4.95567	6864
4.95633	6860
4.95700	6856
4.95767	6852
4.95833	6849
4.95900	6845
4.95967	6841
4.96033	6837
4.96100	6833
4.96167	6829
4.96233	6825
4.96300	6822
4.96367	6818
4.96433	6814
4.96500	6810
4.96567	6806
4.96633	6802
4.96700	6799
4.96767	6795
4.96833	6791
4.96900	6787
4.96967	6783
4.97033	6780
4.97100	6776
4.97167	6772
4.97233	6768
4.97300	6765
4.97367	6761
4.97433	6757
4.97500	6753
4.97567	6749
4.97633	6745
4.97700	6741
4.97767	6737
4.97833	6733
4.97900	6729
4.97967	6725
4.98033	6721
4.98100	6717
4.98167	6713
4.98233	6709
4.98300	6705
4.98367	6700
4.98433	6696
4.98500	6692
4.98567	6688
4.98633	6684
4.98700	6680
4.98767	6675
4.98833	6671
4.98900	6667
4.98967	6663
4.99033	6659
4.99100	6655
4.99167	6651
4.99233	6646
4.99300	6642
4.99367	6638
4.99433	6635
4.99500	6631
4.99567	6627
4.99633	6623
4.99700	6619
4.99767	6615
4.99833	6611
4.99900	6607
4.99967	6603
5.00033	6599
5.00100	6595
5.00167	6592
5.00233	6588
5.00300	6584
5.00367	6580
5.00433	6577
5.00500	6573
5.00567	6569
5.00633	6566
5.00700	6562
5.00767	6559
5.00833	6555
5.00900	6551
5.00967	6548
5.01033	6544
5.01100	6541
5.01167	6537
5.01233	6534
5.01300	6530
5.01367	6527
5.01433	6523
5.01500	6519
5.01567	6516
5.01633	6512
5.01700	6509
5.01767	6505
5.01833	6502
5.01900	6498
5.01967	6495
5.02033	6491
5.02100	6488
5.02167	6485
5.02233	6481
5.02300	6478
5.02367	6475
5.02433	6471
5.02500	6468
5.02567	6465
5.02633	6462
5.02700	6458
5.02767	6455
5.02833	6452
5.02900	6449
5.02967	6446
5.03033	6443
5.03100	6440
5.03167	6437
5.03233	6434
5.03300	6431
5.03367	6428
5.03433	6425
5.03500	6422
5.03567	6419
5.03633	6416
5.03700	6413
5.03767	6410
5.03833	6407
5.03900	6404
5.03967	6401
5.04033	6398
5.04100	6395
5.04167	6392
5.04233	6389
5.04300	6386
5.04367	6383
5.04433	6380
5.04500	6377
5.04567	6374
5.04633	6371
5.04700	6368
5.04767	6366
5.04833	6363
5.04900	6360
5.04967	6357
5.05033	6354
5.05100	6351
5.05167	6348
5.05233	6345
5.05300	6342
5.05367	6338
5.05433	6335
5.05500	6332
5.05567	6329
5.05633	6326
5.05700	6323
5.05767	6320
5.05833	6316
5.05900	6313
5.05967	6310
5.06033	6307
5.06100	6303
5.06167	6300
5.06233	6297
5.06300	6294
5.06367	6291
5.06433	6287
5.06500	6284
5.06567	6281
5.06633	6278
5.06700	6275
5.06767	6272
5.06833	6269
5.06900	6265
5.06967	6262
5.07033	6259
5.07100	6256
5.07167	6254
5.07233	6251
5.07300	6248
5.07367	6245
5.07433	6242
5.07500	6240
5.07567	6237
5.07633	6234
5.07700	6232
5.07767	6229
5.07833	6226
5.07900	6224
5.07967	6221
5.08033	6219
5.08100	6216
5.08167	6214
5.08233	6212
5.08300	6209
5.08367	6207
5.08433	6205
5.08500	6203
5.08567	6201
5.08633	6199
5.08700	6197
5.08767	6195
5.08833	6193
5.08900	6191
5.08967	6189
5.09033	6187
5.09100	6186
5.09167	6184
5.09233	6182
5.09300	6181
5.09367	6179
5.09433	6178
5.09500	6177
5.09567	6175
5.09633	6174
5.09700	6172
5.09767	6171
5.09833	6170
5.09900	6169
5.09967	6168
5.10033	6167
5.10100	6166
5.10167	6165
5.10233	6164
5.10300	6163
5.10367	6163
5.10433	6162
5.10500	6162
5.10567	6161
5.10633	6161
5.10700	6161
5.10767	6161
5.10833	6161
5.10900	6161
5.10967	6161
5.11033	6162
5.11100	6162
5.11167	6163
5.11233	6163
5.11300	6164
5.11367	6165
5.11433	6166
5.11500	6167
5.11567	6168
5.11633	6169
5.11700	6170
5.11767	6171
5.11833	6173
5.11900	6174
5.11967	6176
5.12033	6178
5.12100	6180
5.12167	6182
5.12233	6184
5.12300	6187
5.12367	6189
5.12433	6192
5.12500	6195
5.12567	6198
5.12633	6201
5.12700	6205
5.12767	6209
5.12833	6213
5.12900	6217
5.12967	6222
5.13033	6226
5.13100	6231
5.13167	6236
5.13233	6242
5.13300	6247
5.13367	6253
5.13433	6259
5.13500	6266
5.13567	6273
5.13633	6280
5.13700	6287
5.13767	6294
5.13833	6302
5.13900	6310
5.13967	6319
5.14033	6328
5.14100	6337
5.14167	6346
5.14233	6356
5.14300	6366
5.14367	6377
5.14433	6387
5.14500	6399
5.14567	6410
5.14633	6422
5.14700	6434
5.14767	6447
5.14833	6460
5.14900	6474
5.14967	6488
5.15033	6502
5.15100	6517
5.15167	6532
5.15233	6547
5.15300	6563
5.15367	6580
5.15433	6597
5.15500	6614
5.15567	6632
5.15633	6650
5.15700	6669
5.15767	6688
5.15833	6708
5.15900	6728
5.15967	6749
5.16033	6770
5.16100	6792
5.16167	6814
5.16233	6837
5.16300	6860
5.16367	6884
5.16433	6908
5.16500	6933
5.16567	6958
5.16633	6984
5.16700	7010
5.16767	7037
5.16833	7064
5.16900	7092
5.16967	7120
5.17033	7148
5.17100	7177
5.17167	7207
5.17233	7237
5.17300	7267
5.17367	7298
5.17433	7329
5.17500	7360
5.17567	7392
5.17633	7424
5.17700	7457
5.17767	7490
5.17833	7523
5.17900	7557
5.17967	7591
5.18033	7625
5.18100	7659
5.18167	7694
5.18233	7729
5.18300	7765
5.18367	7800
5.18433	7836
5.18500	7872
5.18567	7909
5.18633	7945
5.18700	7982
5.18767	8019
5.18833	8056
5.18900	8093
5.18967	8131
5.19033	8168
5.19100	8206
5.19167	8243
5.19233	8281
5.19300	8319
5.19367	8356
5.19433	8394
5.19500	8432
5.19567	8470
5.19633	8507
5.19700	8545
5.19767	8583
5.19833	8620
5.19900	8657
5.19967	8695
5.20033	8732
5.20100	8769
5.20167	8805
5.20233	8842
5.20300	8878
5.20367	8914
5.20433	8950
5.20500	8985
5.20567	9021
5.20633	9056
5.20700	9090
5.20767	9125
5.20833	9159
5.20900	9192
5.20967	9226
5.21033	9258
5.21100	9291
5.21167	9323
5.21233	9354
5.21300	9385
5.21367	9416
5.21433	9446
5.21500	9476
5.21567	9505
5.21633	9533
5.21700	9562
5.21767	9589
5.21833	9616
5.21900	9643
5.21967	9669
5.22033	9694
5.22100	9719
5.22167	9743
5.22233	9766
5.22300	9789
5.22367	9811
5.22433	9832
5.22500	9853
5.22567	9873
5.22633	9892
5.22700	9910
5.22767	9928
5.22833	9945
5.22900	9961
5.22967	9977
5.23033	9992
5.23100	10006
5.23167	10019
5.23233	10032
5.23300	10043
5.23367	10054
5.23433	10065
5.23500	10074
5.23567	10083
5.23633	10091
5.23700	10098
5.23767	10105
5.23833	10111
5.23900	10116
5.23967	10120
5.24033	10124
5.24100	10127
5.24167	10129
5.24233	10130
5.24300	10131
5.24367	10131
5.24433	10130
5.24500	10129
5.24567	10127
5.24633	10124
5.24700	10121
5.24767	10117
5.24833	10112
5.24900	10107
5.24967	10101
5.25033	10095
5.25100	10088
5.25167	10080
5.25233	10072
5.25300	10063
5.25367	10053
5.25433	10043
5.25500	10033
5.25567	10022
5.25633	10010
5.25700	9998
5.25767	9985
5.25833	9972
5.25900	9959
5.25967	9944
5.26033	9930
5.26100	9914
5.26167	9899
5.26233	9883
5.26300	9866
5.26367	9849
5.26433	9832
5.26500	9814
5.26567	9796
5.26633	9778
5.26700	9759
5.26767	9740
5.26833	9720
5.26900	9700
5.26967	9680
5.27033	9660
5.27100	9640
5.27167	9619
5.27233	9598
5.27300	9577
5.27367	9555
5.27433	9533
5.27500	9511
5.27567	9489
5.27633	9467
5.27700	9444
5.27767	9421
5.27833	9398
5.27900	9375
5.27967	9352
5.28033	9329
5.28100	9305
5.28167	9282
5.28233	9258
5.28300	9234
5.28367	9211
5.28433	9187
5.28500	9163
5.28567	9139
5.28633	9114
5.28700	9090
5.28767	9066
5.28833	9042
5.28900	9017
5.28967	8993
5.29033	8969
5.29100	8944
5.29167	8920
5.29233	8895
5.29300	8871
5.29367	8847
5.29433	8822
5.29500	8798
5.29567	8774
5.29633	8749
5.29700	8725
5.29767	8701
5.29833	8677
5.29900	8653
5.29967	8629
5.30033	8605
5.30100	8581
5.30167	8558
5.30233	8534
5.30300	8511
5.30367	8488
5.30433	8465
5.30500	8442
5.30567	8419
5.30633	8396
5.30700	8374
5.30767	8352
5.30833	8329
5.30900	8307
5.30967	8285
5.31033	8263
5.31100	8241
5.31167	8220
5.31233	8198
5.31300	8177
5.31367	8156
5.31433	8134
5.31500	8113
5.31567	8093
5.31633	8072
5.31700	8051
5.31767	8031
5.31833	8011
5.31900	7991
5.31967	7971
5.32033	7951
5.32100	7931
5.32167	7912
5.32233	7893
5.32300	7874
5.32367	7855
5.32433	7836
5.32500	7817
5.32567	7799
5.32633	7780
5.32700	7762
5.32767	7744
5.32833	7726
5.32900	7708
5.32967	7691
5.33033	7673
5.33100	7656
5.33167	7638
5.33233	7621
5.33300	7604
5.33367	7588
5.33433	7571
5.33500	7555
5.33567	7538
5.33633	7522
5.33700	7506
5.33767	7491
5.33833	7475
5.33900	7460
5.33967	7444
5.34033	7429
5.34100	7414
5.34167	7400
5.34233	7385
5.34300	7370
5.34367	7356
5.34433	7342
5.34500	7328
5.34567	7314
5.34633	7300
5.34700	7286
5.34767	7272
5.34833	7259
5.34900	7245
5.34967	7232
5.35033	7219
5.35100	7206
5.35167	7193
5.35233	7180
5.35300	7167
5.35367	7155
5.35433	7143
5.35500	7130
5.35567	7118
5.35633	7106
5.35700	7094
5.35767	7082
5.35833	7071
5.35900	7059
5.35967	7048
5.36033	7036
5.36100	7025
5.36167	7014
5.36233	7003
5.36300	6992
5.36367	6981
5.36433	6970
5.36500	6960
5.36567	6949
5.36633	6939
5.36700	6928
5.36767	6918
5.36833	6908
5.36900	6898
5.36967	6888
5.37033	6878
5.37100	6868
5.37167	6858
5.37233	6849
5.37300	6839
5.37367	6830
5.37433	6820
5.37500	6811
5.37567	6802
5.37633	6793
5.37700	6784
5.37767	6775
5.37833	6766
5.37900	6757
5.37967	6748
5.38033	6739
5.38100	6731
5.38167	6722
5.38233	6714
5.38300	6705
5.38367	6697
5.38433	6689
5.38500	6681
5.38567	6672
5.38633	6664
5.38700	6656
5.38767	6649
5.38833	6641
5.38900	6633
5.38967	6625
5.39033	6618
5.39100	6610
5.39167	6603
5.39233	6595
5.39300	6588
5.39367	6581
5.39433	6573
5.39500	6566
5.39567	6559
5.39633	6552
5.39700	6546
5.39767	6539
5.39833	6532
5.39900	6525
5.39967	6519
5.40033	6512
5.40100	6506
5.40167	6499
5.40233	6493
5.40300	6486
5.40367	6480
5.40433	6474
5.40500	6467
5.40567	6461
5.40633	6455
5.40700	6449
5.40767	6443
5.40833	6437
5.40900	6431
5.40967	6425
5.41033	6419
5.41100	6413
5.41167	6407
5.41233	6402
5.41300	6396
5.41367	6390
5.41433	6384
5.41500	6379
5.41567	6373
5.41633	6367
5.41700	6362
5.41767	6356
5.41833	6351
5.41900	6345
5.41967	6340
5.42033	6334
5.42100	6329
5.42167	6323
5.42233	6318
5.42300	6312
5.42367	6307
5.42433	6301
5.42500	6296
5.42567	6290
5.42633	6285
5.42700	6279
5.42767	6273
5.42833	6268
5.42900	6262
5.42967	6257
5.43033	6251
5.43100	6246
5.43167	6240
5.43233	6235
5.43300	6229
5.43367	6224
5.43433	6219
5.43500	6213
5.43567	6208
5.43633	6202
5.43700	6197
5.43767	6192
5.43833	6187
5.43900	6182
5.43967	6176
5.44033	6171
5.44100	6166
5.44167	6161
5.44233	6156
5.44300	6151
5.44367	6146
5.44433	6141
5.44500	6136
5.44567	6131
5.44633	6126
5.44700	6121
5.44767	6117
5.44833	6112
5.44900	6107
5.44967	6102
5.45033	6098
5.45100	6093
5.45167	6088
5.45233	6084
5.45300	6079
5.45367	6074
5.45433	6070
5.45500	6065
5.45567	6061
5.45633	6056
5.45700	6052
5.45767	6047
5.45833	6043
5.45900	6038
5.45967	6034
5.46033	6030
5.46100	6025
5.46167	6021
5.46233	6016
5.46300	6012
5.46367	6008
5.46433	6003
5.46500	5999
5.46567	5995
5.46633	5991
5.46700	5986
5.46767	5982
5.46833	5978
5.46900	5973
5.46967	5969
5.47033	5965
5.47100	5961
5.47167	5956
5.47233	5952
5.47300	5948
5.47367	5944
5.47433	5939
5.47500	5935
5.47567	5931
5.47633	5927
5.47700	5923
5.47767	5919
5.47833	5915
5.47900	5911
5.47967	5907
5.48033	5903
5.48100	5899
5.48167	5895
5.48233	5891
5.48300	5888
5.48367	5884
5.48433	5880
5.48500	5876
5.48567	5873
5.48633	5869
5.48700	5865
5.48767	5862
5.48833	5858
5.48900	5854
5.48967	5851
5.49033	5847
5.49100	5844
5.49167	5840
5.49233	5837
5.49300	5833
5.49367	5830
5.49433	5826
5.49500	5823
5.49567	5819
5.49633	5816
5.49700	5812
5.49767	5809
5.49833	5805
5.49900	5802
5.49967	5799
5.50033	5796
5.50100	5792
5.50167	5789
5.50233	5786
5.50300	5783
5.50367	5780
5.50433	5777
5.50500	5773
5.50567	5770
5.50633	5767
5.50700	5764
5.50767	5761
5.50833	5758
5.50900	5755
5.50967	5751
5.51033	5748
5.51100	5745
5.51167	5742
5.51233	5739
5.51300	5736
5.51367	5733
5.51433	5730
5.51500	5727
5.51567	5724
5.51633	5721
5.51700	5718
5.51767	5715
5.51833	5712
5.51900	5709
5.51967	5706
5.52033	5703
5.52100	5700
5.52167	5697
5.52233	5694
5.52300	5691
5.52367	5688
5.52433	5685
5.52500	5683
5.52567	5680
5.52633	5677
5.52700	5674
5.52767	5671
5.52833	5669
5.52900	5666
5.52967	5663
5.53033	5660
5.53100	5658
5.53167	5655
5.53233	5652
5.53300	5649
5.53367	5647
5.53433	5644
5.53500	5641
5.53567	5639
5.53633	5636
5.53700	5633
5.53767	5631
5.53833	5628
5.53900	5626
5.53967	5623
5.54033	5621
5.54100	5619
5.54167	5616
5.54233	5614
5.54300	5611
5.54367	5609
5.54433	5607
5.54500	5604
5.54567	5602
5.54633	5599
5.54700	5597
5.54767	5594
5.54833	5592
5.54900	5590
5.54967	5587
5.55033	5585
5.55100	5582
5.55167	5580
5.55233	5578
5.55300	5575
5.55367	5573
5.55433	5571
5.55500	5568
5.55567	5566
5.55633	5564
5.55700	5562
5.55767	5559
5.55833	5557
5.55900	5555
5.55967	5553
5.56033	5551
5.56100	5549
5.56167	5547
5.56233	5545
5.56300	5543
5.56367	5541
5.56433	5539
5.56500	5537
5.56567	5535
5.56633	5534
5.56700	5532
5.56767	5531
5.56833	5529
5.56900	5527
5.56967	5526
5.57033	5524
5.57100	5523
5.57167	5521
5.57233	5520
5.57300	5518
5.57367	5517
5.57433	5516
5.57500	5514
5.57567	5513
5.57633	5512
5.57700	5511
5.57767	5510
5.57833	5508
5.57900	5507
5.57967	5506
5.58033	5505
5.58100	5503
5.58167	5502
5.58233	5501
5.58300	5500
5.58367	5498
5.58433	5497
5.58500	5496
5.58567	5495
5.58633	5493
5.58700	5492
5.58767	5491
5.58833	5490
5.58900	5488
5.58967	5487
5.59033	5486
5.59100	5484
5.59167	5483
5.59233	5482
5.59300	5481
5.59367	5479
5.59433	5478
5.59500	5477
5.59567	5476
5.59633	5475
5.59700	5473
5.59767	5472
5.59833	5471
5.59900	5470
5.59967	5469
5.60033	5468
5.60100	5466
5.60167	5465
5.60233	5464
5.60300	5463
5.60367	5462
5.60433	5460
5.60500	5459
5.60567	5458
5.60633	5456
5.60700	5455
5.60767	5454
5.60833	5452
5.60900	5451
5.60967	5450
5.61033	5448
5.61100	5447
5.61167	5445
5.61233	5444
5.61300	5443
5.61367	5441
5.61433	5440
5.61500	5438
5.61567	5436
5.61633	5435
5.61700	5433
5.61767	5432
5.61833	5430
5.61900	5429
5.61967	5427
5.62033	5425
5.62100	5424
5.62167	5422
5.62233	5420
5.62300	5419
5.62367	5417
5.62433	5416
5.62500	5414
5.62567	5412
5.62633	5411
5.62700	5409
5.62767	5407
5.62833	5405
5.62900	5404
5.62967	5402
5.63033	5400
5.63100	5399
5.63167	5397
5.63233	5395
5.63300	5393
5.63367	5392
5.63433	5390
5.63500	5388
5.63567	5386
5.63633	5384
5.63700	5382
5.63767	5381
5.63833	5379
5.63900	5377
5.63967	5375
5.64033	5373
5.64100	5371
5.64167	5370
5.64233	5368
5.64300	5366
5.64367	5364
5.64433	5362
5.64500	5361
5.64567	5359
5.64633	5357
5.64700	5355
5.64767	5353
5.64833	5351
5.64900	5349
5.64967	5347
5.65033	5346
5.65100	5344
5.65167	5342
5.65233	5340
5.65300	5338
5.65367	5336
5.65433	5334
5.65500	5332
5.65567	5330
5.65633	5328
5.65700	5327
5.65767	5325
5.65833	5323
5.65900	5321
5.65967	5319
5.66033	5317
5.66100	5316
5.66167	5314
5.66233	5312
5.66300	5310
5.66367	5309
5.66433	5307
5.66500	5305
5.66567	5303
5.66633	5302
5.66700	5300
5.66767	5298
5.66833	5297
5.66900	5295
5.66967	5293
5.67033	5292
5.67100	5290
5.67167	5288
5.67233	5287
5.67300	5285
5.67367	5284
5.67433	5282
5.67500	5280
5.67567	5279
5.67633	5277
5.67700	5276
5.67767	5274
5.67833	5273
5.67900	5271
5.67967	5270
5.68033	5268
5.68100	5267
5.68167	5265
5.68233	5264
5.68300	5262
5.68367	5261
5.68433	5259
5.68500	5258
5.68567	5256
5.68633	5255
5.68700	5253
5.68767	5252
5.68833	5251
5.68900	5249
5.68967	5248
5.69033	5246
5.69100	5245
5.69167	5243
5.69233	5242
5.69300	5240
5.69367	5239
5.69433	5237
5.69500	5236
5.69567	5234
5.69633	5233
5.69700	5231
5.69767	5230
5.69833	5228
5.69900	5227
5.69967	5225
5.70033	5224
5.70100	5222
5.70167	5220
5.70233	5219
5.70300	5217
5.70367	5216
5.70433	5214
5.70500	5212
5.70567	5211
5.70633	5209
5.70700	5208
5.70767	5206
5.70833	5205
5.70900	5203
5.70967	5202
5.71033	5200
5.71100	5199
5.71167	5197
5.71233	5195
5.71300	5194
5.71367	5192
5.71433	5191
5.71500	5189
5.71567	5188
5.71633	5186
5.71700	5185
5.71767	5183
5.71833	5182
5.71900	5180
5.71967	5179
5.72033	5177
5.72100	5176
5.72167	5174
5.72233	5173
5.72300	5171
5.72367	5169
5.72433	5168
5.72500	5166
5.72567	5165
5.72633	5163
5.72700	5162
5.72767	5160
5.72833	5159
5.72900	5157
5.72967	5156
5.73033	5154
5.73100	5153
5.73167	5151
5.73233	5150
5.73300	5148
5.73367	5147
5.73433	5145
5.73500	5144
5.73567	5143
5.73633	5141
5.73700	5140
5.73767	5138
5.73833	5137
5.73900	5136
5.73967	5134
5.74033	5133
5.74100	5132
5.74167	5130
5.74233	5129
5.74300	5128
5.74367	5126
5.74433	5125
5.74500	5123
5.74567	5122
5.74633	5121
5.74700	5119
5.74767	5118
5.74833	5117
5.74900	5115
5.74967	5114
5.75033	5113
5.75100	5112
5.75167	5110
5.75233	5109
5.75300	5108
5.75367	5107
5.75433	5106
5.75500	5104
5.75567	5103
5.75633	5102
5.75700	5101
5.75767	5100
5.75833	5099
5.75900	5098
5.75967	5097
5.76033	5096
5.76100	5095
5.76167	5095
5.76233	5094
5.76300	5093
5.76367	5092
5.76433	5091
5.76500	5091
5.76567	5090
5.76633	5089
5.76700	5089
5.76767	5088
5.76833	5087
5.76900	5086
5.76967	5086
5.77033	5085
5.77100	5084
5.77167	5084
5.77233	5083
5.77300	5083
5.77367	5082
5.77433	5082
5.77500	5081
5.77567	5080
5.77633	5080
5.77700	5079
5.77767	5079
5.77833	5078
5.77900	5078
5.77967	5078
5.78033	5077
5.78100	5077
5.78167	5077
5.78233	5076
5.78300	5076
5.78367	5076
5.78433	5076
5.78500	5075
5.78567	5075
5.78633	5075
5.78700	5074
5.78767	5074
5.78833	5074
5.78900	5074
5.78967	5073
5.79033	5073
5.79100	5073
5.79167	5072
5.79233	5072
5.79300	5072
5.79367	5071
5.79433	5071
5.79500	5071
5.79567	5070
5.79633	5070
5.79700	5070
5.79767	5070
5.79833	5069
5.79900	5069
5.79967	5069
5.80033	5069
5.80100	5068
5.80167	5068
5.80233	5068
5.80300	5067
5.80367	5067
5.80433	5067
5.80500	5067
5.80567	5066
5.80633	5066
5.80700	5066
5.80767	5066
5.80833	5065
5.80900	5065
5.80967	5065
5.81033	5065
5.81100	5064
5.81167	5064
5.81233	5064
5.81300	5064
5.81367	5063
5.81433	5063
5.81500	5063
5.81567	5063
5.81633	5062
5.81700	5062
5.81767	5062
5.81833	5062
5.81900	5061
5.81967	5061
5.82033	5061
5.82100	5061
5.82167	5060
5.82233	5060
5.82300	5060
5.82367	5060
5.82433	5059
5.82500	5059
5.82567	5059
5.82633	5059
5.82700	5058
5.82767	5058
5.82833	5058
5.82900	5058
5.82967	5058
5.83033	5057
5.83100	5057
5.83167	5057
5.83233	5057
5.83300	5056
5.83367	5056
5.83433	5056
5.83500	5056
5.83567	5056
5.83633	5056
5.83700	5056
5.83767	5056
5.83833	5055
5.83900	5055
5.83967	5055
5.84033	5055
5.84100	5054
5.84167	5054
5.84233	5054
5.84300	5054
5.84367	5053
5.84433	5053
5.84500	5053
5.84567	5052
5.84633	5052
5.84700	5052
5.84767	5051
5.84833	5051
5.84900	5051
5.84967	5050
5.85033	5050
5.85100	5049
5.85167	5049
5.85233	5048
5.85300	5048
5.85367	5047
5.85433	5047
5.85500	5046
5.85567	5046
5.85633	5045
5.85700	5044
5.85767	5044
5.85833	5043
5.85900	5042
5.85967	5042
5.86033	5041
5.86100	5041
5.86167	5040
5.86233	5039
5.86300	5039
5.86367	5038
5.86433	5037
5.86500	5037
5.86567	5036
5.86633	5035
5.86700	5035
5.86767	5034
5.86833	5033
5.86900	5033
5.86967	5032
5.87033	5031
5.87100	5030
5.87167	5029
5.87233	5029
5.87300	5028
5.87367	5027
5.87433	5026
5.87500	5025
5.87567	5024
5.87633	5023
5.87700	5023
5.87767	5022
5.87833	5021
5.87900	5020
5.87967	5019
5.88033	5018
5.88100	5018
5.88167	5017
5.88233	5016
5.88300	5015
5.88367	5014
5.88433	5013
5.88500	5012
5.88567	5011
5.88633	5010
5.88700	5009
5.88767	5008
5.88833	5008
5.88900	5007
5.88967	5006
5.89033	5005
5.89100	5004
5.89167	5003
5.89233	5002
5.89300	5001
5.89367	5000
5.89433	4999
5.89500	4998
5.89567	4997
5.89633	4996
5.89700	4995
5.89767	4994
5.89833	4993
5.89900	4992
5.89967	4991
5.90033	4989
5.90100	4988
5.90167	4987
5.90233	4986
5.90300	4985
5.90367	4984
5.90433	4983
5.90500	4982
5.90567	4981
5.90633	4979
5.90700	4978
5.90767	4977
5.90833	4976
5.90900	4975
5.90967	4974
5.91033	4973
5.91100	4972
5.91167	4970
5.91233	4969
5.91300	4968
5.91367	4967
5.91433	4966
5.91500	4965
5.91567	4964
5.91633	4963
5.91700	4962
5.91767	4961
5.91833	4960
5.91900	4959
5.91967	4958
5.92033	4957
5.92100	4956
5.92167	4955
5.92233	4954
5.92300	4953
5.92367	4952
5.92433	4951
5.92500	4950
5.92567	4949
5.92633	4948
5.92700	4948
5.92767	4947
5.92833	4946
5.92900	4945
5.92967	4944
5.93033	4943
5.93100	4942
5.93167	4941
5.93233	4940
5.93300	4939
5.93367	4938
5.93433	4937
5.93500	4937
5.93567	4936
5.93633	4935
5.93700	4934
5.93767	4933
5.93833	4932
5.93900	4931
5.93967	4930
5.94033	4929
5.94100	4928
5.94167	4928
5.94233	4927
5.94300	4926
5.94367	4925
5.94433	4924
5.94500	4923
5.94567	4923
5.94633	4922
5.94700	4921
5.94767	4920
5.94833	4919
5.94900	4919
5.94967	4918
5.95033	4917
5.95100	4916
5.95167	4915
5.95233	4915
5.95300	4914
5.95367	4913
5.95433	4912
5.95500	4911
5.95567	4911
5.95633	4910
5.95700	4909
5.95767	4908
5.95833	4907
5.95900	4907
5.95967	4906
5.96033	4905
5.96100	4904
5.96167	4904
5.96233	4903
5.96300	4902
5.96367	4902
5.96433	4901
5.96500	4900
5.96567	4900
5.96633	4899
5.96700	4898
5.96767	4898
5.96833	4897
5.96900	4896
5.96967	4896
5.97033	4895
5.97100	4895
5.97167	4894
5.97233	4894
5.97300	4893
5.97367	4893
5.97433	4892
5.97500	4892
5.97567	4892
5.97633	4891
5.97700	4891
5.97767	4890
5.97833	4890
5.97900	4889
5.97967	4889
5.98033	4888
5.98100	4888
5.98167	4887
5.98233	4887
5.98300	4886
5.98367	4886
5.98433	4885
5.98500	4885
5.98567	4884
5.98633	4884
5.98700	4883
5.98767	4883
5.98833	4882
5.98900	4882
5.98967	4881
5.99033	4881
5.99100	4880
5.99167	4880
5.99233	4879
5.99300	4878
5.99367	4878
5.99433	4878
5.99500	4877
5.99567	4877
5.99633	4876
5.99700	4876
5.99767	4876
5.99833	4875
5.99900	4875
5.99967	4875
6.00033	4874
6.00100	4874
6.00167	4873
6.00233	4873
6.00300	4873
6.00367	4872
6.00433	4872
6.00500	4871
6.00567	4871
6.00633	4870
6.00700	4870
6.00767	4869
6.00833	4869
6.00900	4868
6.00967	4868
6.01033	4867
6.01100	4866
6.01167	4866
6.01233	4865
6.01300	4865
6.01367	4864
6.01433	4863
6.01500	4863
6.01567	4862
6.01633	4861
6.01700	4861
6.01767	4860
6.01833	4859
6.01900	4859
6.01967	4858
6.02033	4857
6.02100	4856
6.02167	4856
6.02233	4855
6.02300	4854
6.02367	4853
6.02433	4853
6.02500	4852
6.02567	4851
6.02633	4851
6.02700	4850
6.02767	4849
6.02833	4849
6.02900	4848
6.02967	4847
6.03033	4847
6.03100	4846
6.03167	4845
6.03233	4845
6.03300	4844
6.03367	4843
6.03433	4842
6.03500	4842
6.03567	4841
6.03633	4840
6.03700	4840
6.03767	4839
6.03833	4838
6.03900	4838
6.03967	4837
6.04033	4836
6.04100	4836
6.04167	4835
6.04233	4834
6.04300	4833
6.04367	4833
6.04433	4832
6.04500	4831
6.04567	4830
6.04633	4829
6.04700	4828
6.04767	4827
6.04833	4826
6.04900	4825
6.04967	4825
6.05033	4824
6.05100	4823
6.05167	4822
6.05233	4821
6.05300	4820
6.05367	4820
6.05433	4819
6.05500	4818
6.05567	4818
6.05633	4817
6.05700	4816
6.05767	4815
6.05833	4815
6.05900	4814
6.05967	4813
6.06033	4812
6.06100	4812
6.06167	4811
6.06233	4810
6.06300	4809
6.06367	4808
6.06433	4808
6.06500	4807
6.06567	4806
6.06633	4805
6.06700	4804
6.06767	4804
6.06833	4803
6.06900	4802
6.06967	4801
6.07033	4800
6.07100	4800
6.07167	4799
6.07233	4798
6.07300	4797
6.07367	4796
6.07433	4795
6.07500	4794
6.07567	4794
6.07633	4793
6.07700	4792
6.07767	4791
6.07833	4790
6.07900	4789
6.07967	4788
6.08033	4788
6.08100	4787
6.08167	4786
6.08233	4785
6.08300	4784
6.08367	4783
6.08433	4782
6.08500	4781
6.08567	4780
6.08633	4779
6.08700	4778
6.08767	4777
6.08833	4776
6.08900	4775
6.08967	4774
6.09033	4773
6.09100	4771
6.09167	4770
6.09233	4769
6.09300	4768
6.09367	4767
6.09433	4766
6.09500	4765
6.09567	4764
6.09633	4763
6.09700	4762
6.09767	4761
6.09833	4760
6.09900	4759
6.09967	4758
6.10033	4757
6.10100	4756
6.10167	4755
6.10233	4754
6.10300	4753
6.10367	4752
6.10433	4751
6.10500	4750
6.10567	4749
6.10633	4748
6.10700	4747
6.10767	4746
6.10833	4745
6.10900	4744
6.10967	4743
6.11033	4742
6.11100	4742
6.11167	4741
6.11233	4740
6.11300	4739
6.11367	4738
6.11433	4738
6.11500	4737
6.11567	4736
6.11633	4736
6.11700	4735
6.11767	4734
6.11833	4734
6.11900	4733
6.11967	4732
6.12033	4732
6.12100	4731
6.12167	4731
6.12233	4730
6.12300	4729
6.12367	4729
6.12433	4728
6.12500	4728
6.12567	4727
6.12633	4727
6.12700	4726
6.12767	4725
6.12833	4725
6.12900	4724
6.12967	4723
6.13033	4723
6.13100	4722
6.13167	4721
6.13233	4721
6.13300	4720
6.13367	4720
6.13433	4719
6.13500	4718
6.13567	4717
6.13633	4717
6.13700	4716
6.13767	4715
6.13833	4715
6.13900	4714
6.13967	4713
6.14033	4712
6.14100	4712
6.14167	4711
6.14233	4710
6.14300	4710
6.14367	4709
6.14433	4708
6.14500	4708
6.14567	4707
6.14633	4706
6.14700	4706
6.14767	4705
6.14833	4704
6.14900	4704
6.14967	4703
6.15033	4702
6.15100	4702
6.15167	4701
6.15233	4700
6.15300	4700
6.15367	4699
6.15433	4699
6.15500	4698
6.15567	4697
6.15633	4697
6.15700	4696
6.15767	4695
6.15833	4695
6.15900	4694
6.15967	4694
6.16033	4693
6.16100	4693
6.16167	4692
6.16233	4692
6.16300	4691
6.16367	4691
6.16433	4690
6.16500	4690
6.16567	4689
6.16633	4688
6.16700	4688
6.16767	4687
6.16833	4687
6.16900	4686
6.16967	4686
6.17033	4686
6.17100	4685
6.17167	4685
6.17233	4684
6.17300	4684
6.17367	4684
6.17433	4683
6.17500	4683
6.17567	4683
6.17633	4682
6.17700	4682
6.17767	4681
6.17833	4681
6.17900	4681
6.17967	4680
6.18033	4680
6.18100	4679
6.18167	4679
6.18233	4679
6.18300	4678
6.18367	4678
6.18433	4678
6.18500	4678
6.18567	4677
6.18633	4677
6.18700	4677
6.18767	4677
6.18833	4677
6.18900	4677
6.18967	4677
6.19033	4677
6.19100	4676
6.19167	4676
6.19233	4676
6.19300	4676
6.19367	4676
6.19433	4677
6.19500	4677
6.19567	4677
6.19633	4677
6.19700	4677
6.19767	4677
6.19833	4677
6.19900	4677
6.19967	4677
6.20033	4677
6.20100	4678
6.20167	4678
6.20233	4678
6.20300	4678
6.20367	4678
6.20433	4679
6.20500	4679
6.20567	4679
6.20633	4679
6.20700	4679
6.20767	4680
6.20833	4680
6.20900	4680
6.20967	4680
6.21033	4681
6.21100	4681
6.21167	4681
6.21233	4681
6.21300	4682
6.21367	4682
6.21433	4682
6.21500	4683
6.21567	4683
6.21633	4684
6.21700	4684
6.21767	4685
6.21833	4685
6.21900	4686
6.21967	4686
6.22033	4686
6.22100	4687
6.22167	4687
6.22233	4688
6.22300	4688
6.22367	4688
6.22433	4689
6.22500	4689
6.22567	4690
6.22633	4690
6.22700	4690
6.22767	4691
6.22833	4691
6.22900	4691
6.22967	4692
6.23033	4692
6.23100	4692
6.23167	4693
6.23233	4693
6.23300	4693
6.23367	4693
6.23433	4694
6.23500	4694
6.23567	4694
6.23633	4695
6.23700	4695
6.23767	4695
6.23833	4695
6.23900	4696
6.23967	4696
6.24033	4696
6.24100	4697
6.24167	4697
6.24233	4697
6.24300	4698
6.24367	4698
6.24433	4698
6.24500	4698
6.24567	4699
6.24633	4699
6.24700	4699
6.24767	4699
6.24833	4700
6.24900	4700
6.24967	4700
6.25033	4700
6.25100	4700
6.25167	4701
6.25233	4701
6.25300	4701
6.25367	4701
6.25433	4701
6.25500	4702
6.25567	4702
6.25633	4702
6.25700	4702
6.25767	4702
6.25833	4702
6.25900	4702
6.25967	4703
6.26033	4703
6.26100	4703
6.26167	4703
6.26233	4703
6.26300	4703
6.26367	4703
6.26433	4703
6.26500	4703
6.26567	4703
6.26633	4703
6.26700	4703
6.26767	4703
6.26833	4703
6.26900	4703
6.26967	4703
6.27033	4703
6.27100	4703
6.27167	4703
6.27233	4703
6.27300	4703
6.27367	4703
6.27433	4703
6.27500	4703
6.27567	4703
6.27633	4703
6.27700	4702
6.27767	4702
6.27833	4702
6.27900	4702
6.27967	4702
6.28033	4701
6.28100	4701
6.28167	4701
6.28233	4701
6.28300	4700
6.28367	4700
6.28433	4700
6.28500	4699
6.28567	4699
6.28633	4699
6.28700	4698
6.28767	4698
6.28833	4697
6.28900	4697
6.28967	4697
6.29033	4696
6.29100	4696
6.29167	4696
6.29233	4695
6.29300	4695
6.29367	4694
6.29433	4694
6.29500	4693
6.29567	4693
6.29633	4692
6.29700	4692
6.29767	4691
6.29833	4691
6.29900	4690
6.29967	4689
6.30033	4689
6.30100	4688
6.30167	4687
6.30233	4686
6.30300	4686
6.30367	4685
6.30433	4684
6.30500	4683
6.30567	4682
6.30633	4681
6.30700	4680
6.30767	4679
6.30833	4678
6.30900	4677
6.30967	4676
6.31033	4675
6.31100	4674
6.31167	4674
6.31233	4673
6.31300	4672
6.31367	4671
6.31433	4670
6.31500	4669
6.31567	4668
6.31633	4667
6.31700	4666
6.31767	4665
6.31833	4664
6.31900	4663
6.31967	4662
6.32033	4661
6.32100	4660
6.32167	4659
6.32233	4658
6.32300	4657
6.32367	4657
6.32433	4656
6.32500	4655
6.32567	4654
6.32633	4653
6.32700	4653
6.32767	4652
6.32833	4651
6.32900	4650
6.32967	4649
6.33033	4648
6.33100	4648
6.33167	4647
6.33233	4646
6.33300	4645
6.33367	4645
6.33433	4644
6.33500	4643
6.33567	4643
6.33633	4642
6.33700	4641
6.33767	4641
6.33833	4640
6.33900	4639
6.33967	4639
6.34033	4638
6.34100	4638
6.34167	4637
6.34233	4636
6.34300	4636
6.34367	4635
6.34433	4634
6.34500	4634
6.34567	4633
6.34633	4632
6.34700	4632
6.34767	4631
6.34833	4630
6.34900	4630
6.34967	4629
6.35033	4628
6.35100	4627
6.35167	4627
6.35233	4626
6.35300	4625
6.35367	4625
6.35433	4624
6.35500	4623
6.35567	4622
6.35633	4622
6.35700	4621
6.35767	4620
6.35833	4620
6.35900	4619
6.35967	4618
6.36033	4617
6.36100	4617
6.36167	4616
6.36233	4615
6.36300	4615
6.36367	4614
6.36433	4614
6.36500	4613
6.36567	4612
6.36633	4612
6.36700	4611
6.36767	4611
6.36833	4610
6.36900	4609
6.36967	4609
6.37033	4608
6.37100	4607
6.37167	4607
6.37233	4606
6.37300	4606
6.37367	4605
6.37433	4604
6.37500	4604
6.37567	4603
6.37633	4602
6.37700	4602
6.37767	4601
6.37833	4601
6.37900	4600
6.37967	4599
6.38033	4599
6.38100	4598
6.38167	4597
6.38233	4597
6.38300	4596
6.38367	4595
6.38433	4595
6.38500	4594
6.38567	4594
6.38633	4593
6.38700	4592
6.38767	4592
6.38833	4591
6.38900	4591
6.38967	4590
6.39033	4589
6.39100	4589
6.39167	4588
6.39233	4587
6.39300	4587
6.39367	4586
6.39433	4586
6.39500	4585
6.39567	4584
6.39633	4584
6.39700	4583
6.39767	4583
6.39833	4582
6.39900	4582
6.39967	4581

