[Header]
Application Name	LabSolutions
Version	5.73
Data File Name	C:\LabSolutions\Data\Project1\stephen\2016-01-06\79.gcd
Output Date	1/11/2016
Output Time	1:19:55 PM

[Configuration]
Instrument Name	WEISSTA-PC-Instrument1
Instrument #	1
Line #	1
# of Detectors	1
Detector ID	DET#2
Detector Name	DFID1
# of Channels	1

[Chromatogram (Ch1)]
Interval(msec)	40
# of Points	9600
Start Time(min)	0.000
End Time(min)	6.399
R.Time (min)	Intensity
0.00000	11
0.00067	11
0.00133	11
0.00200	11
0.00267	11
0.00333	11
0.00400	12
0.00467	12
0.00533	12
0.00600	12
0.00667	12
0.00733	12
0.00800	12
0.00867	12
0.00933	12
0.01000	12
0.01067	11
0.01133	11
0.01200	10
0.01267	9
0.01333	7
0.01400	6
0.01467	4
0.01533	2
0.01600	0
0.01667	-2
0.01733	-4
0.01800	-7
0.01867	-10
0.01933	-13
0.02000	-15
0.02067	-18
0.02133	-21
0.02200	-24
0.02267	-27
0.02333	-30
0.02400	-33
0.02467	-36
0.02533	-39
0.02600	-42
0.02667	-44
0.02733	-47
0.02800	-49
0.02867	-52
0.02933	-54
0.03000	-56
0.03067	-58
0.03133	-60
0.03200	-62
0.03267	-64
0.03333	-65
0.03400	-67
0.03467	-68
0.03533	-70
0.03600	-71
0.03667	-72
0.03733	-73
0.03800	-74
0.03867	-75
0.03933	-76
0.04000	-77
0.04067	-78
0.04133	-79
0.04200	-79
0.04267	-80
0.04333	-81
0.04400	-81
0.04467	-82
0.04533	-82
0.04600	-82
0.04667	-83
0.04733	-83
0.04800	-83
0.04867	-84
0.04933	-84
0.05000	-84
0.05067	-84
0.05133	-85
0.05200	-85
0.05267	-85
0.05333	-85
0.05400	-85
0.05467	-85
0.05533	-85
0.05600	-86
0.05667	-86
0.05733	-86
0.05800	-86
0.05867	-86
0.05933	-86
0.06000	-86
0.06067	-85
0.06133	-85
0.06200	-85
0.06267	-85
0.06333	-85
0.06400	-85
0.06467	-85
0.06533	-85
0.06600	-85
0.06667	-84
0.06733	-84
0.06800	-84
0.06867	-84
0.06933	-84
0.07000	-83
0.07067	-83
0.07133	-83
0.07200	-83
0.07267	-83
0.07333	-83
0.07400	-82
0.07467	-82
0.07533	-82
0.07600	-82
0.07667	-82
0.07733	-82
0.07800	-81
0.07867	-81
0.07933	-81
0.08000	-81
0.08067	-81
0.08133	-81
0.08200	-81
0.08267	-81
0.08333	-81
0.08400	-81
0.08467	-81
0.08533	-80
0.08600	-80
0.08667	-77
0.08733	-69
0.08800	-52
0.08867	-17
0.08933	50
0.09000	150
0.09067	279
0.09133	446
0.09200	662
0.09267	960
0.09333	1330
0.09400	1753
0.09467	2252
0.09533	2857
0.09600	3554
0.09667	4322
0.09733	5100
0.09800	5968
0.09867	6949
0.09933	8026
0.10000	9242
0.10067	10522
0.10133	11864
0.10200	13325
0.10267	14843
0.10333	16372
0.10400	17987
0.10467	19595
0.10533	21192
0.10600	22830
0.10667	24579
0.10733	26477
0.10800	28426
0.10867	30340
0.10933	32241
0.11000	34210
0.11067	36228
0.11133	38280
0.11200	40422
0.11267	42501
0.11333	44592
0.11400	46658
0.11467	48738
0.11533	50802
0.11600	52815
0.11667	54803
0.11733	56739
0.11800	58568
0.11867	60241
0.11933	61851
0.12000	63488
0.12067	65028
0.12133	66504
0.12200	67972
0.12267	69418
0.12333	70808
0.12400	72144
0.12467	73335
0.12533	74399
0.12600	75383
0.12667	76243
0.12733	76968
0.12800	77573
0.12867	78084
0.12933	78505
0.13000	78824
0.13067	79034
0.13133	79163
0.13200	79188
0.13267	79137
0.13333	79052
0.13400	79094
0.13467	79828
0.13533	82636
0.13600	90383
0.13667	108874
0.13733	148101
0.13800	224343
0.13867	360364
0.13933	584321
0.14000	925183
0.14067	1411222
0.14133	2066980
0.14200	2914064
0.14267	3968910
0.14333	5244118
0.14400	6747295
0.14467	8483853
0.14533	10454246
0.14600	12650649
0.14667	15057318
0.14733	17681161
0.14800	20556653
0.14867	23706660
0.14933	27128256
0.15000	30803155
0.15067	34706085
0.15133	38808029
0.15200	43078995
0.15267	47489236
0.15333	52010503
0.15400	56617107
0.15467	61284596
0.15533	65990255
0.15600	70712797
0.15667	75431961
0.15733	80129290
0.15800	84787734
0.15867	89391119
0.15933	93924833
0.16000	98375209
0.16067	102730065
0.16133	106978306
0.16200	111110119
0.16267	115116904
0.16333	118991419
0.16400	122727733
0.16467	126320489
0.16533	129765174
0.16600	133058278
0.16667	136196894
0.16733	139178958
0.16800	142002899
0.16867	144667759
0.16933	147173204
0.17000	149519292
0.17067	151706848
0.17133	153737644
0.17200	155614647
0.17267	157340830
0.17333	158918256
0.17400	160348178
0.17467	161632074
0.17533	162771633
0.17600	163768782
0.17667	164625733
0.17733	165345491
0.17800	165931417
0.17867	166387089
0.17933	166716196
0.18000	166922475
0.18067	167009525
0.18133	166981080
0.18200	166841055
0.18267	166593486
0.18333	166242453
0.18400	165791955
0.18467	165245989
0.18533	164608512
0.18600	163883614
0.18667	163075282
0.18733	162187521
0.18800	161224095
0.18867	160188747
0.18933	159085057
0.19000	157916525
0.19067	156686539
0.19133	155398517
0.19200	154055741
0.19267	152661458
0.19333	151218810
0.19400	149730877
0.19467	148200612
0.19533	146630942
0.19600	145024615
0.19667	143384431
0.19733	141713179
0.19800	140013639
0.19867	138288534
0.19933	136540579
0.20000	134772569
0.20067	132987681
0.20133	131189628
0.20200	129382100
0.20267	127567983
0.20333	125749140
0.20400	123926792
0.20467	122101866
0.20533	120275329
0.20600	118448059
0.20667	116620984
0.20733	114795021
0.20800	112971166
0.20867	111150427
0.20933	109333867
0.21000	107522548
0.21067	105717556
0.21133	103919975
0.21200	102130898
0.21267	100351387
0.21333	98582480
0.21400	96825182
0.21467	95080444
0.21533	93349169
0.21600	91632214
0.21667	89930412
0.21733	88244530
0.21800	86575285
0.21867	84923333
0.21933	83289288
0.22000	81673702
0.22067	80077100
0.22133	78499954
0.22200	76942693
0.22267	75405692
0.22333	73889293
0.22400	72393788
0.22467	70919434
0.22533	69466445
0.22600	68035013
0.22667	66625289
0.22733	65237393
0.22800	63871400
0.22867	62527352
0.22933	61205267
0.23000	59905130
0.23067	58626908
0.23133	57370542
0.23200	56135959
0.23267	54923056
0.23333	53731718
0.23400	52561815
0.23467	51413214
0.23533	50285755
0.23600	49179265
0.23667	48093555
0.23733	47028428
0.23800	45983668
0.23867	44959049
0.23933	43954332
0.24000	42969276
0.24067	42003634
0.24133	41057154
0.24200	40129576
0.24267	39220634
0.24333	38330061
0.24400	37457589
0.24467	36602946
0.24533	35765856
0.24600	34946043
0.24667	34143223
0.24733	33357116
0.24800	32587436
0.24867	31833898
0.24933	31096212
0.25000	30374099
0.25067	29667275
0.25133	28975462
0.25200	28298380
0.25267	27635750
0.25333	26987295
0.25400	26352745
0.25467	25731832
0.25533	25124297
0.25600	24529882
0.25667	23948341
0.25733	23379430
0.25800	22822909
0.25867	22278541
0.25933	21746091
0.26000	21225334
0.26067	20716050
0.26133	20218031
0.26200	19731087
0.26267	19255056
0.26333	18789774
0.26400	18335074
0.26467	17890778
0.26533	17456707
0.26600	17032678
0.26667	16618502
0.26733	16213976
0.26800	15818887
0.26867	15433008
0.26933	15056113
0.27000	14687977
0.27067	14328384
0.27133	13977127
0.27200	13634006
0.27267	13298829
0.27333	12971416
0.27400	12651592
0.27467	12339191
0.27533	12034054
0.27600	11736026
0.27667	11444959
0.27733	11160706
0.27800	10883126
0.27867	10612077
0.27933	10347425
0.28000	10089036
0.28067	9836780
0.28133	9590530
0.28200	9350161
0.28267	9115551
0.28333	8886580
0.28400	8663131
0.28467	8445086
0.28533	8232333
0.28600	8024760
0.28667	7822258
0.28733	7624719
0.28800	7432039
0.28867	7244112
0.28933	7060837
0.29000	6882111
0.29067	6707836
0.29133	6537913
0.29200	6372246
0.29267	6210742
0.29333	6053308
0.29400	5899854
0.29467	5750291
0.29533	5604532
0.29600	5462491
0.29667	5324084
0.29733	5189229
0.29800	5057844
0.29867	4929850
0.29933	4805169
0.30000	4683723
0.30067	4565438
0.30133	4450239
0.30200	4338054
0.30267	4228812
0.30333	4122443
0.30400	4018878
0.30467	3918051
0.30533	3819896
0.30600	3724347
0.30667	3631342
0.30733	3540819
0.30800	3452719
0.30867	3366980
0.30933	3283546
0.31000	3202360
0.31067	3123365
0.31133	3046506
0.31200	2971730
0.31267	2898984
0.31333	2828218
0.31400	2759381
0.31467	2692425
0.31533	2627299
0.31600	2563957
0.31667	2502354
0.31733	2442444
0.31800	2384184
0.31867	2327532
0.31933	2272447
0.32000	2218888
0.32067	2166818
0.32133	2116199
0.32200	2066998
0.32267	2019181
0.32333	1972717
0.32400	1927579
0.32467	1883742
0.32533	1841183
0.32600	1799881
0.32667	1759818
0.32733	1720978
0.32800	1683347
0.32867	1646917
0.32933	1611677
0.33000	1577620
0.33067	1544740
0.33133	1513032
0.33200	1482492
0.33267	1453114
0.33333	1424893
0.33400	1397821
0.33467	1371889
0.33533	1347085
0.33600	1323399
0.33667	1300815
0.33733	1279319
0.33800	1258893
0.33867	1239518
0.33933	1221171
0.34000	1203827
0.34067	1187458
0.34133	1172034
0.34200	1157522
0.34267	1143888
0.34333	1131097
0.34400	1119114
0.34467	1107904
0.34533	1097432
0.34600	1087660
0.34667	1078554
0.34733	1070080
0.34800	1062205
0.34867	1054898
0.34933	1048129
0.35000	1041867
0.35067	1036084
0.35133	1030756
0.35200	1025859
0.35267	1021369
0.35333	1017268
0.35400	1013536
0.35467	1010155
0.35533	1007108
0.35600	1004377
0.35667	1001947
0.35733	999801
0.35800	997925
0.35867	996304
0.35933	994926
0.36000	993777
0.36067	992846
0.36133	992120
0.36200	991590
0.36267	991251
0.36333	991095
0.36400	991119
0.36467	991316
0.36533	991682
0.36600	992212
0.36667	992900
0.36733	993741
0.36800	994729
0.36867	995862
0.36933	997134
0.37000	998542
0.37067	1000079
0.37133	1001741
0.37200	1003521
0.37267	1005415
0.37333	1007420
0.37400	1009534
0.37467	1011757
0.37533	1014090
0.37600	1016534
0.37667	1019094
0.37733	1021774
0.37800	1024576
0.37867	1027504
0.37933	1030557
0.38000	1033734
0.38067	1037029
0.38133	1040437
0.38200	1043951
0.38267	1047562
0.38333	1051262
0.38400	1055040
0.38467	1058887
0.38533	1062793
0.38600	1066750
0.38667	1070746
0.38733	1074771
0.38800	1078816
0.38867	1082873
0.38933	1086933
0.39000	1090990
0.39067	1095035
0.39133	1099060
0.39200	1103057
0.39267	1107018
0.39333	1110931
0.39400	1114783
0.39467	1118559
0.39533	1122240
0.39600	1125802
0.39667	1129221
0.39733	1132472
0.39800	1135528
0.39867	1138365
0.39933	1140955
0.40000	1143272
0.40067	1145290
0.40133	1146980
0.40200	1148315
0.40267	1149264
0.40333	1149796
0.40400	1149880
0.40467	1149484
0.40533	1148576
0.40600	1147130
0.40667	1145115
0.40733	1142505
0.40800	1139277
0.40867	1135410
0.40933	1130887
0.41000	1125700
0.41067	1119844
0.41133	1113322
0.41200	1106145
0.41267	1098330
0.41333	1089896
0.41400	1080872
0.41467	1071285
0.41533	1061167
0.41600	1050553
0.41667	1039476
0.41733	1027971
0.41800	1016072
0.41867	1003815
0.41933	991234
0.42000	978361
0.42067	965230
0.42133	951871
0.42200	938316
0.42267	924592
0.42333	910728
0.42400	896750
0.42467	882682
0.42533	868549
0.42600	854372
0.42667	840172
0.42733	825969
0.42800	811780
0.42867	797623
0.42933	783513
0.43000	769466
0.43067	755494
0.43133	741612
0.43200	727829
0.43267	714158
0.43333	700607
0.43400	687186
0.43467	673903
0.43533	660765
0.43600	647779
0.43667	634952
0.43733	622288
0.43800	609793
0.43867	597472
0.43933	585329
0.44000	573367
0.44067	561589
0.44133	549997
0.44200	538593
0.44267	527379
0.44333	516356
0.44400	505524
0.44467	494885
0.44533	484438
0.44600	474183
0.44667	464119
0.44733	454247
0.44800	444566
0.44867	435075
0.44933	425774
0.45000	416663
0.45067	407740
0.45133	399004
0.45200	390455
0.45267	382090
0.45333	373907
0.45400	365906
0.45467	358084
0.45533	350440
0.45600	342970
0.45667	335673
0.45733	328547
0.45800	321589
0.45867	314797
0.45933	308170
0.46000	301704
0.46067	295397
0.46133	289249
0.46200	283255
0.46267	277415
0.46333	271727
0.46400	266189
0.46467	260799
0.46533	255556
0.46600	250458
0.46667	245505
0.46733	240694
0.46800	236025
0.46867	231496
0.46933	227103
0.47000	222843
0.47067	218712
0.47133	214706
0.47200	210823
0.47267	207057
0.47333	203407
0.47400	199869
0.47467	196439
0.47533	193114
0.47600	189890
0.47667	186765
0.47733	183735
0.47800	180796
0.47867	177946
0.47933	175182
0.48000	172500
0.48067	169899
0.48133	167375
0.48200	164926
0.48267	162549
0.48333	160241
0.48400	158001
0.48467	155827
0.48533	153715
0.48600	151664
0.48667	149672
0.48733	147737
0.48800	145857
0.48867	144030
0.48933	142253
0.49000	140526
0.49067	138846
0.49133	137212
0.49200	135622
0.49267	134074
0.49333	132566
0.49400	131097
0.49467	129666
0.49533	128271
0.49600	126910
0.49667	125583
0.49733	124287
0.49800	123023
0.49867	121788
0.49933	120582
0.50000	119403
0.50067	118251
0.50133	117125
0.50200	116023
0.50267	114945
0.50333	113890
0.50400	112857
0.50467	111845
0.50533	110854
0.50600	109882
0.50667	108929
0.50733	107995
0.50800	107078
0.50867	106178
0.50933	105295
0.51000	104427
0.51067	103574
0.51133	102736
0.51200	101911
0.51267	101101
0.51333	100304
0.51400	99519
0.51467	98746
0.51533	97985
0.51600	97236
0.51667	96497
0.51733	95770
0.51800	95052
0.51867	94345
0.51933	93647
0.52000	92959
0.52067	92280
0.52133	91609
0.52200	90948
0.52267	90294
0.52333	89649
0.52400	89012
0.52467	88382
0.52533	87760
0.52600	87145
0.52667	86537
0.52733	85935
0.52800	85341
0.52867	84752
0.52933	84171
0.53000	83595
0.53067	83025
0.53133	82461
0.53200	81903
0.53267	81351
0.53333	80804
0.53400	80263
0.53467	79727
0.53533	79196
0.53600	78670
0.53667	78149
0.53733	77633
0.53800	77122
0.53867	76616
0.53933	76114
0.54000	75617
0.54067	75125
0.54133	74637
0.54200	74153
0.54267	73675
0.54333	73200
0.54400	72730
0.54467	72265
0.54533	71804
0.54600	71348
0.54667	70896
0.54733	70449
0.54800	70007
0.54867	69570
0.54933	69137
0.55000	68710
0.55067	68288
0.55133	67871
0.55200	67460
0.55267	67054
0.55333	66653
0.55400	66258
0.55467	65868
0.55533	65484
0.55600	65105
0.55667	64732
0.55733	64363
0.55800	64000
0.55867	63641
0.55933	63288
0.56000	62938
0.56067	62593
0.56133	62251
0.56200	61914
0.56267	61579
0.56333	61248
0.56400	60920
0.56467	60594
0.56533	60270
0.56600	59949
0.56667	59630
0.56733	59313
0.56800	58997
0.56867	58683
0.56933	58371
0.57000	58060
0.57067	57750
0.57133	57442
0.57200	57135
0.57267	56829
0.57333	56524
0.57400	56220
0.57467	55918
0.57533	55617
0.57600	55316
0.57667	55018
0.57733	54720
0.57800	54423
0.57867	54128
0.57933	53834
0.58000	53541
0.58067	53249
0.58133	52958
0.58200	52669
0.58267	52381
0.58333	52094
0.58400	51808
0.58467	51523
0.58533	51240
0.58600	50958
0.58667	50677
0.58733	50398
0.58800	50120
0.58867	49843
0.58933	49568
0.59000	49295
0.59067	49023
0.59133	48753
0.59200	48484
0.59267	48217
0.59333	47952
0.59400	47688
0.59467	47426
0.59533	47165
0.59600	46907
0.59667	46650
0.59733	46395
0.59800	46141
0.59867	45889
0.59933	45640
0.60000	45392
0.60067	45145
0.60133	44901
0.60200	44659
0.60267	44418
0.60333	44179
0.60400	43943
0.60467	43708
0.60533	43475
0.60600	43244
0.60667	43016
0.60733	42789
0.60800	42564
0.60867	42341
0.60933	42120
0.61000	41901
0.61067	41685
0.61133	41470
0.61200	41257
0.61267	41047
0.61333	40838
0.61400	40631
0.61467	40427
0.61533	40224
0.61600	40024
0.61667	39825
0.61733	39629
0.61800	39434
0.61867	39242
0.61933	39051
0.62000	38862
0.62067	38675
0.62133	38489
0.62200	38306
0.62267	38124
0.62333	37943
0.62400	37765
0.62467	37587
0.62533	37412
0.62600	37237
0.62667	37064
0.62733	36893
0.62800	36723
0.62867	36554
0.62933	36387
0.63000	36221
0.63067	36056
0.63133	35892
0.63200	35730
0.63267	35569
0.63333	35409
0.63400	35251
0.63467	35093
0.63533	34937
0.63600	34783
0.63667	34629
0.63733	34477
0.63800	34326
0.63867	34176
0.63933	34027
0.64000	33880
0.64067	33734
0.64133	33589
0.64200	33446
0.64267	33303
0.64333	33162
0.64400	33022
0.64467	32883
0.64533	32745
0.64600	32609
0.64667	32473
0.64733	32339
0.64800	32205
0.64867	32073
0.64933	31942
0.65000	31811
0.65067	31682
0.65133	31553
0.65200	31425
0.65267	31299
0.65333	31172
0.65400	31047
0.65467	30923
0.65533	30799
0.65600	30676
0.65667	30554
0.65733	30432
0.65800	30311
0.65867	30191
0.65933	30071
0.66000	29952
0.66067	29833
0.66133	29715
0.66200	29598
0.66267	29481
0.66333	29365
0.66400	29249
0.66467	29134
0.66533	29019
0.66600	28905
0.66667	28792
0.66733	28679
0.66800	28567
0.66867	28455
0.66933	28344
0.67000	28233
0.67067	28123
0.67133	28014
0.67200	27905
0.67267	27797
0.67333	27690
0.67400	27583
0.67467	27478
0.67533	27373
0.67600	27269
0.67667	27166
0.67733	27064
0.67800	26963
0.67867	26864
0.67933	26766
0.68000	26670
0.68067	26576
0.68133	26484
0.68200	26394
0.68267	26307
0.68333	26223
0.68400	26143
0.68467	26066
0.68533	25993
0.68600	25924
0.68667	25860
0.68733	25802
0.68800	25749
0.68867	25702
0.68933	25661
0.69000	25627
0.69067	25600
0.69133	25581
0.69200	25569
0.69267	25565
0.69333	25569
0.69400	25580
0.69467	25600
0.69533	25628
0.69600	25663
0.69667	25706
0.69733	25756
0.69800	25812
0.69867	25875
0.69933	25944
0.70000	26018
0.70067	26096
0.70133	26177
0.70200	26262
0.70267	26348
0.70333	26436
0.70400	26523
0.70467	26610
0.70533	26695
0.70600	26778
0.70667	26858
0.70733	26933
0.70800	27004
0.70867	27070
0.70933	27130
0.71000	27184
0.71067	27231
0.71133	27272
0.71200	27306
0.71267	27333
0.71333	27353
0.71400	27365
0.71467	27370
0.71533	27368
0.71600	27359
0.71667	27343
0.71733	27320
0.71800	27290
0.71867	27255
0.71933	27213
0.72000	27165
0.72067	27112
0.72133	27053
0.72200	26989
0.72267	26921
0.72333	26848
0.72400	26771
0.72467	26690
0.72533	26605
0.72600	26517
0.72667	26425
0.72733	26331
0.72800	26234
0.72867	26134
0.72933	26032
0.73000	25928
0.73067	25821
0.73133	25713
0.73200	25604
0.73267	25493
0.73333	25380
0.73400	25267
0.73467	25152
0.73533	25037
0.73600	24921
0.73667	24804
0.73733	24687
0.73800	24569
0.73867	24451
0.73933	24333
0.74000	24215
0.74067	24096
0.74133	23978
0.74200	23860
0.74267	23742
0.74333	23624
0.74400	23507
0.74467	23390
0.74533	23274
0.74600	23158
0.74667	23042
0.74733	22927
0.74800	22813
0.74867	22700
0.74933	22587
0.75000	22475
0.75067	22364
0.75133	22253
0.75200	22143
0.75267	22035
0.75333	21927
0.75400	21820
0.75467	21714
0.75533	21608
0.75600	21504
0.75667	21401
0.75733	21299
0.75800	21197
0.75867	21097
0.75933	20998
0.76000	20899
0.76067	20802
0.76133	20706
0.76200	20610
0.76267	20516
0.76333	20422
0.76400	20330
0.76467	20238
0.76533	20148
0.76600	20058
0.76667	19970
0.76733	19882
0.76800	19795
0.76867	19709
0.76933	19625
0.77000	19541
0.77067	19457
0.77133	19375
0.77200	19294
0.77267	19214
0.77333	19134
0.77400	19055
0.77467	18978
0.77533	18901
0.77600	18825
0.77667	18750
0.77733	18676
0.77800	18602
0.77867	18530
0.77933	18458
0.78000	18387
0.78067	18317
0.78133	18248
0.78200	18179
0.78267	18112
0.78333	18045
0.78400	17979
0.78467	17914
0.78533	17849
0.78600	17786
0.78667	17723
0.78733	17661
0.78800	17599
0.78867	17538
0.78933	17478
0.79000	17419
0.79067	17360
0.79133	17303
0.79200	17245
0.79267	17189
0.79333	17133
0.79400	17078
0.79467	17024
0.79533	16970
0.79600	16917
0.79667	16864
0.79733	16812
0.79800	16761
0.79867	16710
0.79933	16660
0.80000	16610
0.80067	16562
0.80133	16513
0.80200	16465
0.80267	16418
0.80333	16372
0.80400	16326
0.80467	16280
0.80533	16235
0.80600	16191
0.80667	16147
0.80733	16104
0.80800	16061
0.80867	16018
0.80933	15976
0.81000	15935
0.81067	15894
0.81133	15854
0.81200	15814
0.81267	15774
0.81333	15735
0.81400	15697
0.81467	15659
0.81533	15621
0.81600	15584
0.81667	15548
0.81733	15512
0.81800	15476
0.81867	15441
0.81933	15407
0.82000	15372
0.82067	15339
0.82133	15305
0.82200	15272
0.82267	15240
0.82333	15208
0.82400	15176
0.82467	15144
0.82533	15113
0.82600	15082
0.82667	15052
0.82733	15022
0.82800	14992
0.82867	14962
0.82933	14933
0.83000	14904
0.83067	14875
0.83133	14847
0.83200	14818
0.83267	14790
0.83333	14763
0.83400	14735
0.83467	14708
0.83533	14680
0.83600	14653
0.83667	14626
0.83733	14600
0.83800	14573
0.83867	14547
0.83933	14520
0.84000	14494
0.84067	14468
0.84133	14442
0.84200	14416
0.84267	14390
0.84333	14364
0.84400	14338
0.84467	14312
0.84533	14286
0.84600	14260
0.84667	14234
0.84733	14209
0.84800	14183
0.84867	14158
0.84933	14132
0.85000	14106
0.85067	14081
0.85133	14055
0.85200	14030
0.85267	14004
0.85333	13979
0.85400	13953
0.85467	13928
0.85533	13902
0.85600	13877
0.85667	13852
0.85733	13826
0.85800	13801
0.85867	13776
0.85933	13750
0.86000	13725
0.86067	13700
0.86133	13675
0.86200	13650
0.86267	13625
0.86333	13600
0.86400	13575
0.86467	13550
0.86533	13526
0.86600	13501
0.86667	13476
0.86733	13452
0.86800	13428
0.86867	13403
0.86933	13379
0.87000	13355
0.87067	13331
0.87133	13307
0.87200	13283
0.87267	13260
0.87333	13236
0.87400	13213
0.87467	13190
0.87533	13166
0.87600	13143
0.87667	13120
0.87733	13097
0.87800	13075
0.87867	13052
0.87933	13029
0.88000	13007
0.88067	12985
0.88133	12963
0.88200	12941
0.88267	12919
0.88333	12897
0.88400	12876
0.88467	12855
0.88533	12833
0.88600	12812
0.88667	12791
0.88733	12770
0.88800	12750
0.88867	12729
0.88933	12709
0.89000	12688
0.89067	12668
0.89133	12648
0.89200	12628
0.89267	12608
0.89333	12589
0.89400	12569
0.89467	12550
0.89533	12531
0.89600	12511
0.89667	12492
0.89733	12473
0.89800	12455
0.89867	12436
0.89933	12418
0.90000	12399
0.90067	12381
0.90133	12363
0.90200	12345
0.90267	12327
0.90333	12310
0.90400	12292
0.90467	12274
0.90533	12257
0.90600	12239
0.90667	12222
0.90733	12205
0.90800	12188
0.90867	12171
0.90933	12154
0.91000	12137
0.91067	12121
0.91133	12104
0.91200	12087
0.91267	12071
0.91333	12055
0.91400	12038
0.91467	12022
0.91533	12006
0.91600	11990
0.91667	11974
0.91733	11958
0.91800	11942
0.91867	11926
0.91933	11910
0.92000	11894
0.92067	11879
0.92133	11863
0.92200	11848
0.92267	11832
0.92333	11817
0.92400	11802
0.92467	11787
0.92533	11771
0.92600	11756
0.92667	11741
0.92733	11727
0.92800	11712
0.92867	11697
0.92933	11683
0.93000	11668
0.93067	11654
0.93133	11640
0.93200	11626
0.93267	11612
0.93333	11598
0.93400	11584
0.93467	11570
0.93533	11556
0.93600	11542
0.93667	11529
0.93733	11515
0.93800	11501
0.93867	11488
0.93933	11474
0.94000	11461
0.94067	11447
0.94133	11433
0.94200	11420
0.94267	11406
0.94333	11393
0.94400	11379
0.94467	11366
0.94533	11353
0.94600	11339
0.94667	11326
0.94733	11313
0.94800	11299
0.94867	11286
0.94933	11273
0.95000	11260
0.95067	11247
0.95133	11233
0.95200	11220
0.95267	11207
0.95333	11194
0.95400	11181
0.95467	11168
0.95533	11155
0.95600	11142
0.95667	11129
0.95733	11116
0.95800	11103
0.95867	11091
0.95933	11078
0.96000	11066
0.96067	11053
0.96133	11041
0.96200	11029
0.96267	11016
0.96333	11004
0.96400	10992
0.96467	10980
0.96533	10968
0.96600	10956
0.96667	10945
0.96733	10933
0.96800	10921
0.96867	10909
0.96933	10898
0.97000	10886
0.97067	10875
0.97133	10863
0.97200	10851
0.97267	10840
0.97333	10828
0.97400	10817
0.97467	10805
0.97533	10793
0.97600	10781
0.97667	10770
0.97733	10758
0.97800	10746
0.97867	10734
0.97933	10723
0.98000	10711
0.98067	10699
0.98133	10687
0.98200	10675
0.98267	10663
0.98333	10650
0.98400	10638
0.98467	10626
0.98533	10614
0.98600	10601
0.98667	10589
0.98733	10576
0.98800	10564
0.98867	10551
0.98933	10539
0.99000	10527
0.99067	10514
0.99133	10502
0.99200	10489
0.99267	10477
0.99333	10464
0.99400	10452
0.99467	10440
0.99533	10427
0.99600	10415
0.99667	10403
0.99733	10390
0.99800	10378
0.99867	10366
0.99933	10353
1.00000	10341
1.00067	10329
1.00133	10317
1.00200	10305
1.00267	10293
1.00333	10280
1.00400	10268
1.00467	10257
1.00533	10245
1.00600	10233
1.00667	10221
1.00733	10210
1.00800	10198
1.00867	10187
1.00933	10176
1.01000	10165
1.01067	10154
1.01133	10143
1.01200	10133
1.01267	10123
1.01333	10113
1.01400	10103
1.01467	10093
1.01533	10084
1.01600	10076
1.01667	10067
1.01733	10059
1.01800	10051
1.01867	10044
1.01933	10037
1.02000	10030
1.02067	10024
1.02133	10018
1.02200	10013
1.02267	10008
1.02333	10003
1.02400	9999
1.02467	9995
1.02533	9992
1.02600	9989
1.02667	9986
1.02733	9983
1.02800	9981
1.02867	9979
1.02933	9977
1.03000	9975
1.03067	9973
1.03133	9971
1.03200	9969
1.03267	9967
1.03333	9965
1.03400	9963
1.03467	9961
1.03533	9959
1.03600	9956
1.03667	9953
1.03733	9950
1.03800	9947
1.03867	9943
1.03933	9939
1.04000	9935
1.04067	9931
1.04133	9926
1.04200	9921
1.04267	9915
1.04333	9910
1.04400	9904
1.04467	9897
1.04533	9891
1.04600	9884
1.04667	9877
1.04733	9869
1.04800	9862
1.04867	9854
1.04933	9846
1.05000	9837
1.05067	9829
1.05133	9820
1.05200	9811
1.05267	9802
1.05333	9793
1.05400	9783
1.05467	9774
1.05533	9764
1.05600	9754
1.05667	9744
1.05733	9734
1.05800	9724
1.05867	9714
1.05933	9704
1.06000	9694
1.06067	9683
1.06133	9673
1.06200	9662
1.06267	9652
1.06333	9641
1.06400	9631
1.06467	9620
1.06533	9610
1.06600	9599
1.06667	9588
1.06733	9578
1.06800	9567
1.06867	9556
1.06933	9546
1.07000	9535
1.07067	9524
1.07133	9514
1.07200	9503
1.07267	9492
1.07333	9482
1.07400	9471
1.07467	9460
1.07533	9449
1.07600	9439
1.07667	9428
1.07733	9417
1.07800	9407
1.07867	9396
1.07933	9385
1.08000	9375
1.08067	9364
1.08133	9353
1.08200	9343
1.08267	9332
1.08333	9321
1.08400	9311
1.08467	9300
1.08533	9290
1.08600	9279
1.08667	9269
1.08733	9258
1.08800	9248
1.08867	9238
1.08933	9227
1.09000	9217
1.09067	9207
1.09133	9197
1.09200	9187
1.09267	9177
1.09333	9167
1.09400	9157
1.09467	9147
1.09533	9137
1.09600	9128
1.09667	9118
1.09733	9108
1.09800	9098
1.09867	9089
1.09933	9079
1.10000	9069
1.10067	9060
1.10133	9050
1.10200	9041
1.10267	9031
1.10333	9022
1.10400	9013
1.10467	9004
1.10533	8994
1.10600	8985
1.10667	8976
1.10733	8967
1.10800	8958
1.10867	8949
1.10933	8940
1.11000	8932
1.11067	8923
1.11133	8914
1.11200	8906
1.11267	8897
1.11333	8889
1.11400	8881
1.11467	8873
1.11533	8865
1.11600	8857
1.11667	8849
1.11733	8841
1.11800	8833
1.11867	8825
1.11933	8817
1.12000	8810
1.12067	8802
1.12133	8795
1.12200	8787
1.12267	8780
1.12333	8773
1.12400	8766
1.12467	8759
1.12533	8752
1.12600	8745
1.12667	8738
1.12733	8732
1.12800	8726
1.12867	8719
1.12933	8713
1.13000	8707
1.13067	8702
1.13133	8696
1.13200	8691
1.13267	8686
1.13333	8681
1.13400	8676
1.13467	8671
1.13533	8667
1.13600	8663
1.13667	8659
1.13733	8655
1.13800	8652
1.13867	8648
1.13933	8645
1.14000	8642
1.14067	8639
1.14133	8636
1.14200	8634
1.14267	8631
1.14333	8629
1.14400	8627
1.14467	8624
1.14533	8622
1.14600	8620
1.14667	8618
1.14733	8616
1.14800	8613
1.14867	8611
1.14933	8609
1.15000	8606
1.15067	8604
1.15133	8601
1.15200	8598
1.15267	8595
1.15333	8592
1.15400	8589
1.15467	8586
1.15533	8582
1.15600	8579
1.15667	8575
1.15733	8571
1.15800	8567
1.15867	8563
1.15933	8558
1.16000	8554
1.16067	8549
1.16133	8544
1.16200	8540
1.16267	8535
1.16333	8529
1.16400	8524
1.16467	8519
1.16533	8513
1.16600	8508
1.16667	8502
1.16733	8497
1.16800	8491
1.16867	8485
1.16933	8479
1.17000	8473
1.17067	8466
1.17133	8460
1.17200	8454
1.17267	8448
1.17333	8441
1.17400	8435
1.17467	8428
1.17533	8422
1.17600	8415
1.17667	8408
1.17733	8402
1.17800	8395
1.17867	8388
1.17933	8382
1.18000	8375
1.18067	8368
1.18133	8361
1.18200	8354
1.18267	8348
1.18333	8341
1.18400	8334
1.18467	8328
1.18533	8321
1.18600	8315
1.18667	8308
1.18733	8301
1.18800	8295
1.18867	8289
1.18933	8282
1.19000	8276
1.19067	8270
1.19133	8264
1.19200	8258
1.19267	8251
1.19333	8245
1.19400	8240
1.19467	8234
1.19533	8228
1.19600	8222
1.19667	8217
1.19733	8211
1.19800	8206
1.19867	8200
1.19933	8195
1.20000	8190
1.20067	8184
1.20133	8179
1.20200	8174
1.20267	8169
1.20333	8164
1.20400	8159
1.20467	8154
1.20533	8150
1.20600	8145
1.20667	8141
1.20733	8136
1.20800	8132
1.20867	8128
1.20933	8124
1.21000	8120
1.21067	8116
1.21133	8112
1.21200	8108
1.21267	8105
1.21333	8101
1.21400	8098
1.21467	8094
1.21533	8091
1.21600	8088
1.21667	8085
1.21733	8082
1.21800	8079
1.21867	8076
1.21933	8073
1.22000	8070
1.22067	8067
1.22133	8064
1.22200	8062
1.22267	8059
1.22333	8056
1.22400	8053
1.22467	8051
1.22533	8048
1.22600	8046
1.22667	8043
1.22733	8040
1.22800	8038
1.22867	8035
1.22933	8033
1.23000	8030
1.23067	8028
1.23133	8026
1.23200	8023
1.23267	8021
1.23333	8019
1.23400	8017
1.23467	8015
1.23533	8012
1.23600	8010
1.23667	8008
1.23733	8006
1.23800	8004
1.23867	8002
1.23933	8000
1.24000	7998
1.24067	7996
1.24133	7994
1.24200	7993
1.24267	7991
1.24333	7989
1.24400	7987
1.24467	7985
1.24533	7983
1.24600	7982
1.24667	7980
1.24733	7978
1.24800	7977
1.24867	7975
1.24933	7973
1.25000	7972
1.25067	7970
1.25133	7969
1.25200	7967
1.25267	7966
1.25333	7965
1.25400	7963
1.25467	7962
1.25533	7960
1.25600	7959
1.25667	7957
1.25733	7956
1.25800	7955
1.25867	7954
1.25933	7953
1.26000	7951
1.26067	7950
1.26133	7949
1.26200	7948
1.26267	7947
1.26333	7946
1.26400	7945
1.26467	7945
1.26533	7944
1.26600	7943
1.26667	7942
1.26733	7942
1.26800	7941
1.26867	7941
1.26933	7940
1.27000	7940
1.27067	7940
1.27133	7940
1.27200	7940
1.27267	7940
1.27333	7940
1.27400	7940
1.27467	7940
1.27533	7941
1.27600	7941
1.27667	7942
1.27733	7942
1.27800	7943
1.27867	7944
1.27933	7945
1.28000	7946
1.28067	7948
1.28133	7949
1.28200	7951
1.28267	7952
1.28333	7954
1.28400	7956
1.28467	7959
1.28533	7961
1.28600	7964
1.28667	7966
1.28733	7969
1.28800	7972
1.28867	7975
1.28933	7977
1.29000	7980
1.29067	7983
1.29133	7986
1.29200	7989
1.29267	7991
1.29333	7994
1.29400	7996
1.29467	7998
1.29533	8001
1.29600	8003
1.29667	8005
1.29733	8006
1.29800	8008
1.29867	8009
1.29933	8010
1.30000	8011
1.30067	8012
1.30133	8013
1.30200	8013
1.30267	8013
1.30333	8013
1.30400	8013
1.30467	8013
1.30533	8012
1.30600	8011
1.30667	8010
1.30733	8009
1.30800	8007
1.30867	8006
1.30933	8004
1.31000	8002
1.31067	8000
1.31133	7998
1.31200	7995
1.31267	7992
1.31333	7990
1.31400	7987
1.31467	7984
1.31533	7981
1.31600	7978
1.31667	7974
1.31733	7971
1.31800	7967
1.31867	7963
1.31933	7959
1.32000	7955
1.32067	7951
1.32133	7947
1.32200	7943
1.32267	7938
1.32333	7934
1.32400	7929
1.32467	7924
1.32533	7919
1.32600	7914
1.32667	7909
1.32733	7904
1.32800	7898
1.32867	7893
1.32933	7887
1.33000	7881
1.33067	7875
1.33133	7869
1.33200	7863
1.33267	7857
1.33333	7851
1.33400	7845
1.33467	7839
1.33533	7832
1.33600	7826
1.33667	7819
1.33733	7813
1.33800	7806
1.33867	7800
1.33933	7793
1.34000	7787
1.34067	7780
1.34133	7773
1.34200	7766
1.34267	7760
1.34333	7753
1.34400	7746
1.34467	7739
1.34533	7732
1.34600	7726
1.34667	7719
1.34733	7712
1.34800	7705
1.34867	7698
1.34933	7691
1.35000	7685
1.35067	7678
1.35133	7671
1.35200	7664
1.35267	7658
1.35333	7651
1.35400	7645
1.35467	7638
1.35533	7632
1.35600	7625
1.35667	7619
1.35733	7613
1.35800	7607
1.35867	7601
1.35933	7595
1.36000	7589
1.36067	7583
1.36133	7577
1.36200	7571
1.36267	7565
1.36333	7560
1.36400	7554
1.36467	7549
1.36533	7543
1.36600	7538
1.36667	7532
1.36733	7527
1.36800	7522
1.36867	7517
1.36933	7512
1.37000	7507
1.37067	7502
1.37133	7497
1.37200	7492
1.37267	7487
1.37333	7482
1.37400	7477
1.37467	7473
1.37533	7468
1.37600	7463
1.37667	7459
1.37733	7454
1.37800	7449
1.37867	7445
1.37933	7440
1.38000	7435
1.38067	7431
1.38133	7426
1.38200	7421
1.38267	7417
1.38333	7412
1.38400	7408
1.38467	7404
1.38533	7399
1.38600	7395
1.38667	7391
1.38733	7386
1.38800	7382
1.38867	7378
1.38933	7374
1.39000	7370
1.39067	7365
1.39133	7361
1.39200	7357
1.39267	7353
1.39333	7349
1.39400	7345
1.39467	7341
1.39533	7337
1.39600	7333
1.39667	7330
1.39733	7326
1.39800	7322
1.39867	7318
1.39933	7314
1.40000	7311
1.40067	7307
1.40133	7303
1.40200	7300
1.40267	7296
1.40333	7292
1.40400	7289
1.40467	7285
1.40533	7282
1.40600	7278
1.40667	7274
1.40733	7271
1.40800	7267
1.40867	7264
1.40933	7260
1.41000	7256
1.41067	7253
1.41133	7249
1.41200	7246
1.41267	7242
1.41333	7239
1.41400	7235
1.41467	7232
1.41533	7229
1.41600	7225
1.41667	7222
1.41733	7219
1.41800	7215
1.41867	7212
1.41933	7209
1.42000	7205
1.42067	7202
1.42133	7199
1.42200	7195
1.42267	7192
1.42333	7189
1.42400	7186
1.42467	7183
1.42533	7180
1.42600	7177
1.42667	7174
1.42733	7171
1.42800	7168
1.42867	7165
1.42933	7162
1.43000	7160
1.43067	7157
1.43133	7154
1.43200	7152
1.43267	7149
1.43333	7146
1.43400	7144
1.43467	7141
1.43533	7139
1.43600	7137
1.43667	7134
1.43733	7132
1.43800	7130
1.43867	7128
1.43933	7126
1.44000	7124
1.44067	7123
1.44133	7121
1.44200	7119
1.44267	7118
1.44333	7116
1.44400	7115
1.44467	7113
1.44533	7112
1.44600	7111
1.44667	7110
1.44733	7108
1.44800	7107
1.44867	7106
1.44933	7104
1.45000	7103
1.45067	7101
1.45133	7100
1.45200	7098
1.45267	7097
1.45333	7095
1.45400	7094
1.45467	7092
1.45533	7090
1.45600	7089
1.45667	7087
1.45733	7085
1.45800	7084
1.45867	7082
1.45933	7080
1.46000	7078
1.46067	7076
1.46133	7074
1.46200	7072
1.46267	7070
1.46333	7068
1.46400	7066
1.46467	7063
1.46533	7061
1.46600	7059
1.46667	7057
1.46733	7055
1.46800	7052
1.46867	7050
1.46933	7048
1.47000	7046
1.47067	7044
1.47133	7041
1.47200	7039
1.47267	7037
1.47333	7035
1.47400	7032
1.47467	7030
1.47533	7028
1.47600	7026
1.47667	7024
1.47733	7021
1.47800	7019
1.47867	7017
1.47933	7014
1.48000	7012
1.48067	7010
1.48133	7007
1.48200	7005
1.48267	7002
1.48333	7000
1.48400	6997
1.48467	6995
1.48533	6992
1.48600	6990
1.48667	6987
1.48733	6985
1.48800	6982
1.48867	6979
1.48933	6976
1.49000	6974
1.49067	6971
1.49133	6968
1.49200	6965
1.49267	6962
1.49333	6959
1.49400	6956
1.49467	6953
1.49533	6950
1.49600	6947
1.49667	6944
1.49733	6941
1.49800	6938
1.49867	6935
1.49933	6931
1.50000	6928
1.50067	6925
1.50133	6922
1.50200	6918
1.50267	6915
1.50333	6912
1.50400	6909
1.50467	6906
1.50533	6902
1.50600	6899
1.50667	6896
1.50733	6893
1.50800	6890
1.50867	6887
1.50933	6883
1.51000	6880
1.51067	6877
1.51133	6874
1.51200	6871
1.51267	6868
1.51333	6865
1.51400	6862
1.51467	6859
1.51533	6856
1.51600	6853
1.51667	6851
1.51733	6848
1.51800	6845
1.51867	6842
1.51933	6840
1.52000	6837
1.52067	6834
1.52133	6832
1.52200	6829
1.52267	6826
1.52333	6824
1.52400	6821
1.52467	6819
1.52533	6817
1.52600	6814
1.52667	6812
1.52733	6809
1.52800	6807
1.52867	6805
1.52933	6802
1.53000	6800
1.53067	6798
1.53133	6796
1.53200	6794
1.53267	6792
1.53333	6789
1.53400	6787
1.53467	6785
1.53533	6783
1.53600	6781
1.53667	6779
1.53733	6777
1.53800	6776
1.53867	6774
1.53933	6772
1.54000	6770
1.54067	6768
1.54133	6766
1.54200	6764
1.54267	6762
1.54333	6760
1.54400	6758
1.54467	6756
1.54533	6754
1.54600	6752
1.54667	6750
1.54733	6748
1.54800	6746
1.54867	6744
1.54933	6742
1.55000	6740
1.55067	6738
1.55133	6735
1.55200	6733
1.55267	6731
1.55333	6729
1.55400	6727
1.55467	6724
1.55533	6722
1.55600	6720
1.55667	6718
1.55733	6715
1.55800	6713
1.55867	6711
1.55933	6709
1.56000	6706
1.56067	6704
1.56133	6702
1.56200	6700
1.56267	6698
1.56333	6696
1.56400	6694
1.56467	6692
1.56533	6690
1.56600	6688
1.56667	6686
1.56733	6684
1.56800	6682
1.56867	6680
1.56933	6678
1.57000	6676
1.57067	6674
1.57133	6673
1.57200	6671
1.57267	6669
1.57333	6667
1.57400	6665
1.57467	6664
1.57533	6662
1.57600	6660
1.57667	6658
1.57733	6657
1.57800	6655
1.57867	6653
1.57933	6651
1.58000	6649
1.58067	6648
1.58133	6646
1.58200	6644
1.58267	6642
1.58333	6640
1.58400	6639
1.58467	6637
1.58533	6635
1.58600	6633
1.58667	6631
1.58733	6629
1.58800	6628
1.58867	6626
1.58933	6624
1.59000	6622
1.59067	6620
1.59133	6618
1.59200	6616
1.59267	6614
1.59333	6613
1.59400	6611
1.59467	6609
1.59533	6607
1.59600	6605
1.59667	6604
1.59733	6602
1.59800	6600
1.59867	6599
1.59933	6597
1.60000	6596
1.60067	6594
1.60133	6593
1.60200	6592
1.60267	6590
1.60333	6589
1.60400	6588
1.60467	6587
1.60533	6585
1.60600	6584
1.60667	6583
1.60733	6582
1.60800	6581
1.60867	6580
1.60933	6579
1.61000	6577
1.61067	6576
1.61133	6575
1.61200	6574
1.61267	6573
1.61333	6571
1.61400	6570
1.61467	6569
1.61533	6568
1.61600	6567
1.61667	6566
1.61733	6564
1.61800	6563
1.61867	6562
1.61933	6561
1.62000	6559
1.62067	6558
1.62133	6557
1.62200	6556
1.62267	6554
1.62333	6553
1.62400	6551
1.62467	6550
1.62533	6548
1.62600	6547
1.62667	6545
1.62733	6544
1.62800	6542
1.62867	6541
1.62933	6539
1.63000	6538
1.63067	6536
1.63133	6535
1.63200	6533
1.63267	6532
1.63333	6530
1.63400	6529
1.63467	6528
1.63533	6526
1.63600	6525
1.63667	6524
1.63733	6523
1.63800	6522
1.63867	6521
1.63933	6520
1.64000	6520
1.64067	6519
1.64133	6518
1.64200	6518
1.64267	6517
1.64333	6516
1.64400	6516
1.64467	6515
1.64533	6515
1.64600	6514
1.64667	6514
1.64733	6514
1.64800	6513
1.64867	6513
1.64933	6513
1.65000	6512
1.65067	6512
1.65133	6512
1.65200	6512
1.65267	6511
1.65333	6511
1.65400	6511
1.65467	6511
1.65533	6511
1.65600	6511
1.65667	6510
1.65733	6510
1.65800	6510
1.65867	6510
1.65933	6509
1.66000	6509
1.66067	6509
1.66133	6508
1.66200	6508
1.66267	6508
1.66333	6507
1.66400	6507
1.66467	6506
1.66533	6505
1.66600	6505
1.66667	6504
1.66733	6503
1.66800	6502
1.66867	6502
1.66933	6501
1.67000	6500
1.67067	6499
1.67133	6498
1.67200	6497
1.67267	6496
1.67333	6495
1.67400	6493
1.67467	6492
1.67533	6491
1.67600	6490
1.67667	6488
1.67733	6487
1.67800	6485
1.67867	6484
1.67933	6482
1.68000	6481
1.68067	6479
1.68133	6478
1.68200	6476
1.68267	6474
1.68333	6473
1.68400	6471
1.68467	6469
1.68533	6468
1.68600	6466
1.68667	6464
1.68733	6463
1.68800	6461
1.68867	6459
1.68933	6457
1.69000	6456
1.69067	6454
1.69133	6452
1.69200	6450
1.69267	6448
1.69333	6446
1.69400	6444
1.69467	6443
1.69533	6441
1.69600	6439
1.69667	6437
1.69733	6435
1.69800	6433
1.69867	6432
1.69933	6430
1.70000	6428
1.70067	6426
1.70133	6425
1.70200	6423
1.70267	6421
1.70333	6420
1.70400	6418
1.70467	6416
1.70533	6415
1.70600	6413
1.70667	6411
1.70733	6410
1.70800	6408
1.70867	6406
1.70933	6405
1.71000	6403
1.71067	6402
1.71133	6400
1.71200	6399
1.71267	6397
1.71333	6396
1.71400	6395
1.71467	6394
1.71533	6393
1.71600	6393
1.71667	6393
1.71733	6393
1.71800	6394
1.71867	6396
1.71933	6398
1.72000	6402
1.72067	6407
1.72133	6414
1.72200	6422
1.72267	6433
1.72333	6447
1.72400	6464
1.72467	6486
1.72533	6513
1.72600	6546
1.72667	6586
1.72733	6634
1.72800	6693
1.72867	6763
1.72933	6848
1.73000	6948
1.73067	7067
1.73133	7207
1.73200	7372
1.73267	7567
1.73333	7794
1.73400	8059
1.73467	8365
1.73533	8720
1.73600	9128
1.73667	9595
1.73733	10129
1.73800	10737
1.73867	11426
1.73933	12203
1.74000	13078
1.74067	14058
1.74133	15154
1.74200	16373
1.74267	17726
1.74333	19223
1.74400	20874
1.74467	22690
1.74533	24682
1.74600	26857
1.74667	29225
1.74733	31795
1.74800	34573
1.74867	37568
1.74933	40785
1.75000	44228
1.75067	47904
1.75133	51815
1.75200	55966
1.75267	60354
1.75333	64980
1.75400	69839
1.75467	74929
1.75533	80245
1.75600	85778
1.75667	91519
1.75733	97456
1.75800	103575
1.75867	109857
1.75933	116284
1.76000	122839
1.76067	129500
1.76133	136244
1.76200	143048
1.76267	149889
1.76333	156740
1.76400	163576
1.76467	170365
1.76533	177081
1.76600	183695
1.76667	190178
1.76733	196502
1.76800	202641
1.76867	208570
1.76933	214269
1.77000	219718
1.77067	224896
1.77133	229787
1.77200	234374
1.77267	238644
1.77333	242585
1.77400	246191
1.77467	249456
1.77533	252377
1.77600	254952
1.77667	257184
1.77733	259075
1.77800	260630
1.77867	261855
1.77933	262757
1.78000	263345
1.78067	263629
1.78133	263620
1.78200	263331
1.78267	262772
1.78333	261956
1.78400	260898
1.78467	259609
1.78533	258103
1.78600	256394
1.78667	254495
1.78733	252418
1.78800	250178
1.78867	247786
1.78933	245254
1.79000	242594
1.79067	239818
1.79133	236937
1.79200	233960
1.79267	230898
1.79333	227760
1.79400	224555
1.79467	221292
1.79533	217978
1.79600	214622
1.79667	211231
1.79733	207811
1.79800	204368
1.79867	200909
1.79933	197439
1.80000	193964
1.80067	190488
1.80133	187016
1.80200	183552
1.80267	180099
1.80333	176663
1.80400	173245
1.80467	169849
1.80533	166479
1.80600	163135
1.80667	159822
1.80733	156541
1.80800	153294
1.80867	150084
1.80933	146911
1.81000	143777
1.81067	140684
1.81133	137632
1.81200	134624
1.81267	131659
1.81333	128738
1.81400	125863
1.81467	123034
1.81533	120251
1.81600	117514
1.81667	114825
1.81733	112182
1.81800	109587
1.81867	107040
1.81933	104539
1.82000	102086
1.82067	99681
1.82133	97322
1.82200	95010
1.82267	92745
1.82333	90526
1.82400	88353
1.82467	86226
1.82533	84143
1.82600	82106
1.82667	80113
1.82733	78163
1.82800	76257
1.82867	74393
1.82933	72571
1.83000	70791
1.83067	69052
1.83133	67354
1.83200	65695
1.83267	64075
1.83333	62494
1.83400	60951
1.83467	59445
1.83533	57975
1.83600	56542
1.83667	55144
1.83733	53780
1.83800	52451
1.83867	51154
1.83933	49891
1.84000	48659
1.84067	47460
1.84133	46290
1.84200	45152
1.84267	44042
1.84333	42962
1.84400	41910
1.84467	40885
1.84533	39888
1.84600	38917
1.84667	37972
1.84733	37052
1.84800	36157
1.84867	35286
1.84933	34438
1.85000	33614
1.85067	32812
1.85133	32032
1.85200	31273
1.85267	30536
1.85333	29818
1.85400	29121
1.85467	28442
1.85533	27783
1.85600	27142
1.85667	26519
1.85733	25914
1.85800	25325
1.85867	24753
1.85933	24197
1.86000	23657
1.86067	23133
1.86133	22623
1.86200	22127
1.86267	21646
1.86333	21179
1.86400	20725
1.86467	20284
1.86533	19856
1.86600	19440
1.86667	19036
1.86733	18643
1.86800	18262
1.86867	17893
1.86933	17533
1.87000	17185
1.87067	16846
1.87133	16518
1.87200	16199
1.87267	15889
1.87333	15588
1.87400	15296
1.87467	15013
1.87533	14738
1.87600	14471
1.87667	14212
1.87733	13961
1.87800	13717
1.87867	13480
1.87933	13251
1.88000	13028
1.88067	12811
1.88133	12602
1.88200	12398
1.88267	12200
1.88333	12008
1.88400	11822
1.88467	11642
1.88533	11467
1.88600	11297
1.88667	11132
1.88733	10972
1.88800	10817
1.88867	10666
1.88933	10520
1.89000	10378
1.89067	10240
1.89133	10107
1.89200	9978
1.89267	9852
1.89333	9730
1.89400	9612
1.89467	9497
1.89533	9386
1.89600	9278
1.89667	9173
1.89733	9072
1.89800	8973
1.89867	8877
1.89933	8785
1.90000	8695
1.90067	8607
1.90133	8523
1.90200	8441
1.90267	8361
1.90333	8283
1.90400	8208
1.90467	8135
1.90533	8065
1.90600	7996
1.90667	7929
1.90733	7865
1.90800	7802
1.90867	7741
1.90933	7682
1.91000	7624
1.91067	7569
1.91133	7514
1.91200	7462
1.91267	7411
1.91333	7361
1.91400	7312
1.91467	7265
1.91533	7219
1.91600	7175
1.91667	7132
1.91733	7089
1.91800	7048
1.91867	7008
1.91933	6969
1.92000	6931
1.92067	6894
1.92133	6858
1.92200	6823
1.92267	6789
1.92333	6755
1.92400	6723
1.92467	6691
1.92533	6660
1.92600	6630
1.92667	6601
1.92733	6572
1.92800	6544
1.92867	6517
1.92933	6491
1.93000	6465
1.93067	6440
1.93133	6415
1.93200	6391
1.93267	6368
1.93333	6345
1.93400	6323
1.93467	6301
1.93533	6280
1.93600	6259
1.93667	6239
1.93733	6219
1.93800	6200
1.93867	6181
1.93933	6163
1.94000	6146
1.94067	6128
1.94133	6111
1.94200	6095
1.94267	6079
1.94333	6063
1.94400	6048
1.94467	6034
1.94533	6019
1.94600	6005
1.94667	5992
1.94733	5979
1.94800	5966
1.94867	5953
1.94933	5941
1.95000	5929
1.95067	5918
1.95133	5906
1.95200	5895
1.95267	5885
1.95333	5874
1.95400	5864
1.95467	5854
1.95533	5844
1.95600	5835
1.95667	5826
1.95733	5816
1.95800	5808
1.95867	5799
1.95933	5791
1.96000	5782
1.96067	5774
1.96133	5766
1.96200	5758
1.96267	5751
1.96333	5743
1.96400	5736
1.96467	5728
1.96533	5721
1.96600	5714
1.96667	5708
1.96733	5701
1.96800	5694
1.96867	5688
1.96933	5682
1.97000	5676
1.97067	5669
1.97133	5664
1.97200	5658
1.97267	5652
1.97333	5646
1.97400	5641
1.97467	5635
1.97533	5630
1.97600	5625
1.97667	5620
1.97733	5615
1.97800	5610
1.97867	5606
1.97933	5601
1.98000	5596
1.98067	5592
1.98133	5588
1.98200	5583
1.98267	5579
1.98333	5575
1.98400	5571
1.98467	5567
1.98533	5563
1.98600	5559
1.98667	5555
1.98733	5551
1.98800	5548
1.98867	5544
1.98933	5540
1.99000	5537
1.99067	5533
1.99133	5529
1.99200	5526
1.99267	5522
1.99333	5519
1.99400	5516
1.99467	5512
1.99533	5509
1.99600	5506
1.99667	5502
1.99733	5499
1.99800	5496
1.99867	5493
1.99933	5489
2.00000	5486
2.00067	5483
2.00133	5480
2.00200	5477
2.00267	5474
2.00333	5471
2.00400	5468
2.00467	5465
2.00533	5462
2.00600	5459
2.00667	5456
2.00733	5453
2.00800	5451
2.00867	5448
2.00933	5445
2.01000	5442
2.01067	5439
2.01133	5436
2.01200	5433
2.01267	5430
2.01333	5427
2.01400	5424
2.01467	5421
2.01533	5418
2.01600	5415
2.01667	5412
2.01733	5409
2.01800	5406
2.01867	5403
2.01933	5400
2.02000	5397
2.02067	5394
2.02133	5391
2.02200	5388
2.02267	5385
2.02333	5382
2.02400	5379
2.02467	5376
2.02533	5373
2.02600	5370
2.02667	5367
2.02733	5364
2.02800	5361
2.02867	5357
2.02933	5354
2.03000	5351
2.03067	5348
2.03133	5346
2.03200	5343
2.03267	5340
2.03333	5337
2.03400	5334
2.03467	5331
2.03533	5328
2.03600	5326
2.03667	5323
2.03733	5320
2.03800	5317
2.03867	5315
2.03933	5312
2.04000	5309
2.04067	5307
2.04133	5304
2.04200	5302
2.04267	5299
2.04333	5296
2.04400	5294
2.04467	5291
2.04533	5289
2.04600	5286
2.04667	5284
2.04733	5281
2.04800	5279
2.04867	5276
2.04933	5274
2.05000	5271
2.05067	5269
2.05133	5266
2.05200	5264
2.05267	5261
2.05333	5259
2.05400	5257
2.05467	5254
2.05533	5252
2.05600	5249
2.05667	5247
2.05733	5245
2.05800	5242
2.05867	5240
2.05933	5238
2.06000	5235
2.06067	5233
2.06133	5231
2.06200	5228
2.06267	5226
2.06333	5224
2.06400	5221
2.06467	5219
2.06533	5216
2.06600	5214
2.06667	5212
2.06733	5209
2.06800	5207
2.06867	5205
2.06933	5203
2.07000	5200
2.07067	5198
2.07133	5196
2.07200	5193
2.07267	5191
2.07333	5189
2.07400	5187
2.07467	5184
2.07533	5182
2.07600	5180
2.07667	5177
2.07733	5175
2.07800	5173
2.07867	5170
2.07933	5168
2.08000	5166
2.08067	5163
2.08133	5161
2.08200	5159
2.08267	5156
2.08333	5154
2.08400	5152
2.08467	5149
2.08533	5147
2.08600	5145
2.08667	5143
2.08733	5140
2.08800	5138
2.08867	5136
2.08933	5134
2.09000	5132
2.09067	5129
2.09133	5127
2.09200	5125
2.09267	5123
2.09333	5121
2.09400	5119
2.09467	5117
2.09533	5115
2.09600	5113
2.09667	5111
2.09733	5109
2.09800	5107
2.09867	5105
2.09933	5104
2.10000	5102
2.10067	5100
2.10133	5098
2.10200	5096
2.10267	5094
2.10333	5092
2.10400	5090
2.10467	5088
2.10533	5087
2.10600	5085
2.10667	5083
2.10733	5081
2.10800	5079
2.10867	5077
2.10933	5075
2.11000	5073
2.11067	5071
2.11133	5069
2.11200	5067
2.11267	5065
2.11333	5063
2.11400	5061
2.11467	5059
2.11533	5057
2.11600	5055
2.11667	5053
2.11733	5051
2.11800	5049
2.11867	5047
2.11933	5045
2.12000	5043
2.12067	5041
2.12133	5039
2.12200	5037
2.12267	5035
2.12333	5033
2.12400	5031
2.12467	5029
2.12533	5027
2.12600	5025
2.12667	5023
2.12733	5021
2.12800	5019
2.12867	5017
2.12933	5014
2.13000	5012
2.13067	5010
2.13133	5008
2.13200	5006
2.13267	5004
2.13333	5002
2.13400	5000
2.13467	4998
2.13533	4996
2.13600	4994
2.13667	4992
2.13733	4990
2.13800	4988
2.13867	4986
2.13933	4984
2.14000	4982
2.14067	4980
2.14133	4978
2.14200	4976
2.14267	4975
2.14333	4973
2.14400	4971
2.14467	4969
2.14533	4967
2.14600	4965
2.14667	4963
2.14733	4962
2.14800	4960
2.14867	4958
2.14933	4956
2.15000	4954
2.15067	4952
2.15133	4950
2.15200	4948
2.15267	4946
2.15333	4945
2.15400	4943
2.15467	4941
2.15533	4939
2.15600	4937
2.15667	4935
2.15733	4933
2.15800	4931
2.15867	4930
2.15933	4928
2.16000	4926
2.16067	4924
2.16133	4922
2.16200	4921
2.16267	4919
2.16333	4917
2.16400	4916
2.16467	4914
2.16533	4912
2.16600	4911
2.16667	4909
2.16733	4907
2.16800	4906
2.16867	4904
2.16933	4902
2.17000	4901
2.17067	4899
2.17133	4898
2.17200	4896
2.17267	4894
2.17333	4893
2.17400	4891
2.17467	4890
2.17533	4888
2.17600	4887
2.17667	4885
2.17733	4884
2.17800	4882
2.17867	4881
2.17933	4879
2.18000	4878
2.18067	4876
2.18133	4875
2.18200	4873
2.18267	4872
2.18333	4870
2.18400	4869
2.18467	4867
2.18533	4866
2.18600	4865
2.18667	4863
2.18733	4862
2.18800	4861
2.18867	4859
2.18933	4858
2.19000	4857
2.19067	4855
2.19133	4854
2.19200	4853
2.19267	4851
2.19333	4850
2.19400	4849
2.19467	4848
2.19533	4846
2.19600	4845
2.19667	4844
2.19733	4842
2.19800	4841
2.19867	4840
2.19933	4839
2.20000	4838
2.20067	4837
2.20133	4836
2.20200	4835
2.20267	4834
2.20333	4833
2.20400	4832
2.20467	4831
2.20533	4830
2.20600	4829
2.20667	4828
2.20733	4828
2.20800	4827
2.20867	4827
2.20933	4826
2.21000	4826
2.21067	4825
2.21133	4825
2.21200	4825
2.21267	4824
2.21333	4824
2.21400	4824
2.21467	4824
2.21533	4824
2.21600	4823
2.21667	4823
2.21733	4824
2.21800	4824
2.21867	4824
2.21933	4824
2.22000	4824
2.22067	4824
2.22133	4824
2.22200	4824
2.22267	4824
2.22333	4824
2.22400	4825
2.22467	4825
2.22533	4825
2.22600	4825
2.22667	4825
2.22733	4825
2.22800	4825
2.22867	4825
2.22933	4825
2.23000	4825
2.23067	4825
2.23133	4824
2.23200	4824
2.23267	4824
2.23333	4824
2.23400	4823
2.23467	4823
2.23533	4822
2.23600	4822
2.23667	4821
2.23733	4821
2.23800	4820
2.23867	4819
2.23933	4819
2.24000	4818
2.24067	4817
2.24133	4817
2.24200	4816
2.24267	4815
2.24333	4815
2.24400	4814
2.24467	4813
2.24533	4812
2.24600	4812
2.24667	4811
2.24733	4810
2.24800	4809
2.24867	4809
2.24933	4808
2.25000	4807
2.25067	4806
2.25133	4806
2.25200	4805
2.25267	4804
2.25333	4803
2.25400	4802
2.25467	4801
2.25533	4800
2.25600	4799
2.25667	4798
2.25733	4797
2.25800	4796
2.25867	4795
2.25933	4794
2.26000	4793
2.26067	4792
2.26133	4790
2.26200	4789
2.26267	4788
2.26333	4787
2.26400	4786
2.26467	4784
2.26533	4783
2.26600	4782
2.26667	4780
2.26733	4779
2.26800	4778
2.26867	4776
2.26933	4775
2.27000	4773
2.27067	4772
2.27133	4771
2.27200	4769
2.27267	4768
2.27333	4766
2.27400	4765
2.27467	4763
2.27533	4762
2.27600	4760
2.27667	4758
2.27733	4757
2.27800	4755
2.27867	4754
2.27933	4752
2.28000	4750
2.28067	4749
2.28133	4747
2.28200	4746
2.28267	4744
2.28333	4743
2.28400	4741
2.28467	4740
2.28533	4738
2.28600	4736
2.28667	4735
2.28733	4733
2.28800	4732
2.28867	4730
2.28933	4729
2.29000	4727
2.29067	4726
2.29133	4724
2.29200	4723
2.29267	4721
2.29333	4720
2.29400	4718
2.29467	4717
2.29533	4716
2.29600	4714
2.29667	4713
2.29733	4712
2.29800	4710
2.29867	4709
2.29933	4708
2.30000	4707
2.30067	4705
2.30133	4704
2.30200	4703
2.30267	4702
2.30333	4700
2.30400	4699
2.30467	4698
2.30533	4697
2.30600	4696
2.30667	4695
2.30733	4694
2.30800	4693
2.30867	4692
2.30933	4691
2.31000	4691
2.31067	4690
2.31133	4689
2.31200	4688
2.31267	4688
2.31333	4687
2.31400	4686
2.31467	4686
2.31533	4685
2.31600	4685
2.31667	4684
2.31733	4684
2.31800	4684
2.31867	4683
2.31933	4683
2.32000	4683
2.32067	4683
2.32133	4682
2.32200	4682
2.32267	4682
2.32333	4682
2.32400	4682
2.32467	4682
2.32533	4682
2.32600	4682
2.32667	4682
2.32733	4682
2.32800	4682
2.32867	4682
2.32933	4682
2.33000	4682
2.33067	4682
2.33133	4683
2.33200	4683
2.33267	4683
2.33333	4683
2.33400	4683
2.33467	4683
2.33533	4684
2.33600	4684
2.33667	4684
2.33733	4684
2.33800	4685
2.33867	4685
2.33933	4685
2.34000	4686
2.34067	4686
2.34133	4686
2.34200	4687
2.34267	4687
2.34333	4688
2.34400	4688
2.34467	4688
2.34533	4689
2.34600	4689
2.34667	4689
2.34733	4690
2.34800	4690
2.34867	4691
2.34933	4691
2.35000	4691
2.35067	4692
2.35133	4692
2.35200	4693
2.35267	4693
2.35333	4694
2.35400	4695
2.35467	4695
2.35533	4695
2.35600	4696
2.35667	4696
2.35733	4697
2.35800	4697
2.35867	4697
2.35933	4698
2.36000	4698
2.36067	4698
2.36133	4699
2.36200	4699
2.36267	4699
2.36333	4700
2.36400	4700
2.36467	4700
2.36533	4700
2.36600	4701
2.36667	4701
2.36733	4701
2.36800	4701
2.36867	4701
2.36933	4701
2.37000	4701
2.37067	4701
2.37133	4701
2.37200	4701
2.37267	4701
2.37333	4700
2.37400	4700
2.37467	4700
2.37533	4700
2.37600	4699
2.37667	4699
2.37733	4699
2.37800	4699
2.37867	4698
2.37933	4698
2.38000	4698
2.38067	4698
2.38133	4698
2.38200	4698
2.38267	4697
2.38333	4697
2.38400	4697
2.38467	4697
2.38533	4696
2.38600	4696
2.38667	4696
2.38733	4696
2.38800	4695
2.38867	4695
2.38933	4695
2.39000	4695
2.39067	4694
2.39133	4694
2.39200	4694
2.39267	4693
2.39333	4693
2.39400	4692
2.39467	4692
2.39533	4692
2.39600	4691
2.39667	4691
2.39733	4690
2.39800	4690
2.39867	4689
2.39933	4689
2.40000	4688
2.40067	4687
2.40133	4687
2.40200	4686
2.40267	4686
2.40333	4685
2.40400	4685
2.40467	4684
2.40533	4683
2.40600	4683
2.40667	4682
2.40733	4682
2.40800	4682
2.40867	4681
2.40933	4681
2.41000	4681
2.41067	4680
2.41133	4680
2.41200	4680
2.41267	4679
2.41333	4679
2.41400	4679
2.41467	4678
2.41533	4678
2.41600	4678
2.41667	4677
2.41733	4677
2.41800	4677
2.41867	4676
2.41933	4676
2.42000	4676
2.42067	4675
2.42133	4675
2.42200	4675
2.42267	4674
2.42333	4674
2.42400	4673
2.42467	4673
2.42533	4672
2.42600	4672
2.42667	4671
2.42733	4670
2.42800	4670
2.42867	4669
2.42933	4668
2.43000	4668
2.43067	4667
2.43133	4666
2.43200	4665
2.43267	4664
2.43333	4663
2.43400	4662
2.43467	4660
2.43533	4659
2.43600	4658
2.43667	4657
2.43733	4655
2.43800	4654
2.43867	4652
2.43933	4651
2.44000	4649
2.44067	4648
2.44133	4646
2.44200	4644
2.44267	4643
2.44333	4641
2.44400	4639
2.44467	4637
2.44533	4635
2.44600	4633
2.44667	4631
2.44733	4630
2.44800	4628
2.44867	4626
2.44933	4624
2.45000	4622
2.45067	4620
2.45133	4617
2.45200	4615
2.45267	4613
2.45333	4611
2.45400	4609
2.45467	4606
2.45533	4604
2.45600	4602
2.45667	4600
2.45733	4597
2.45800	4595
2.45867	4593
2.45933	4591
2.46000	4588
2.46067	4586
2.46133	4584
2.46200	4582
2.46267	4579
2.46333	4577
2.46400	4575
2.46467	4572
2.46533	4570
2.46600	4568
2.46667	4565
2.46733	4563
2.46800	4561
2.46867	4558
2.46933	4556
2.47000	4554
2.47067	4551
2.47133	4549
2.47200	4546
2.47267	4544
2.47333	4542
2.47400	4540
2.47467	4538
2.47533	4535
2.47600	4533
2.47667	4531
2.47733	4529
2.47800	4527
2.47867	4525
2.47933	4523
2.48000	4520
2.48067	4518
2.48133	4516
2.48200	4514
2.48267	4512
2.48333	4510
2.48400	4508
2.48467	4506
2.48533	4504
2.48600	4502
2.48667	4500
2.48733	4498
2.48800	4496
2.48867	4494
2.48933	4492
2.49000	4490
2.49067	4488
2.49133	4486
2.49200	4484
2.49267	4482
2.49333	4480
2.49400	4478
2.49467	4476
2.49533	4474
2.49600	4472
2.49667	4471
2.49733	4469
2.49800	4467
2.49867	4465
2.49933	4463
2.50000	4461
2.50067	4460
2.50133	4458
2.50200	4456
2.50267	4454
2.50333	4453
2.50400	4451
2.50467	4449
2.50533	4448
2.50600	4446
2.50667	4444
2.50733	4443
2.50800	4441
2.50867	4439
2.50933	4437
2.51000	4436
2.51067	4434
2.51133	4432
2.51200	4430
2.51267	4429
2.51333	4427
2.51400	4425
2.51467	4423
2.51533	4422
2.51600	4420
2.51667	4418
2.51733	4416
2.51800	4415
2.51867	4413
2.51933	4411
2.52000	4410
2.52067	4408
2.52133	4406
2.52200	4405
2.52267	4403
2.52333	4402
2.52400	4400
2.52467	4398
2.52533	4397
2.52600	4395
2.52667	4394
2.52733	4392
2.52800	4391
2.52867	4389
2.52933	4387
2.53000	4386
2.53067	4384
2.53133	4383
2.53200	4381
2.53267	4379
2.53333	4378
2.53400	4376
2.53467	4375
2.53533	4373
2.53600	4371
2.53667	4370
2.53733	4368
2.53800	4366
2.53867	4365
2.53933	4363
2.54000	4361
2.54067	4360
2.54133	4358
2.54200	4356
2.54267	4355
2.54333	4353
2.54400	4352
2.54467	4350
2.54533	4349
2.54600	4347
2.54667	4346
2.54733	4344
2.54800	4343
2.54867	4341
2.54933	4340
2.55000	4338
2.55067	4337
2.55133	4335
2.55200	4334
2.55267	4333
2.55333	4331
2.55400	4330
2.55467	4328
2.55533	4327
2.55600	4325
2.55667	4324
2.55733	4323
2.55800	4321
2.55867	4320
2.55933	4318
2.56000	4317
2.56067	4316
2.56133	4314
2.56200	4313
2.56267	4312
2.56333	4310
2.56400	4309
2.56467	4308
2.56533	4306
2.56600	4305
2.56667	4304
2.56733	4302
2.56800	4301
2.56867	4300
2.56933	4298
2.57000	4297
2.57067	4296
2.57133	4295
2.57200	4294
2.57267	4292
2.57333	4291
2.57400	4290
2.57467	4289
2.57533	4288
2.57600	4287
2.57667	4285
2.57733	4284
2.57800	4283
2.57867	4282
2.57933	4281
2.58000	4280
2.58067	4278
2.58133	4277
2.58200	4276
2.58267	4275
2.58333	4274
2.58400	4273
2.58467	4272
2.58533	4271
2.58600	4269
2.58667	4268
2.58733	4267
2.58800	4266
2.58867	4265
2.58933	4264
2.59000	4263
2.59067	4262
2.59133	4260
2.59200	4259
2.59267	4258
2.59333	4257
2.59400	4256
2.59467	4255
2.59533	4254
2.59600	4253
2.59667	4251
2.59733	4250
2.59800	4249
2.59867	4248
2.59933	4247
2.60000	4246
2.60067	4244
2.60133	4243
2.60200	4242
2.60267	4241
2.60333	4240
2.60400	4239
2.60467	4238
2.60533	4237
2.60600	4235
2.60667	4234
2.60733	4233
2.60800	4232
2.60867	4231
2.60933	4230
2.61000	4229
2.61067	4228
2.61133	4227
2.61200	4225
2.61267	4224
2.61333	4223
2.61400	4222
2.61467	4221
2.61533	4220
2.61600	4219
2.61667	4218
2.61733	4217
2.61800	4216
2.61867	4214
2.61933	4213
2.62000	4212
2.62067	4211
2.62133	4210
2.62200	4209
2.62267	4208
2.62333	4207
2.62400	4206
2.62467	4205
2.62533	4204
2.62600	4203
2.62667	4202
2.62733	4201
2.62800	4200
2.62867	4199
2.62933	4198
2.63000	4197
2.63067	4196
2.63133	4195
2.63200	4194
2.63267	4193
2.63333	4192
2.63400	4191
2.63467	4190
2.63533	4189
2.63600	4188
2.63667	4187
2.63733	4186
2.63800	4185
2.63867	4184
2.63933	4183
2.64000	4182
2.64067	4181
2.64133	4180
2.64200	4179
2.64267	4178
2.64333	4177
2.64400	4176
2.64467	4175
2.64533	4175
2.64600	4174
2.64667	4173
2.64733	4172
2.64800	4171
2.64867	4170
2.64933	4169
2.65000	4168
2.65067	4167
2.65133	4166
2.65200	4165
2.65267	4164
2.65333	4163
2.65400	4162
2.65467	4162
2.65533	4161
2.65600	4160
2.65667	4159
2.65733	4158
2.65800	4157
2.65867	4156
2.65933	4155
2.66000	4154
2.66067	4153
2.66133	4152
2.66200	4151
2.66267	4150
2.66333	4149
2.66400	4148
2.66467	4147
2.66533	4146
2.66600	4145
2.66667	4144
2.66733	4143
2.66800	4142
2.66867	4141
2.66933	4140
2.67000	4139
2.67067	4138
2.67133	4137
2.67200	4136
2.67267	4134
2.67333	4133
2.67400	4132
2.67467	4131
2.67533	4130
2.67600	4129
2.67667	4128
2.67733	4127
2.67800	4125
2.67867	4124
2.67933	4123
2.68000	4122
2.68067	4121
2.68133	4120
2.68200	4119
2.68267	4118
2.68333	4117
2.68400	4116
2.68467	4115
2.68533	4114
2.68600	4113
2.68667	4112
2.68733	4111
2.68800	4110
2.68867	4109
2.68933	4108
2.69000	4107
2.69067	4106
2.69133	4105
2.69200	4104
2.69267	4103
2.69333	4102
2.69400	4101
2.69467	4100
2.69533	4099
2.69600	4098
2.69667	4098
2.69733	4097
2.69800	4096
2.69867	4095
2.69933	4094
2.70000	4093
2.70067	4092
2.70133	4091
2.70200	4090
2.70267	4089
2.70333	4089
2.70400	4088
2.70467	4087
2.70533	4086
2.70600	4085
2.70667	4084
2.70733	4084
2.70800	4083
2.70867	4082
2.70933	4082
2.71000	4081
2.71067	4080
2.71133	4080
2.71200	4079
2.71267	4079
2.71333	4078
2.71400	4077
2.71467	4077
2.71533	4076
2.71600	4076
2.71667	4075
2.71733	4074
2.71800	4074
2.71867	4073
2.71933	4072
2.72000	4072
2.72067	4071
2.72133	4071
2.72200	4070
2.72267	4069
2.72333	4069
2.72400	4068
2.72467	4067
2.72533	4067
2.72600	4066
2.72667	4065
2.72733	4065
2.72800	4064
2.72867	4063
2.72933	4062
2.73000	4062
2.73067	4061
2.73133	4060
2.73200	4060
2.73267	4059
2.73333	4058
2.73400	4057
2.73467	4057
2.73533	4056
2.73600	4055
2.73667	4055
2.73733	4054
2.73800	4053
2.73867	4053
2.73933	4052
2.74000	4052
2.74067	4051
2.74133	4050
2.74200	4050
2.74267	4049
2.74333	4049
2.74400	4049
2.74467	4048
2.74533	4048
2.74600	4047
2.74667	4047
2.74733	4046
2.74800	4046
2.74867	4046
2.74933	4045
2.75000	4045
2.75067	4045
2.75133	4045
2.75200	4044
2.75267	4044
2.75333	4044
2.75400	4044
2.75467	4043
2.75533	4043
2.75600	4043
2.75667	4043
2.75733	4043
2.75800	4043
2.75867	4043
2.75933	4042
2.76000	4042
2.76067	4042
2.76133	4042
2.76200	4042
2.76267	4042
2.76333	4042
2.76400	4042
2.76467	4042
2.76533	4042
2.76600	4043
2.76667	4043
2.76733	4043
2.76800	4043
2.76867	4043
2.76933	4044
2.77000	4044
2.77067	4044
2.77133	4045
2.77200	4045
2.77267	4046
2.77333	4046
2.77400	4047
2.77467	4048
2.77533	4048
2.77600	4049
2.77667	4050
2.77733	4051
2.77800	4052
2.77867	4053
2.77933	4054
2.78000	4055
2.78067	4056
2.78133	4057
2.78200	4058
2.78267	4059
2.78333	4061
2.78400	4062
2.78467	4064
2.78533	4065
2.78600	4067
2.78667	4068
2.78733	4070
2.78800	4072
2.78867	4074
2.78933	4076
2.79000	4078
2.79067	4080
2.79133	4083
2.79200	4085
2.79267	4087
2.79333	4090
2.79400	4093
2.79467	4095
2.79533	4098
2.79600	4101
2.79667	4104
2.79733	4107
2.79800	4110
2.79867	4113
2.79933	4116
2.80000	4119
2.80067	4122
2.80133	4126
2.80200	4129
2.80267	4133
2.80333	4136
2.80400	4140
2.80467	4143
2.80533	4147
2.80600	4151
2.80667	4154
2.80733	4158
2.80800	4162
2.80867	4165
2.80933	4169
2.81000	4173
2.81067	4176
2.81133	4180
2.81200	4184
2.81267	4187
2.81333	4191
2.81400	4195
2.81467	4198
2.81533	4202
2.81600	4205
2.81667	4209
2.81733	4212
2.81800	4215
2.81867	4219
2.81933	4222
2.82000	4225
2.82067	4228
2.82133	4231
2.82200	4233
2.82267	4236
2.82333	4239
2.82400	4241
2.82467	4244
2.82533	4246
2.82600	4248
2.82667	4250
2.82733	4252
2.82800	4254
2.82867	4256
2.82933	4257
2.83000	4259
2.83067	4260
2.83133	4261
2.83200	4262
2.83267	4263
2.83333	4264
2.83400	4264
2.83467	4265
2.83533	4265
2.83600	4265
2.83667	4265
2.83733	4266
2.83800	4265
2.83867	4265
2.83933	4265
2.84000	4264
2.84067	4264
2.84133	4263
2.84200	4262
2.84267	4261
2.84333	4260
2.84400	4259
2.84467	4258
2.84533	4256
2.84600	4255
2.84667	4253
2.84733	4252
2.84800	4250
2.84867	4248
2.84933	4247
2.85000	4245
2.85067	4243
2.85133	4241
2.85200	4239
2.85267	4237
2.85333	4235
2.85400	4233
2.85467	4231
2.85533	4229
2.85600	4227
2.85667	4225
2.85733	4222
2.85800	4220
2.85867	4218
2.85933	4216
2.86000	4214
2.86067	4212
2.86133	4210
2.86200	4207
2.86267	4205
2.86333	4204
2.86400	4202
2.86467	4200
2.86533	4198
2.86600	4196
2.86667	4195
2.86733	4193
2.86800	4192
2.86867	4190
2.86933	4189
2.87000	4188
2.87067	4187
2.87133	4186
2.87200	4186
2.87267	4185
2.87333	4184
2.87400	4184
2.87467	4184
2.87533	4184
2.87600	4184
2.87667	4184
2.87733	4185
2.87800	4185
2.87867	4186
2.87933	4187
2.88000	4188
2.88067	4189
2.88133	4191
2.88200	4192
2.88267	4194
2.88333	4196
2.88400	4198
2.88467	4201
2.88533	4203
2.88600	4206
2.88667	4209
2.88733	4212
2.88800	4216
2.88867	4219
2.88933	4223
2.89000	4227
2.89067	4231
2.89133	4235
2.89200	4240
2.89267	4244
2.89333	4249
2.89400	4254
2.89467	4259
2.89533	4264
2.89600	4269
2.89667	4274
2.89733	4280
2.89800	4285
2.89867	4290
2.89933	4296
2.90000	4302
2.90067	4307
2.90133	4313
2.90200	4318
2.90267	4324
2.90333	4330
2.90400	4335
2.90467	4340
2.90533	4346
2.90600	4351
2.90667	4356
2.90733	4361
2.90800	4366
2.90867	4370
2.90933	4375
2.91000	4379
2.91067	4383
2.91133	4386
2.91200	4390
2.91267	4393
2.91333	4396
2.91400	4399
2.91467	4401
2.91533	4403
2.91600	4405
2.91667	4406
2.91733	4407
2.91800	4408
2.91867	4409
2.91933	4409
2.92000	4408
2.92067	4408
2.92133	4407
2.92200	4406
2.92267	4404
2.92333	4402
2.92400	4400
2.92467	4397
2.92533	4394
2.92600	4391
2.92667	4387
2.92733	4383
2.92800	4379
2.92867	4375
2.92933	4370
2.93000	4365
2.93067	4360
2.93133	4354
2.93200	4349
2.93267	4343
2.93333	4336
2.93400	4330
2.93467	4323
2.93533	4317
2.93600	4310
2.93667	4303
2.93733	4295
2.93800	4288
2.93867	4280
2.93933	4273
2.94000	4265
2.94067	4257
2.94133	4250
2.94200	4242
2.94267	4234
2.94333	4225
2.94400	4217
2.94467	4209
2.94533	4201
2.94600	4193
2.94667	4185
2.94733	4176
2.94800	4168
2.94867	4160
2.94933	4152
2.95000	4144
2.95067	4136
2.95133	4128
2.95200	4120
2.95267	4112
2.95333	4104
2.95400	4096
2.95467	4088
2.95533	4080
2.95600	4073
2.95667	4065
2.95733	4058
2.95800	4050
2.95867	4043
2.95933	4036
2.96000	4029
2.96067	4022
2.96133	4015
2.96200	4008
2.96267	4001
2.96333	3994
2.96400	3988
2.96467	3981
2.96533	3975
2.96600	3969
2.96667	3962
2.96733	3956
2.96800	3950
2.96867	3944
2.96933	3939
2.97000	3933
2.97067	3927
2.97133	3922
2.97200	3916
2.97267	3911
2.97333	3906
2.97400	3901
2.97467	3896
2.97533	3891
2.97600	3886
2.97667	3881
2.97733	3877
2.97800	3872
2.97867	3867
2.97933	3863
2.98000	3858
2.98067	3854
2.98133	3850
2.98200	3846
2.98267	3841
2.98333	3837
2.98400	3833
2.98467	3829
2.98533	3825
2.98600	3821
2.98667	3818
2.98733	3814
2.98800	3810
2.98867	3807
2.98933	3803
2.99000	3800
2.99067	3796
2.99133	3793
2.99200	3789
2.99267	3786
2.99333	3783
2.99400	3780
2.99467	3776
2.99533	3773
2.99600	3770
2.99667	3767
2.99733	3764
2.99800	3761
2.99867	3758
2.99933	3755
3.00000	3752
3.00067	3749
3.00133	3747
3.00200	3744
3.00267	3741
3.00333	3739
3.00400	3736
3.00467	3733
3.00533	3731
3.00600	3728
3.00667	3726
3.00733	3723
3.00800	3721
3.00867	3718
3.00933	3716
3.01000	3713
3.01067	3711
3.01133	3708
3.01200	3706
3.01267	3704
3.01333	3701
3.01400	3699
3.01467	3697
3.01533	3694
3.01600	3692
3.01667	3690
3.01733	3688
3.01800	3686
3.01867	3684
3.01933	3682
3.02000	3680
3.02067	3678
3.02133	3676
3.02200	3674
3.02267	3672
3.02333	3670
3.02400	3668
3.02467	3666
3.02533	3664
3.02600	3663
3.02667	3661
3.02733	3659
3.02800	3658
3.02867	3656
3.02933	3654
3.03000	3653
3.03067	3651
3.03133	3650
3.03200	3648
3.03267	3647
3.03333	3645
3.03400	3644
3.03467	3642
3.03533	3641
3.03600	3639
3.03667	3638
3.03733	3636
3.03800	3635
3.03867	3634
3.03933	3632
3.04000	3631
3.04067	3630
3.04133	3629
3.04200	3627
3.04267	3626
3.04333	3625
3.04400	3624
3.04467	3622
3.04533	3621
3.04600	3620
3.04667	3619
3.04733	3618
3.04800	3617
3.04867	3616
3.04933	3615
3.05000	3614
3.05067	3613
3.05133	3612
3.05200	3612
3.05267	3611
3.05333	3610
3.05400	3609
3.05467	3609
3.05533	3608
3.05600	3607
3.05667	3607
3.05733	3606
3.05800	3606
3.05867	3605
3.05933	3605
3.06000	3604
3.06067	3604
3.06133	3604
3.06200	3603
3.06267	3603
3.06333	3603
3.06400	3603
3.06467	3603
3.06533	3602
3.06600	3602
3.06667	3602
3.06733	3602
3.06800	3603
3.06867	3603
3.06933	3603
3.07000	3603
3.07067	3603
3.07133	3603
3.07200	3604
3.07267	3604
3.07333	3604
3.07400	3605
3.07467	3605
3.07533	3606
3.07600	3606
3.07667	3607
3.07733	3607
3.07800	3607
3.07867	3608
3.07933	3608
3.08000	3609
3.08067	3609
3.08133	3610
3.08200	3610
3.08267	3610
3.08333	3611
3.08400	3611
3.08467	3611
3.08533	3611
3.08600	3612
3.08667	3612
3.08733	3612
3.08800	3612
3.08867	3612
3.08933	3612
3.09000	3613
3.09067	3613
3.09133	3613
3.09200	3613
3.09267	3613
3.09333	3613
3.09400	3612
3.09467	3612
3.09533	3612
3.09600	3612
3.09667	3611
3.09733	3611
3.09800	3610
3.09867	3610
3.09933	3609
3.10000	3609
3.10067	3608
3.10133	3607
3.10200	3607
3.10267	3606
3.10333	3605
3.10400	3604
3.10467	3603
3.10533	3602
3.10600	3601
3.10667	3600
3.10733	3599
3.10800	3598
3.10867	3597
3.10933	3595
3.11000	3594
3.11067	3593
3.11133	3592
3.11200	3590
3.11267	3589
3.11333	3588
3.11400	3586
3.11467	3585
3.11533	3583
3.11600	3582
3.11667	3581
3.11733	3579
3.11800	3577
3.11867	3576
3.11933	3574
3.12000	3573
3.12067	3571
3.12133	3570
3.12200	3568
3.12267	3566
3.12333	3565
3.12400	3563
3.12467	3561
3.12533	3560
3.12600	3558
3.12667	3556
3.12733	3554
3.12800	3553
3.12867	3551
3.12933	3549
3.13000	3547
3.13067	3546
3.13133	3544
3.13200	3542
3.13267	3541
3.13333	3539
3.13400	3537
3.13467	3535
3.13533	3534
3.13600	3532
3.13667	3531
3.13733	3529
3.13800	3527
3.13867	3526
3.13933	3524
3.14000	3523
3.14067	3521
3.14133	3520
3.14200	3518
3.14267	3517
3.14333	3516
3.14400	3514
3.14467	3513
3.14533	3512
3.14600	3510
3.14667	3509
3.14733	3508
3.14800	3506
3.14867	3505
3.14933	3504
3.15000	3503
3.15067	3501
3.15133	3500
3.15200	3499
3.15267	3498
3.15333	3496
3.15400	3495
3.15467	3494
3.15533	3493
3.15600	3492
3.15667	3490
3.15733	3489
3.15800	3488
3.15867	3487
3.15933	3486
3.16000	3484
3.16067	3483
3.16133	3482
3.16200	3481
3.16267	3480
3.16333	3479
3.16400	3478
3.16467	3477
3.16533	3476
3.16600	3475
3.16667	3473
3.16733	3472
3.16800	3471
3.16867	3470
3.16933	3469
3.17000	3468
3.17067	3467
3.17133	3466
3.17200	3466
3.17267	3465
3.17333	3464
3.17400	3463
3.17467	3462
3.17533	3461
3.17600	3460
3.17667	3459
3.17733	3458
3.17800	3457
3.17867	3456
3.17933	3455
3.18000	3455
3.18067	3454
3.18133	3453
3.18200	3452
3.18267	3451
3.18333	3450
3.18400	3449
3.18467	3448
3.18533	3447
3.18600	3446
3.18667	3445
3.18733	3445
3.18800	3444
3.18867	3443
3.18933	3442
3.19000	3441
3.19067	3440
3.19133	3439
3.19200	3438
3.19267	3437
3.19333	3436
3.19400	3435
3.19467	3434
3.19533	3434
3.19600	3433
3.19667	3432
3.19733	3431
3.19800	3430
3.19867	3429
3.19933	3428
3.20000	3427
3.20067	3426
3.20133	3426
3.20200	3425
3.20267	3424
3.20333	3423
3.20400	3422
3.20467	3421
3.20533	3420
3.20600	3420
3.20667	3419
3.20733	3418
3.20800	3417
3.20867	3416
3.20933	3415
3.21000	3415
3.21067	3414
3.21133	3413
3.21200	3412
3.21267	3411
3.21333	3411
3.21400	3410
3.21467	3409
3.21533	3408
3.21600	3408
3.21667	3407
3.21733	3406
3.21800	3405
3.21867	3405
3.21933	3404
3.22000	3403
3.22067	3403
3.22133	3402
3.22200	3402
3.22267	3401
3.22333	3401
3.22400	3400
3.22467	3400
3.22533	3399
3.22600	3399
3.22667	3398
3.22733	3398
3.22800	3397
3.22867	3397
3.22933	3396
3.23000	3396
3.23067	3395
3.23133	3395
3.23200	3395
3.23267	3394
3.23333	3393
3.23400	3393
3.23467	3392
3.23533	3392
3.23600	3392
3.23667	3391
3.23733	3391
3.23800	3390
3.23867	3390
3.23933	3389
3.24000	3389
3.24067	3388
3.24133	3388
3.24200	3387
3.24267	3387
3.24333	3387
3.24400	3386
3.24467	3386
3.24533	3385
3.24600	3385
3.24667	3384
3.24733	3384
3.24800	3384
3.24867	3383
3.24933	3383
3.25000	3383
3.25067	3382
3.25133	3382
3.25200	3381
3.25267	3381
3.25333	3381
3.25400	3380
3.25467	3380
3.25533	3380
3.25600	3379
3.25667	3379
3.25733	3379
3.25800	3378
3.25867	3378
3.25933	3377
3.26000	3377
3.26067	3377
3.26133	3376
3.26200	3376
3.26267	3376
3.26333	3375
3.26400	3375
3.26467	3375
3.26533	3375
3.26600	3374
3.26667	3374
3.26733	3374
3.26800	3374
3.26867	3373
3.26933	3373
3.27000	3373
3.27067	3373
3.27133	3373
3.27200	3373
3.27267	3372
3.27333	3372
3.27400	3372
3.27467	3372
3.27533	3372
3.27600	3372
3.27667	3372
3.27733	3372
3.27800	3372
3.27867	3372
3.27933	3372
3.28000	3372
3.28067	3372
3.28133	3372
3.28200	3372
3.28267	3372
3.28333	3372
3.28400	3372
3.28467	3372
3.28533	3372
3.28600	3372
3.28667	3372
3.28733	3372
3.28800	3371
3.28867	3371
3.28933	3371
3.29000	3371
3.29067	3371
3.29133	3371
3.29200	3371
3.29267	3371
3.29333	3371
3.29400	3371
3.29467	3371
3.29533	3371
3.29600	3370
3.29667	3370
3.29733	3370
3.29800	3370
3.29867	3370
3.29933	3370
3.30000	3370
3.30067	3370
3.30133	3370
3.30200	3370
3.30267	3370
3.30333	3370
3.30400	3370
3.30467	3370
3.30533	3370
3.30600	3370
3.30667	3370
3.30733	3370
3.30800	3370
3.30867	3370
3.30933	3370
3.31000	3370
3.31067	3370
3.31133	3370
3.31200	3370
3.31267	3369
3.31333	3369
3.31400	3369
3.31467	3369
3.31533	3368
3.31600	3368
3.31667	3368
3.31733	3368
3.31800	3367
3.31867	3367
3.31933	3367
3.32000	3366
3.32067	3366
3.32133	3366
3.32200	3365
3.32267	3365
3.32333	3365
3.32400	3364
3.32467	3364
3.32533	3363
3.32600	3363
3.32667	3362
3.32733	3362
3.32800	3362
3.32867	3361
3.32933	3361
3.33000	3360
3.33067	3360
3.33133	3359
3.33200	3359
3.33267	3359
3.33333	3358
3.33400	3358
3.33467	3357
3.33533	3357
3.33600	3356
3.33667	3356
3.33733	3356
3.33800	3355
3.33867	3355
3.33933	3354
3.34000	3354
3.34067	3354
3.34133	3353
3.34200	3353
3.34267	3353
3.34333	3352
3.34400	3352
3.34467	3352
3.34533	3351
3.34600	3351
3.34667	3350
3.34733	3350
3.34800	3350
3.34867	3349
3.34933	3349
3.35000	3349
3.35067	3348
3.35133	3348
3.35200	3348
3.35267	3347
3.35333	3347
3.35400	3347
3.35467	3346
3.35533	3346
3.35600	3346
3.35667	3345
3.35733	3345
3.35800	3345
3.35867	3344
3.35933	3344
3.36000	3344
3.36067	3343
3.36133	3343
3.36200	3343
3.36267	3343
3.36333	3342
3.36400	3342
3.36467	3342
3.36533	3342
3.36600	3342
3.36667	3341
3.36733	3341
3.36800	3341
3.36867	3341
3.36933	3340
3.37000	3340
3.37067	3340
3.37133	3340
3.37200	3340
3.37267	3340
3.37333	3339
3.37400	3339
3.37467	3339
3.37533	3339
3.37600	3339
3.37667	3339
3.37733	3339
3.37800	3339
3.37867	3339
3.37933	3339
3.38000	3339
3.38067	3339
3.38133	3339
3.38200	3339
3.38267	3339
3.38333	3339
3.38400	3339
3.38467	3339
3.38533	3339
3.38600	3339
3.38667	3339
3.38733	3339
3.38800	3339
3.38867	3339
3.38933	3339
3.39000	3339
3.39067	3340
3.39133	3340
3.39200	3340
3.39267	3340
3.39333	3340
3.39400	3341
3.39467	3341
3.39533	3341
3.39600	3341
3.39667	3342
3.39733	3342
3.39800	3342
3.39867	3343
3.39933	3343
3.40000	3344
3.40067	3344
3.40133	3344
3.40200	3345
3.40267	3345
3.40333	3346
3.40400	3347
3.40467	3347
3.40533	3348
3.40600	3348
3.40667	3349
3.40733	3350
3.40800	3350
3.40867	3351
3.40933	3352
3.41000	3352
3.41067	3353
3.41133	3353
3.41200	3354
3.41267	3355
3.41333	3355
3.41400	3356
3.41467	3357
3.41533	3357
3.41600	3358
3.41667	3359
3.41733	3359
3.41800	3360
3.41867	3361
3.41933	3361
3.42000	3362
3.42067	3363
3.42133	3364
3.42200	3365
3.42267	3366
3.42333	3367
3.42400	3367
3.42467	3368
3.42533	3369
3.42600	3370
3.42667	3371
3.42733	3372
3.42800	3373
3.42867	3374
3.42933	3375
3.43000	3376
3.43067	3378
3.43133	3379
3.43200	3380
3.43267	3381
3.43333	3382
3.43400	3384
3.43467	3385
3.43533	3386
3.43600	3388
3.43667	3389
3.43733	3390
3.43800	3392
3.43867	3393
3.43933	3395
3.44000	3396
3.44067	3398
3.44133	3399
3.44200	3401
3.44267	3403
3.44333	3404
3.44400	3406
3.44467	3408
3.44533	3410
3.44600	3411
3.44667	3413
3.44733	3415
3.44800	3417
3.44867	3419
3.44933	3421
3.45000	3423
3.45067	3425
3.45133	3427
3.45200	3430
3.45267	3432
3.45333	3434
3.45400	3437
3.45467	3439
3.45533	3441
3.45600	3444
3.45667	3446
3.45733	3449
3.45800	3451
3.45867	3454
3.45933	3456
3.46000	3459
3.46067	3462
3.46133	3464
3.46200	3467
3.46267	3470
3.46333	3472
3.46400	3475
3.46467	3478
3.46533	3481
3.46600	3484
3.46667	3487
3.46733	3490
3.46800	3493
3.46867	3496
3.46933	3499
3.47000	3502
3.47067	3505
3.47133	3508
3.47200	3511
3.47267	3514
3.47333	3517
3.47400	3521
3.47467	3524
3.47533	3527
3.47600	3531
3.47667	3534
3.47733	3538
3.47800	3541
3.47867	3545
3.47933	3549
3.48000	3552
3.48067	3556
3.48133	3560
3.48200	3564
3.48267	3568
3.48333	3572
3.48400	3576
3.48467	3580
3.48533	3584
3.48600	3588
3.48667	3593
3.48733	3597
3.48800	3602
3.48867	3606
3.48933	3611
3.49000	3616
3.49067	3621
3.49133	3626
3.49200	3632
3.49267	3637
3.49333	3643
3.49400	3649
3.49467	3655
3.49533	3661
3.49600	3668
3.49667	3675
3.49733	3682
3.49800	3689
3.49867	3697
3.49933	3705
3.50000	3713
3.50067	3721
3.50133	3730
3.50200	3740
3.50267	3749
3.50333	3759
3.50400	3770
3.50467	3781
3.50533	3792
3.50600	3803
3.50667	3816
3.50733	3828
3.50800	3842
3.50867	3855
3.50933	3870
3.51000	3885
3.51067	3900
3.51133	3916
3.51200	3933
3.51267	3951
3.51333	3969
3.51400	3988
3.51467	4008
3.51533	4028
3.51600	4050
3.51667	4072
3.51733	4095
3.51800	4118
3.51867	4143
3.51933	4168
3.52000	4194
3.52067	4221
3.52133	4249
3.52200	4277
3.52267	4307
3.52333	4337
3.52400	4368
3.52467	4400
3.52533	4433
3.52600	4467
3.52667	4501
3.52733	4537
3.52800	4573
3.52867	4610
3.52933	4648
3.53000	4687
3.53067	4726
3.53133	4767
3.53200	4808
3.53267	4850
3.53333	4893
3.53400	4936
3.53467	4981
3.53533	5026
3.53600	5071
3.53667	5117
3.53733	5164
3.53800	5212
3.53867	5260
3.53933	5308
3.54000	5357
3.54067	5407
3.54133	5457
3.54200	5507
3.54267	5558
3.54333	5609
3.54400	5661
3.54467	5712
3.54533	5764
3.54600	5816
3.54667	5868
3.54733	5920
3.54800	5972
3.54867	6025
3.54933	6076
3.55000	6128
3.55067	6180
3.55133	6231
3.55200	6282
3.55267	6332
3.55333	6382
3.55400	6432
3.55467	6481
3.55533	6529
3.55600	6576
3.55667	6623
3.55733	6670
3.55800	6715
3.55867	6760
3.55933	6803
3.56000	6846
3.56067	6888
3.56133	6929
3.56200	6969
3.56267	7008
3.56333	7047
3.56400	7084
3.56467	7119
3.56533	7154
3.56600	7188
3.56667	7221
3.56733	7252
3.56800	7282
3.56867	7311
3.56933	7339
3.57000	7366
3.57067	7391
3.57133	7415
3.57200	7438
3.57267	7460
3.57333	7480
3.57400	7499
3.57467	7517
3.57533	7534
3.57600	7550
3.57667	7564
3.57733	7578
3.57800	7590
3.57867	7601
3.57933	7611
3.58000	7619
3.58067	7627
3.58133	7634
3.58200	7639
3.58267	7643
3.58333	7647
3.58400	7649
3.58467	7650
3.58533	7650
3.58600	7649
3.58667	7647
3.58733	7644
3.58800	7640
3.58867	7635
3.58933	7629
3.59000	7622
3.59067	7615
3.59133	7606
3.59200	7597
3.59267	7587
3.59333	7576
3.59400	7564
3.59467	7552
3.59533	7539
3.59600	7525
3.59667	7510
3.59733	7495
3.59800	7479
3.59867	7462
3.59933	7445
3.60000	7428
3.60067	7410
3.60133	7391
3.60200	7373
3.60267	7353
3.60333	7334
3.60400	7314
3.60467	7293
3.60533	7272
3.60600	7251
3.60667	7230
3.60733	7209
3.60800	7187
3.60867	7165
3.60933	7142
3.61000	7119
3.61067	7096
3.61133	7073
3.61200	7050
3.61267	7026
3.61333	7002
3.61400	6978
3.61467	6954
3.61533	6930
3.61600	6905
3.61667	6880
3.61733	6855
3.61800	6830
3.61867	6805
3.61933	6780
3.62000	6755
3.62067	6729
3.62133	6704
3.62200	6678
3.62267	6652
3.62333	6626
3.62400	6600
3.62467	6573
3.62533	6547
3.62600	6521
3.62667	6494
3.62733	6467
3.62800	6441
3.62867	6414
3.62933	6387
3.63000	6360
3.63067	6333
3.63133	6306
3.63200	6279
3.63267	6251
3.63333	6224
3.63400	6197
3.63467	6170
3.63533	6142
3.63600	6115
3.63667	6088
3.63733	6060
3.63800	6033
3.63867	6006
3.63933	5978
3.64000	5951
3.64067	5924
3.64133	5896
3.64200	5869
3.64267	5842
3.64333	5815
3.64400	5788
3.64467	5761
3.64533	5734
3.64600	5707
3.64667	5680
3.64733	5653
3.64800	5626
3.64867	5600
3.64933	5573
3.65000	5547
3.65067	5521
3.65133	5495
3.65200	5469
3.65267	5443
3.65333	5417
3.65400	5392
3.65467	5366
3.65533	5341
3.65600	5316
3.65667	5291
3.65733	5266
3.65800	5241
3.65867	5217
3.65933	5192
3.66000	5168
3.66067	5144
3.66133	5120
3.66200	5097
3.66267	5073
3.66333	5050
3.66400	5027
3.66467	5004
3.66533	4982
3.66600	4959
3.66667	4937
3.66733	4915
3.66800	4893
3.66867	4872
3.66933	4850
3.67000	4829
3.67067	4808
3.67133	4788
3.67200	4767
3.67267	4747
3.67333	4727
3.67400	4707
3.67467	4688
3.67533	4668
3.67600	4649
3.67667	4630
3.67733	4612
3.67800	4593
3.67867	4575
3.67933	4557
3.68000	4540
3.68067	4522
3.68133	4505
3.68200	4488
3.68267	4471
3.68333	4455
3.68400	4438
3.68467	4422
3.68533	4407
3.68600	4391
3.68667	4375
3.68733	4360
3.68800	4345
3.68867	4331
3.68933	4316
3.69000	4302
3.69067	4287
3.69133	4274
3.69200	4260
3.69267	4246
3.69333	4233
3.69400	4220
3.69467	4207
3.69533	4194
3.69600	4181
3.69667	4169
3.69733	4157
3.69800	4144
3.69867	4133
3.69933	4121
3.70000	4109
3.70067	4098
3.70133	4086
3.70200	4075
3.70267	4064
3.70333	4054
3.70400	4043
3.70467	4033
3.70533	4022
3.70600	4012
3.70667	4002
3.70733	3992
3.70800	3982
3.70867	3973
3.70933	3963
3.71000	3954
3.71067	3945
3.71133	3936
3.71200	3927
3.71267	3918
3.71333	3910
3.71400	3901
3.71467	3893
3.71533	3885
3.71600	3877
3.71667	3869
3.71733	3861
3.71800	3854
3.71867	3846
3.71933	3839
3.72000	3832
3.72067	3824
3.72133	3817
3.72200	3810
3.72267	3804
3.72333	3797
3.72400	3790
3.72467	3784
3.72533	3777
3.72600	3771
3.72667	3765
3.72733	3759
3.72800	3753
3.72867	3747
3.72933	3741
3.73000	3735
3.73067	3729
3.73133	3724
3.73200	3718
3.73267	3712
3.73333	3707
3.73400	3702
3.73467	3696
3.73533	3691
3.73600	3686
3.73667	3681
3.73733	3676
3.73800	3671
3.73867	3666
3.73933	3661
3.74000	3656
3.74067	3652
3.74133	3647
3.74200	3642
3.74267	3638
3.74333	3633
3.74400	3628
3.74467	3624
3.74533	3620
3.74600	3615
3.74667	3611
3.74733	3607
3.74800	3602
3.74867	3598
3.74933	3594
3.75000	3590
3.75067	3586
3.75133	3582
3.75200	3578
3.75267	3574
3.75333	3570
3.75400	3566
3.75467	3562
3.75533	3558
3.75600	3554
3.75667	3550
3.75733	3546
3.75800	3542
3.75867	3539
3.75933	3535
3.76000	3531
3.76067	3528
3.76133	3524
3.76200	3521
3.76267	3517
3.76333	3514
3.76400	3510
3.76467	3507
3.76533	3504
3.76600	3501
3.76667	3497
3.76733	3494
3.76800	3491
3.76867	3488
3.76933	3485
3.77000	3482
3.77067	3479
3.77133	3476
3.77200	3473
3.77267	3470
3.77333	3467
3.77400	3464
3.77467	3461
3.77533	3459
3.77600	3456
3.77667	3453
3.77733	3450
3.77800	3448
3.77867	3445
3.77933	3443
3.78000	3440
3.78067	3437
3.78133	3435
3.78200	3432
3.78267	3430
3.78333	3427
3.78400	3425
3.78467	3422
3.78533	3420
3.78600	3418
3.78667	3415
3.78733	3413
3.78800	3411
3.78867	3408
3.78933	3406
3.79000	3404
3.79067	3402
3.79133	3399
3.79200	3397
3.79267	3395
3.79333	3393
3.79400	3390
3.79467	3388
3.79533	3386
3.79600	3384
3.79667	3381
3.79733	3379
3.79800	3377
3.79867	3375
3.79933	3373
3.80000	3371
3.80067	3368
3.80133	3366
3.80200	3364
3.80267	3362
3.80333	3360
3.80400	3358
3.80467	3356
3.80533	3354
3.80600	3352
3.80667	3350
3.80733	3348
3.80800	3346
3.80867	3344
3.80933	3342
3.81000	3340
3.81067	3338
3.81133	3336
3.81200	3334
3.81267	3332
3.81333	3330
3.81400	3329
3.81467	3327
3.81533	3325
3.81600	3323
3.81667	3321
3.81733	3320
3.81800	3318
3.81867	3316
3.81933	3314
3.82000	3313
3.82067	3311
3.82133	3309
3.82200	3307
3.82267	3305
3.82333	3304
3.82400	3302
3.82467	3300
3.82533	3298
3.82600	3296
3.82667	3294
3.82733	3293
3.82800	3291
3.82867	3289
3.82933	3287
3.83000	3286
3.83067	3284
3.83133	3282
3.83200	3281
3.83267	3279
3.83333	3278
3.83400	3276
3.83467	3274
3.83533	3273
3.83600	3271
3.83667	3270
3.83733	3268
3.83800	3267
3.83867	3265
3.83933	3264
3.84000	3262
3.84067	3261
3.84133	3259
3.84200	3258
3.84267	3256
3.84333	3255
3.84400	3253
3.84467	3251
3.84533	3250
3.84600	3248
3.84667	3247
3.84733	3245
3.84800	3244
3.84867	3242
3.84933	3241
3.85000	3239
3.85067	3238
3.85133	3236
3.85200	3235
3.85267	3233
3.85333	3232
3.85400	3230
3.85467	3229
3.85533	3227
3.85600	3226
3.85667	3224
3.85733	3223
3.85800	3222
3.85867	3220
3.85933	3219
3.86000	3218
3.86067	3216
3.86133	3215
3.86200	3214
3.86267	3212
3.86333	3211
3.86400	3210
3.86467	3209
3.86533	3207
3.86600	3206
3.86667	3205
3.86733	3204
3.86800	3202
3.86867	3201
3.86933	3200
3.87000	3199
3.87067	3198
3.87133	3197
3.87200	3195
3.87267	3194
3.87333	3193
3.87400	3192
3.87467	3191
3.87533	3190
3.87600	3189
3.87667	3188
3.87733	3187
3.87800	3186
3.87867	3184
3.87933	3183
3.88000	3182
3.88067	3181
3.88133	3180
3.88200	3179
3.88267	3178
3.88333	3177
3.88400	3176
3.88467	3175
3.88533	3174
3.88600	3173
3.88667	3172
3.88733	3171
3.88800	3170
3.88867	3170
3.88933	3169
3.89000	3168
3.89067	3167
3.89133	3166
3.89200	3166
3.89267	3165
3.89333	3164
3.89400	3163
3.89467	3162
3.89533	3162
3.89600	3161
3.89667	3160
3.89733	3159
3.89800	3159
3.89867	3158
3.89933	3157
3.90000	3156
3.90067	3156
3.90133	3155
3.90200	3154
3.90267	3154
3.90333	3153
3.90400	3152
3.90467	3152
3.90533	3151
3.90600	3150
3.90667	3150
3.90733	3149
3.90800	3148
3.90867	3147
3.90933	3147
3.91000	3146
3.91067	3145
3.91133	3145
3.91200	3144
3.91267	3143
3.91333	3143
3.91400	3142
3.91467	3141
3.91533	3141
3.91600	3140
3.91667	3139
3.91733	3139
3.91800	3138
3.91867	3137
3.91933	3137
3.92000	3136
3.92067	3135
3.92133	3134
3.92200	3134
3.92267	3133
3.92333	3132
3.92400	3132
3.92467	3131
3.92533	3130
3.92600	3130
3.92667	3129
3.92733	3128
3.92800	3128
3.92867	3127
3.92933	3126
3.93000	3125
3.93067	3125
3.93133	3124
3.93200	3123
3.93267	3123
3.93333	3122
3.93400	3121
3.93467	3120
3.93533	3119
3.93600	3119
3.93667	3118
3.93733	3117
3.93800	3116
3.93867	3115
3.93933	3114
3.94000	3113
3.94067	3113
3.94133	3112
3.94200	3111
3.94267	3110
3.94333	3109
3.94400	3108
3.94467	3108
3.94533	3107
3.94600	3106
3.94667	3105
3.94733	3105
3.94800	3104
3.94867	3103
3.94933	3103
3.95000	3102
3.95067	3101
3.95133	3100
3.95200	3100
3.95267	3099
3.95333	3098
3.95400	3098
3.95467	3097
3.95533	3096
3.95600	3096
3.95667	3095
3.95733	3095
3.95800	3094
3.95867	3093
3.95933	3093
3.96000	3092
3.96067	3092
3.96133	3091
3.96200	3091
3.96267	3090
3.96333	3089
3.96400	3089
3.96467	3088
3.96533	3088
3.96600	3087
3.96667	3087
3.96733	3086
3.96800	3085
3.96867	3085
3.96933	3084
3.97000	3083
3.97067	3083
3.97133	3082
3.97200	3082
3.97267	3081
3.97333	3081
3.97400	3080
3.97467	3080
3.97533	3079
3.97600	3079
3.97667	3078
3.97733	3078
3.97800	3078
3.97867	3077
3.97933	3077
3.98000	3077
3.98067	3076
3.98133	3076
3.98200	3076
3.98267	3076
3.98333	3075
3.98400	3075
3.98467	3075
3.98533	3075
3.98600	3075
3.98667	3075
3.98733	3075
3.98800	3075
3.98867	3075
3.98933	3075
3.99000	3075
3.99067	3076
3.99133	3076
3.99200	3076
3.99267	3076
3.99333	3077
3.99400	3077
3.99467	3077
3.99533	3078
3.99600	3078
3.99667	3079
3.99733	3079
3.99800	3080
3.99867	3080
3.99933	3081
4.00000	3081
4.00067	3082
4.00133	3082
4.00200	3083
4.00267	3084
4.00333	3085
4.00400	3086
4.00467	3086
4.00533	3087
4.00600	3088
4.00667	3089
4.00733	3091
4.00800	3092
4.00867	3093
4.00933	3094
4.01000	3096
4.01067	3097
4.01133	3098
4.01200	3100
4.01267	3101
4.01333	3103
4.01400	3105
4.01467	3106
4.01533	3108
4.01600	3110
4.01667	3112
4.01733	3114
4.01800	3116
4.01867	3118
4.01933	3120
4.02000	3122
4.02067	3124
4.02133	3126
4.02200	3128
4.02267	3131
4.02333	3133
4.02400	3136
4.02467	3138
4.02533	3141
4.02600	3144
4.02667	3146
4.02733	3149
4.02800	3152
4.02867	3155
4.02933	3158
4.03000	3161
4.03067	3164
4.03133	3167
4.03200	3171
4.03267	3174
4.03333	3178
4.03400	3181
4.03467	3185
4.03533	3188
4.03600	3192
4.03667	3196
4.03733	3199
4.03800	3203
4.03867	3207
4.03933	3211
4.04000	3215
4.04067	3219
4.04133	3223
4.04200	3228
4.04267	3232
4.04333	3236
4.04400	3240
4.04467	3245
4.04533	3249
4.04600	3254
4.04667	3258
4.04733	3263
4.04800	3268
4.04867	3272
4.04933	3277
4.05000	3282
4.05067	3287
4.05133	3291
4.05200	3296
4.05267	3301
4.05333	3306
4.05400	3311
4.05467	3316
4.05533	3321
4.05600	3326
4.05667	3331
4.05733	3336
4.05800	3341
4.05867	3346
4.05933	3351
4.06000	3356
4.06067	3360
4.06133	3365
4.06200	3370
4.06267	3375
4.06333	3380
4.06400	3385
4.06467	3390
4.06533	3394
4.06600	3399
4.06667	3404
4.06733	3408
4.06800	3413
4.06867	3418
4.06933	3422
4.07000	3427
4.07067	3431
4.07133	3436
4.07200	3440
4.07267	3444
4.07333	3449
4.07400	3453
4.07467	3457
4.07533	3461
4.07600	3466
4.07667	3470
4.07733	3474
4.07800	3478
4.07867	3482
4.07933	3486
4.08000	3489
4.08067	3493
4.08133	3497
4.08200	3500
4.08267	3504
4.08333	3507
4.08400	3511
4.08467	3514
4.08533	3517
4.08600	3520
4.08667	3524
4.08733	3527
4.08800	3530
4.08867	3533
4.08933	3535
4.09000	3538
4.09067	3541
4.09133	3544
4.09200	3546
4.09267	3549
4.09333	3551
4.09400	3554
4.09467	3556
4.09533	3558
4.09600	3561
4.09667	3563
4.09733	3565
4.09800	3567
4.09867	3569
4.09933	3571
4.10000	3573
4.10067	3574
4.10133	3576
4.10200	3578
4.10267	3579
4.10333	3581
4.10400	3582
4.10467	3583
4.10533	3585
4.10600	3586
4.10667	3587
4.10733	3588
4.10800	3590
4.10867	3591
4.10933	3592
4.11000	3593
4.11067	3594
4.11133	3595
4.11200	3596
4.11267	3597
4.11333	3597
4.11400	3598
4.11467	3599
4.11533	3600
4.11600	3600
4.11667	3601
4.11733	3602
4.11800	3602
4.11867	3603
4.11933	3603
4.12000	3603
4.12067	3604
4.12133	3604
4.12200	3604
4.12267	3605
4.12333	3605
4.12400	3605
4.12467	3605
4.12533	3605
4.12600	3605
4.12667	3606
4.12733	3606
4.12800	3606
4.12867	3606
4.12933	3606
4.13000	3606
4.13067	3606
4.13133	3606
4.13200	3606
4.13267	3606
4.13333	3606
4.13400	3605
4.13467	3605
4.13533	3605
4.13600	3605
4.13667	3605
4.13733	3605
4.13800	3605
4.13867	3605
4.13933	3604
4.14000	3604
4.14067	3604
4.14133	3604
4.14200	3603
4.14267	3603
4.14333	3603
4.14400	3602
4.14467	3602
4.14533	3601
4.14600	3601
4.14667	3600
4.14733	3600
4.14800	3600
4.14867	3599
4.14933	3599
4.15000	3598
4.15067	3597
4.15133	3597
4.15200	3596
4.15267	3596
4.15333	3595
4.15400	3595
4.15467	3594
4.15533	3594
4.15600	3593
4.15667	3593
4.15733	3592
4.15800	3592
4.15867	3591
4.15933	3591
4.16000	3590
4.16067	3589
4.16133	3589
4.16200	3588
4.16267	3588
4.16333	3587
4.16400	3586
4.16467	3586
4.16533	3585
4.16600	3585
4.16667	3584
4.16733	3583
4.16800	3583
4.16867	3582
4.16933	3581
4.17000	3581
4.17067	3581
4.17133	3580
4.17200	3580
4.17267	3580
4.17333	3579
4.17400	3579
4.17467	3579
4.17533	3579
4.17600	3579
4.17667	3579
4.17733	3579
4.17800	3579
4.17867	3579
4.17933	3579
4.18000	3579
4.18067	3580
4.18133	3580
4.18200	3580
4.18267	3580
4.18333	3581
4.18400	3581
4.18467	3581
4.18533	3582
4.18600	3582
4.18667	3583
4.18733	3583
4.18800	3584
4.18867	3585
4.18933	3585
4.19000	3586
4.19067	3587
4.19133	3588
4.19200	3589
4.19267	3590
4.19333	3591
4.19400	3592
4.19467	3593
4.19533	3594
4.19600	3595
4.19667	3597
4.19733	3598
4.19800	3599
4.19867	3601
4.19933	3603
4.20000	3604
4.20067	3606
4.20133	3608
4.20200	3610
4.20267	3613
4.20333	3615
4.20400	3617
4.20467	3620
4.20533	3623
4.20600	3625
4.20667	3628
4.20733	3631
4.20800	3635
4.20867	3638
4.20933	3642
4.21000	3645
4.21067	3649
4.21133	3654
4.21200	3658
4.21267	3662
4.21333	3667
4.21400	3672
4.21467	3677
4.21533	3682
4.21600	3687
4.21667	3693
4.21733	3699
4.21800	3705
4.21867	3711
4.21933	3717
4.22000	3724
4.22067	3731
4.22133	3738
4.22200	3745
4.22267	3753
4.22333	3760
4.22400	3769
4.22467	3777
4.22533	3785
4.22600	3794
4.22667	3803
4.22733	3812
4.22800	3822
4.22867	3832
4.22933	3842
4.23000	3852
4.23067	3863
4.23133	3873
4.23200	3884
4.23267	3896
4.23333	3907
4.23400	3919
4.23467	3932
4.23533	3944
4.23600	3957
4.23667	3970
4.23733	3984
4.23800	3998
4.23867	4012
4.23933	4026
4.24000	4041
4.24067	4056
4.24133	4072
4.24200	4088
4.24267	4104
4.24333	4121
4.24400	4138
4.24467	4155
4.24533	4172
4.24600	4190
4.24667	4209
4.24733	4227
4.24800	4246
4.24867	4265
4.24933	4285
4.25000	4305
4.25067	4325
4.25133	4346
4.25200	4366
4.25267	4388
4.25333	4409
4.25400	4431
4.25467	4453
4.25533	4476
4.25600	4499
4.25667	4522
4.25733	4546
4.25800	4569
4.25867	4594
4.25933	4618
4.26000	4643
4.26067	4668
4.26133	4694
4.26200	4719
4.26267	4745
4.26333	4772
4.26400	4798
4.26467	4825
4.26533	4853
4.26600	4880
4.26667	4908
4.26733	4936
4.26800	4965
4.26867	4993
4.26933	5022
4.27000	5052
4.27067	5081
4.27133	5111
4.27200	5141
4.27267	5171
4.27333	5202
4.27400	5232
4.27467	5263
4.27533	5295
4.27600	5326
4.27667	5358
4.27733	5390
4.27800	5422
4.27867	5454
4.27933	5487
4.28000	5519
4.28067	5552
4.28133	5586
4.28200	5619
4.28267	5653
4.28333	5687
4.28400	5720
4.28467	5755
4.28533	5789
4.28600	5823
4.28667	5858
4.28733	5893
4.28800	5927
4.28867	5962
4.28933	5997
4.29000	6032
4.29067	6068
4.29133	6103
4.29200	6139
4.29267	6174
4.29333	6210
4.29400	6245
4.29467	6281
4.29533	6317
4.29600	6353
4.29667	6388
4.29733	6424
4.29800	6460
4.29867	6496
4.29933	6531
4.30000	6567
4.30067	6602
4.30133	6637
4.30200	6673
4.30267	6707
4.30333	6742
4.30400	6777
4.30467	6811
4.30533	6846
4.30600	6880
4.30667	6914
4.30733	6947
4.30800	6981
4.30867	7014
4.30933	7047
4.31000	7080
4.31067	7112
4.31133	7144
4.31200	7176
4.31267	7208
4.31333	7239
4.31400	7270
4.31467	7301
4.31533	7331
4.31600	7361
4.31667	7390
4.31733	7420
4.31800	7448
4.31867	7476
4.31933	7504
4.32000	7531
4.32067	7558
4.32133	7584
4.32200	7610
4.32267	7635
4.32333	7659
4.32400	7683
4.32467	7706
4.32533	7728
4.32600	7750
4.32667	7771
4.32733	7792
4.32800	7811
4.32867	7830
4.32933	7849
4.33000	7867
4.33067	7884
4.33133	7900
4.33200	7916
4.33267	7931
4.33333	7946
4.33400	7959
4.33467	7972
4.33533	7985
4.33600	7997
4.33667	8008
4.33733	8018
4.33800	8028
4.33867	8037
4.33933	8046
4.34000	8053
4.34067	8061
4.34133	8067
4.34200	8073
4.34267	8079
4.34333	8083
4.34400	8088
4.34467	8091
4.34533	8094
4.34600	8097
4.34667	8099
4.34733	8101
4.34800	8102
4.34867	8103
4.34933	8103
4.35000	8103
4.35067	8103
4.35133	8102
4.35200	8101
4.35267	8099
4.35333	8098
4.35400	8096
4.35467	8094
4.35533	8091
4.35600	8089
4.35667	8086
4.35733	8083
4.35800	8080
4.35867	8078
4.35933	8075
4.36000	8072
4.36067	8069
4.36133	8066
4.36200	8064
4.36267	8062
4.36333	8060
4.36400	8058
4.36467	8056
4.36533	8055
4.36600	8054
4.36667	8054
4.36733	8054
4.36800	8055
4.36867	8056
4.36933	8057
4.37000	8059
4.37067	8062
4.37133	8065
4.37200	8068
4.37267	8073
4.37333	8078
4.37400	8084
4.37467	8090
4.37533	8098
4.37600	8106
4.37667	8115
4.37733	8125
4.37800	8136
4.37867	8148
4.37933	8161
4.38000	8175
4.38067	8190
4.38133	8206
4.38200	8224
4.38267	8242
4.38333	8262
4.38400	8283
4.38467	8305
4.38533	8329
4.38600	8354
4.38667	8380
4.38733	8408
4.38800	8437
4.38867	8467
4.38933	8499
4.39000	8533
4.39067	8568
4.39133	8604
4.39200	8642
4.39267	8681
4.39333	8722
4.39400	8764
4.39467	8807
4.39533	8852
4.39600	8898
4.39667	8946
4.39733	8995
4.39800	9046
4.39867	9098
4.39933	9151
4.40000	9206
4.40067	9262
4.40133	9320
4.40200	9379
4.40267	9439
4.40333	9501
4.40400	9564
4.40467	9629
4.40533	9695
4.40600	9762
4.40667	9830
4.40733	9900
4.40800	9971
4.40867	10042
4.40933	10115
4.41000	10189
4.41067	10263
4.41133	10339
4.41200	10415
4.41267	10493
4.41333	10571
4.41400	10649
4.41467	10729
4.41533	10809
4.41600	10889
4.41667	10970
4.41733	11052
4.41800	11134
4.41867	11217
4.41933	11300
4.42000	11383
4.42067	11467
4.42133	11551
4.42200	11635
4.42267	11720
4.42333	11804
4.42400	11889
4.42467	11973
4.42533	12058
4.42600	12142
4.42667	12226
4.42733	12310
4.42800	12393
4.42867	12476
4.42933	12559
4.43000	12641
4.43067	12723
4.43133	12803
4.43200	12883
4.43267	12963
4.43333	13041
4.43400	13119
4.43467	13195
4.43533	13271
4.43600	13345
4.43667	13418
4.43733	13490
4.43800	13560
4.43867	13629
4.43933	13697
4.44000	13762
4.44067	13827
4.44133	13889
4.44200	13950
4.44267	14009
4.44333	14067
4.44400	14122
4.44467	14176
4.44533	14228
4.44600	14278
4.44667	14325
4.44733	14371
4.44800	14415
4.44867	14457
4.44933	14496
4.45000	14534
4.45067	14569
4.45133	14602
4.45200	14632
4.45267	14661
4.45333	14687
4.45400	14710
4.45467	14732
4.45533	14751
4.45600	14767
4.45667	14782
4.45733	14794
4.45800	14803
4.45867	14810
4.45933	14815
4.46000	14817
4.46067	14817
4.46133	14815
4.46200	14810
4.46267	14802
4.46333	14793
4.46400	14781
4.46467	14767
4.46533	14751
4.46600	14732
4.46667	14711
4.46733	14688
4.46800	14663
4.46867	14636
4.46933	14606
4.47000	14575
4.47067	14541
4.47133	14505
4.47200	14467
4.47267	14427
4.47333	14385
4.47400	14342
4.47467	14296
4.47533	14248
4.47600	14199
4.47667	14147
4.47733	14094
4.47800	14039
4.47867	13982
4.47933	13924
4.48000	13864
4.48067	13802
4.48133	13739
4.48200	13674
4.48267	13608
4.48333	13541
4.48400	13472
4.48467	13401
4.48533	13330
4.48600	13257
4.48667	13183
4.48733	13108
4.48800	13032
4.48867	12955
4.48933	12877
4.49000	12799
4.49067	12719
4.49133	12639
4.49200	12557
4.49267	12476
4.49333	12393
4.49400	12310
4.49467	12227
4.49533	12142
4.49600	12058
4.49667	11973
4.49733	11888
4.49800	11802
4.49867	11717
4.49933	11631
4.50000	11544
4.50067	11458
4.50133	11372
4.50200	11286
4.50267	11200
4.50333	11114
4.50400	11028
4.50467	10942
4.50533	10857
4.50600	10772
4.50667	10687
4.50733	10603
4.50800	10519
4.50867	10436
4.50933	10353
4.51000	10271
4.51067	10189
4.51133	10108
4.51200	10028
4.51267	9949
4.51333	9870
4.51400	9792
4.51467	9715
4.51533	9639
4.51600	9563
4.51667	9489
4.51733	9415
4.51800	9343
4.51867	9272
4.51933	9201
4.52000	9132
4.52067	9064
4.52133	8997
4.52200	8931
4.52267	8867
4.52333	8803
4.52400	8741
4.52467	8680
4.52533	8620
4.52600	8562
4.52667	8505
4.52733	8449
4.52800	8394
4.52867	8341
4.52933	8289
4.53000	8239
4.53067	8190
4.53133	8142
4.53200	8096
4.53267	8051
4.53333	8008
4.53400	7966
4.53467	7926
4.53533	7887
4.53600	7849
4.53667	7813
4.53733	7779
4.53800	7746
4.53867	7714
4.53933	7684
4.54000	7656
4.54067	7629
4.54133	7603
4.54200	7579
4.54267	7557
4.54333	7536
4.54400	7516
4.54467	7498
4.54533	7482
4.54600	7467
4.54667	7453
4.54733	7441
4.54800	7431
4.54867	7422
4.54933	7414
4.55000	7408
4.55067	7404
4.55133	7400
4.55200	7399
4.55267	7398
4.55333	7400
4.55400	7402
4.55467	7406
4.55533	7411
4.55600	7418
4.55667	7426
4.55733	7435
4.55800	7446
4.55867	7458
4.55933	7471
4.56000	7486
4.56067	7501
4.56133	7518
4.56200	7537
4.56267	7556
4.56333	7577
4.56400	7599
4.56467	7622
4.56533	7646
4.56600	7671
4.56667	7697
4.56733	7724
4.56800	7753
4.56867	7782
4.56933	7812
4.57000	7843
4.57067	7875
4.57133	7907
4.57200	7941
4.57267	7975
4.57333	8010
4.57400	8045
4.57467	8081
4.57533	8118
4.57600	8156
4.57667	8194
4.57733	8232
4.57800	8271
4.57867	8311
4.57933	8351
4.58000	8391
4.58067	8432
4.58133	8473
4.58200	8514
4.58267	8556
4.58333	8597
4.58400	8640
4.58467	8682
4.58533	8724
4.58600	8767
4.58667	8809
4.58733	8852
4.58800	8895
4.58867	8938
4.58933	8980
4.59000	9023
4.59067	9066
4.59133	9109
4.59200	9151
4.59267	9193
4.59333	9235
4.59400	9277
4.59467	9319
4.59533	9360
4.59600	9401
4.59667	9441
4.59733	9482
4.59800	9522
4.59867	9561
4.59933	9600
4.60000	9639
4.60067	9677
4.60133	9714
4.60200	9751
4.60267	9788
4.60333	9824
4.60400	9859
4.60467	9894
4.60533	9928
4.60600	9962
4.60667	9994
4.60733	10026
4.60800	10058
4.60867	10088
4.60933	10118
4.61000	10147
4.61067	10176
4.61133	10203
4.61200	10230
4.61267	10256
4.61333	10281
4.61400	10305
4.61467	10328
4.61533	10351
4.61600	10372
4.61667	10393
4.61733	10413
4.61800	10432
4.61867	10450
4.61933	10468
4.62000	10484
4.62067	10500
4.62133	10515
4.62200	10529
4.62267	10542
4.62333	10554
4.62400	10566
4.62467	10577
4.62533	10587
4.62600	10596
4.62667	10605
4.62733	10612
4.62800	10619
4.62867	10625
4.62933	10630
4.63000	10635
4.63067	10638
4.63133	10641
4.63200	10643
4.63267	10645
4.63333	10645
4.63400	10645
4.63467	10644
4.63533	10643
4.63600	10640
4.63667	10637
4.63733	10633
4.63800	10629
4.63867	10624
4.63933	10618
4.64000	10611
4.64067	10604
4.64133	10597
4.64200	10588
4.64267	10580
4.64333	10570
4.64400	10560
4.64467	10550
4.64533	10539
4.64600	10528
4.64667	10516
4.64733	10504
4.64800	10491
4.64867	10478
4.64933	10464
4.65000	10450
4.65067	10436
4.65133	10421
4.65200	10406
4.65267	10390
4.65333	10374
4.65400	10358
4.65467	10342
4.65533	10326
4.65600	10309
4.65667	10292
4.65733	10275
4.65800	10257
4.65867	10239
4.65933	10222
4.66000	10204
4.66067	10185
4.66133	10167
4.66200	10148
4.66267	10130
4.66333	10111
4.66400	10092
4.66467	10073
4.66533	10053
4.66600	10034
4.66667	10015
4.66733	9995
4.66800	9975
4.66867	9956
4.66933	9936
4.67000	9916
4.67067	9896
4.67133	9876
4.67200	9856
4.67267	9836
4.67333	9816
4.67400	9795
4.67467	9775
4.67533	9755
4.67600	9735
4.67667	9714
4.67733	9694
4.67800	9673
4.67867	9653
4.67933	9633
4.68000	9612
4.68067	9592
4.68133	9571
4.68200	9551
4.68267	9531
4.68333	9511
4.68400	9491
4.68467	9471
4.68533	9451
4.68600	9431
4.68667	9412
4.68733	9392
4.68800	9372
4.68867	9353
4.68933	9333
4.69000	9314
4.69067	9295
4.69133	9276
4.69200	9257
4.69267	9238
4.69333	9219
4.69400	9201
4.69467	9182
4.69533	9164
4.69600	9146
4.69667	9128
4.69733	9110
4.69800	9093
4.69867	9075
4.69933	9058
4.70000	9040
4.70067	9023
4.70133	9006
4.70200	8989
4.70267	8972
4.70333	8955
4.70400	8938
4.70467	8922
4.70533	8905
4.70600	8889
4.70667	8873
4.70733	8857
4.70800	8840
4.70867	8824
4.70933	8809
4.71000	8793
4.71067	8777
4.71133	8761
4.71200	8746
4.71267	8730
4.71333	8715
4.71400	8700
4.71467	8684
4.71533	8669
4.71600	8654
4.71667	8639
4.71733	8624
4.71800	8609
4.71867	8595
4.71933	8580
4.72000	8566
4.72067	8551
4.72133	8537
4.72200	8523
4.72267	8508
4.72333	8494
4.72400	8480
4.72467	8466
4.72533	8452
4.72600	8439
4.72667	8425
4.72733	8411
4.72800	8398
4.72867	8384
4.72933	8371
4.73000	8357
4.73067	8344
4.73133	8331
4.73200	8318
4.73267	8305
4.73333	8291
4.73400	8279
4.73467	8266
4.73533	8253
4.73600	8240
4.73667	8228
4.73733	8215
4.73800	8203
4.73867	8190
4.73933	8178
4.74000	8166
4.74067	8154
4.74133	8142
4.74200	8130
4.74267	8118
4.74333	8107
4.74400	8095
4.74467	8083
4.74533	8072
4.74600	8060
4.74667	8049
4.74733	8038
4.74800	8027
4.74867	8016
4.74933	8005
4.75000	7994
4.75067	7983
4.75133	7972
4.75200	7961
4.75267	7951
4.75333	7940
4.75400	7930
4.75467	7919
4.75533	7909
4.75600	7899
4.75667	7889
4.75733	7879
4.75800	7869
4.75867	7859
4.75933	7849
4.76000	7839
4.76067	7829
4.76133	7820
4.76200	7810
4.76267	7801
4.76333	7792
4.76400	7782
4.76467	7773
4.76533	7764
4.76600	7755
4.76667	7746
4.76733	7737
4.76800	7728
4.76867	7720
4.76933	7711
4.77000	7702
4.77067	7694
4.77133	7686
4.77200	7678
4.77267	7670
4.77333	7662
4.77400	7654
4.77467	7646
4.77533	7638
4.77600	7631
4.77667	7623
4.77733	7616
4.77800	7609
4.77867	7601
4.77933	7594
4.78000	7587
4.78067	7580
4.78133	7572
4.78200	7565
4.78267	7558
4.78333	7551
4.78400	7544
4.78467	7537
4.78533	7530
4.78600	7523
4.78667	7517
4.78733	7510
4.78800	7503
4.78867	7496
4.78933	7489
4.79000	7483
4.79067	7476
4.79133	7469
4.79200	7463
4.79267	7456
4.79333	7449
4.79400	7443
4.79467	7436
4.79533	7430
4.79600	7423
4.79667	7417
4.79733	7411
4.79800	7404
4.79867	7398
4.79933	7391
4.80000	7385
4.80067	7378
4.80133	7372
4.80200	7365
4.80267	7359
4.80333	7352
4.80400	7345
4.80467	7339
4.80533	7332
4.80600	7326
4.80667	7319
4.80733	7313
4.80800	7306
4.80867	7300
4.80933	7294
4.81000	7287
4.81067	7281
4.81133	7275
4.81200	7268
4.81267	7262
4.81333	7255
4.81400	7249
4.81467	7243
4.81533	7236
4.81600	7230
4.81667	7223
4.81733	7217
4.81800	7210
4.81867	7204
4.81933	7197
4.82000	7191
4.82067	7184
4.82133	7178
4.82200	7171
4.82267	7165
4.82333	7158
4.82400	7152
4.82467	7145
4.82533	7139
4.82600	7132
4.82667	7126
4.82733	7120
4.82800	7113
4.82867	7107
4.82933	7101
4.83000	7095
4.83067	7089
4.83133	7083
4.83200	7077
4.83267	7071
4.83333	7065
4.83400	7059
4.83467	7053
4.83533	7048
4.83600	7042
4.83667	7036
4.83733	7030
4.83800	7025
4.83867	7019
4.83933	7013
4.84000	7008
4.84067	7002
4.84133	6996
4.84200	6991
4.84267	6985
4.84333	6979
4.84400	6974
4.84467	6968
4.84533	6962
4.84600	6957
4.84667	6951
4.84733	6945
4.84800	6940
4.84867	6934
4.84933	6928
4.85000	6923
4.85067	6917
4.85133	6912
4.85200	6906
4.85267	6900
4.85333	6895
4.85400	6889
4.85467	6884
4.85533	6878
4.85600	6872
4.85667	6867
4.85733	6861
4.85800	6856
4.85867	6850
4.85933	6845
4.86000	6839
4.86067	6834
4.86133	6828
4.86200	6823
4.86267	6817
4.86333	6812
4.86400	6806
4.86467	6801
4.86533	6795
4.86600	6790
4.86667	6785
4.86733	6779
4.86800	6774
4.86867	6769
4.86933	6764
4.87000	6759
4.87067	6754
4.87133	6748
4.87200	6743
4.87267	6738
4.87333	6733
4.87400	6728
4.87467	6723
4.87533	6718
4.87600	6713
4.87667	6708
4.87733	6703
4.87800	6698
4.87867	6693
4.87933	6688
4.88000	6683
4.88067	6678
4.88133	6673
4.88200	6668
4.88267	6663
4.88333	6659
4.88400	6654
4.88467	6649
4.88533	6645
4.88600	6640
4.88667	6636
4.88733	6631
4.88800	6627
4.88867	6622
4.88933	6617
4.89000	6613
4.89067	6608
4.89133	6603
4.89200	6599
4.89267	6594
4.89333	6589
4.89400	6585
4.89467	6580
4.89533	6575
4.89600	6571
4.89667	6566
4.89733	6562
4.89800	6557
4.89867	6553
4.89933	6548
4.90000	6543
4.90067	6539
4.90133	6534
4.90200	6530
4.90267	6526
4.90333	6521
4.90400	6517
4.90467	6512
4.90533	6508
4.90600	6504
4.90667	6499
4.90733	6495
4.90800	6490
4.90867	6486
4.90933	6482
4.91000	6478
4.91067	6473
4.91133	6469
4.91200	6465
4.91267	6461
4.91333	6456
4.91400	6452
4.91467	6448
4.91533	6444
4.91600	6440
4.91667	6435
4.91733	6431
4.91800	6427
4.91867	6423
4.91933	6419
4.92000	6415
4.92067	6411
4.92133	6407
4.92200	6403
4.92267	6399
4.92333	6395
4.92400	6391
4.92467	6387
4.92533	6383
4.92600	6379
4.92667	6375
4.92733	6371
4.92800	6367
4.92867	6363
4.92933	6359
4.93000	6355
4.93067	6351
4.93133	6347
4.93200	6343
4.93267	6339
4.93333	6335
4.93400	6331
4.93467	6327
4.93533	6323
4.93600	6319
4.93667	6315
4.93733	6311
4.93800	6307
4.93867	6303
4.93933	6299
4.94000	6295
4.94067	6291
4.94133	6287
4.94200	6284
4.94267	6280
4.94333	6276
4.94400	6272
4.94467	6268
4.94533	6264
4.94600	6261
4.94667	6257
4.94733	6253
4.94800	6250
4.94867	6246
4.94933	6242
4.95000	6239
4.95067	6235
4.95133	6231
4.95200	6228
4.95267	6224
4.95333	6220
4.95400	6216
4.95467	6213
4.95533	6209
4.95600	6205
4.95667	6202
4.95733	6198
4.95800	6194
4.95867	6191
4.95933	6187
4.96000	6183
4.96067	6180
4.96133	6176
4.96200	6173
4.96267	6169
4.96333	6166
4.96400	6162
4.96467	6159
4.96533	6155
4.96600	6152
4.96667	6148
4.96733	6145
4.96800	6141
4.96867	6138
4.96933	6134
4.97000	6131
4.97067	6127
4.97133	6124
4.97200	6121
4.97267	6117
4.97333	6114
4.97400	6111
4.97467	6107
4.97533	6104
4.97600	6101
4.97667	6097
4.97733	6094
4.97800	6091
4.97867	6087
4.97933	6084
4.98000	6081
4.98067	6078
4.98133	6074
4.98200	6071
4.98267	6068
4.98333	6064
4.98400	6061
4.98467	6058
4.98533	6054
4.98600	6051
4.98667	6047
4.98733	6044
4.98800	6040
4.98867	6037
4.98933	6033
4.99000	6030
4.99067	6026
4.99133	6022
4.99200	6019
4.99267	6015
4.99333	6011
4.99400	6008
4.99467	6004
4.99533	6000
4.99600	5997
4.99667	5993
4.99733	5989
4.99800	5986
4.99867	5982
4.99933	5979
5.00000	5975
5.00067	5972
5.00133	5969
5.00200	5965
5.00267	5962
5.00333	5959
5.00400	5956
5.00467	5953
5.00533	5950
5.00600	5946
5.00667	5943
5.00733	5940
5.00800	5937
5.00867	5934
5.00933	5931
5.01000	5928
5.01067	5925
5.01133	5922
5.01200	5919
5.01267	5916
5.01333	5913
5.01400	5910
5.01467	5907
5.01533	5904
5.01600	5901
5.01667	5898
5.01733	5895
5.01800	5892
5.01867	5889
5.01933	5886
5.02000	5883
5.02067	5880
5.02133	5877
5.02200	5875
5.02267	5872
5.02333	5869
5.02400	5866
5.02467	5863
5.02533	5861
5.02600	5858
5.02667	5855
5.02733	5852
5.02800	5850
5.02867	5847
5.02933	5844
5.03000	5842
5.03067	5839
5.03133	5836
5.03200	5834
5.03267	5831
5.03333	5828
5.03400	5826
5.03467	5823
5.03533	5820
5.03600	5818
5.03667	5815
5.03733	5812
5.03800	5809
5.03867	5807
5.03933	5804
5.04000	5802
5.04067	5799
5.04133	5796
5.04200	5794
5.04267	5791
5.04333	5789
5.04400	5786
5.04467	5784
5.04533	5781
5.04600	5779
5.04667	5776
5.04733	5774
5.04800	5771
5.04867	5769
5.04933	5766
5.05000	5764
5.05067	5762
5.05133	5759
5.05200	5757
5.05267	5754
5.05333	5752
5.05400	5749
5.05467	5747
5.05533	5744
5.05600	5742
5.05667	5739
5.05733	5737
5.05800	5734
5.05867	5732
5.05933	5729
5.06000	5726
5.06067	5724
5.06133	5721
5.06200	5719
5.06267	5716
5.06333	5714
5.06400	5711
5.06467	5708
5.06533	5706
5.06600	5703
5.06667	5701
5.06733	5698
5.06800	5696
5.06867	5693
5.06933	5691
5.07000	5688
5.07067	5686
5.07133	5683
5.07200	5681
5.07267	5678
5.07333	5676
5.07400	5673
5.07467	5671
5.07533	5669
5.07600	5666
5.07667	5664
5.07733	5662
5.07800	5659
5.07867	5657
5.07933	5655
5.08000	5653
5.08067	5651
5.08133	5649
5.08200	5647
5.08267	5645
5.08333	5643
5.08400	5641
5.08467	5639
5.08533	5637
5.08600	5635
5.08667	5633
5.08733	5631
5.08800	5629
5.08867	5627
5.08933	5626
5.09000	5624
5.09067	5622
5.09133	5620
5.09200	5618
5.09267	5617
5.09333	5615
5.09400	5613
5.09467	5612
5.09533	5610
5.09600	5608
5.09667	5607
5.09733	5605
5.09800	5604
5.09867	5602
5.09933	5601
5.10000	5599
5.10067	5598
5.10133	5597
5.10200	5595
5.10267	5594
5.10333	5593
5.10400	5592
5.10467	5590
5.10533	5589
5.10600	5588
5.10667	5587
5.10733	5586
5.10800	5586
5.10867	5585
5.10933	5584
5.11000	5584
5.11067	5583
5.11133	5583
5.11200	5583
5.11267	5582
5.11333	5582
5.11400	5582
5.11467	5582
5.11533	5583
5.11600	5583
5.11667	5583
5.11733	5584
5.11800	5584
5.11867	5585
5.11933	5586
5.12000	5587
5.12067	5588
5.12133	5589
5.12200	5590
5.12267	5591
5.12333	5592
5.12400	5594
5.12467	5595
5.12533	5597
5.12600	5599
5.12667	5601
5.12733	5603
5.12800	5605
5.12867	5608
5.12933	5610
5.13000	5613
5.13067	5616
5.13133	5619
5.13200	5622
5.13267	5625
5.13333	5628
5.13400	5632
5.13467	5636
5.13533	5639
5.13600	5643
5.13667	5648
5.13733	5652
5.13800	5657
5.13867	5661
5.13933	5666
5.14000	5671
5.14067	5676
5.14133	5682
5.14200	5687
5.14267	5693
5.14333	5699
5.14400	5706
5.14467	5712
5.14533	5719
5.14600	5726
5.14667	5733
5.14733	5741
5.14800	5749
5.14867	5757
5.14933	5766
5.15000	5774
5.15067	5783
5.15133	5792
5.15200	5802
5.15267	5812
5.15333	5822
5.15400	5832
5.15467	5842
5.15533	5853
5.15600	5864
5.15667	5875
5.15733	5887
5.15800	5899
5.15867	5911
5.15933	5923
5.16000	5936
5.16067	5949
5.16133	5962
5.16200	5975
5.16267	5989
5.16333	6003
5.16400	6017
5.16467	6032
5.16533	6046
5.16600	6062
5.16667	6077
5.16733	6092
5.16800	6108
5.16867	6124
5.16933	6141
5.17000	6157
5.17067	6174
5.17133	6191
5.17200	6209
5.17267	6226
5.17333	6244
5.17400	6262
5.17467	6281
5.17533	6299
5.17600	6318
5.17667	6337
5.17733	6356
5.17800	6376
5.17867	6395
5.17933	6415
5.18000	6435
5.18067	6455
5.18133	6476
5.18200	6496
5.18267	6517
5.18333	6538
5.18400	6559
5.18467	6581
5.18533	6602
5.18600	6624
5.18667	6645
5.18733	6667
5.18800	6689
5.18867	6711
5.18933	6733
5.19000	6755
5.19067	6777
5.19133	6799
5.19200	6821
5.19267	6843
5.19333	6866
5.19400	6888
5.19467	6910
5.19533	6933
5.19600	6955
5.19667	6977
5.19733	7000
5.19800	7022
5.19867	7044
5.19933	7066
5.20000	7089
5.20067	7111
5.20133	7132
5.20200	7154
5.20267	7176
5.20333	7197
5.20400	7219
5.20467	7240
5.20533	7261
5.20600	7281
5.20667	7302
5.20733	7322
5.20800	7342
5.20867	7362
5.20933	7382
5.21000	7401
5.21067	7420
5.21133	7439
5.21200	7458
5.21267	7476
5.21333	7494
5.21400	7512
5.21467	7530
5.21533	7547
5.21600	7564
5.21667	7581
5.21733	7597
5.21800	7613
5.21867	7629
5.21933	7645
5.22000	7660
5.22067	7675
5.22133	7690
5.22200	7704
5.22267	7718
5.22333	7731
5.22400	7744
5.22467	7757
5.22533	7769
5.22600	7781
5.22667	7793
5.22733	7804
5.22800	7815
5.22867	7825
5.22933	7835
5.23000	7844
5.23067	7853
5.23133	7862
5.23200	7870
5.23267	7877
5.23333	7884
5.23400	7891
5.23467	7897
5.23533	7903
5.23600	7909
5.23667	7913
5.23733	7918
5.23800	7922
5.23867	7925
5.23933	7928
5.24000	7931
5.24067	7933
5.24133	7934
5.24200	7936
5.24267	7936
5.24333	7937
5.24400	7937
5.24467	7936
5.24533	7935
5.24600	7934
5.24667	7932
5.24733	7930
5.24800	7927
5.24867	7924
5.24933	7921
5.25000	7917
5.25067	7913
5.25133	7908
5.25200	7904
5.25267	7898
5.25333	7892
5.25400	7886
5.25467	7880
5.25533	7873
5.25600	7866
5.25667	7858
5.25733	7850
5.25800	7842
5.25867	7834
5.25933	7825
5.26000	7816
5.26067	7806
5.26133	7796
5.26200	7786
5.26267	7776
5.26333	7765
5.26400	7754
5.26467	7743
5.26533	7731
5.26600	7719
5.26667	7707
5.26733	7695
5.26800	7682
5.26867	7669
5.26933	7656
5.27000	7643
5.27067	7629
5.27133	7616
5.27200	7602
5.27267	7588
5.27333	7574
5.27400	7560
5.27467	7546
5.27533	7532
5.27600	7517
5.27667	7502
5.27733	7487
5.27800	7472
5.27867	7457
5.27933	7442
5.28000	7427
5.28067	7411
5.28133	7396
5.28200	7380
5.28267	7364
5.28333	7349
5.28400	7333
5.28467	7317
5.28533	7301
5.28600	7285
5.28667	7269
5.28733	7253
5.28800	7237
5.28867	7221
5.28933	7205
5.29000	7189
5.29067	7173
5.29133	7157
5.29200	7141
5.29267	7125
5.29333	7109
5.29400	7093
5.29467	7078
5.29533	7062
5.29600	7046
5.29667	7031
5.29733	7015
5.29800	7000
5.29867	6984
5.29933	6969
5.30000	6953
5.30067	6938
5.30133	6923
5.30200	6908
5.30267	6893
5.30333	6878
5.30400	6863
5.30467	6848
5.30533	6833
5.30600	6818
5.30667	6804
5.30733	6789
5.30800	6775
5.30867	6760
5.30933	6746
5.31000	6732
5.31067	6717
5.31133	6703
5.31200	6689
5.31267	6675
5.31333	6662
5.31400	6648
5.31467	6634
5.31533	6621
5.31600	6608
5.31667	6594
5.31733	6581
5.31800	6568
5.31867	6555
5.31933	6543
5.32000	6530
5.32067	6518
5.32133	6505
5.32200	6493
5.32267	6481
5.32333	6469
5.32400	6457
5.32467	6446
5.32533	6434
5.32600	6423
5.32667	6411
5.32733	6400
5.32800	6389
5.32867	6378
5.32933	6367
5.33000	6356
5.33067	6346
5.33133	6335
5.33200	6324
5.33267	6314
5.33333	6304
5.33400	6293
5.33467	6283
5.33533	6273
5.33600	6263
5.33667	6253
5.33733	6243
5.33800	6233
5.33867	6224
5.33933	6214
5.34000	6205
5.34067	6195
5.34133	6186
5.34200	6177
5.34267	6167
5.34333	6158
5.34400	6149
5.34467	6140
5.34533	6131
5.34600	6123
5.34667	6114
5.34733	6105
5.34800	6096
5.34867	6088
5.34933	6079
5.35000	6071
5.35067	6063
5.35133	6055
5.35200	6046
5.35267	6038
5.35333	6030
5.35400	6022
5.35467	6014
5.35533	6006
5.35600	5999
5.35667	5991
5.35733	5983
5.35800	5976
5.35867	5968
5.35933	5961
5.36000	5953
5.36067	5946
5.36133	5938
5.36200	5931
5.36267	5924
5.36333	5917
5.36400	5910
5.36467	5903
5.36533	5896
5.36600	5890
5.36667	5883
5.36733	5877
5.36800	5870
5.36867	5863
5.36933	5857
5.37000	5851
5.37067	5844
5.37133	5838
5.37200	5832
5.37267	5825
5.37333	5819
5.37400	5813
5.37467	5807
5.37533	5801
5.37600	5795
5.37667	5790
5.37733	5784
5.37800	5778
5.37867	5772
5.37933	5767
5.38000	5761
5.38067	5755
5.38133	5750
5.38200	5744
5.38267	5739
5.38333	5734
5.38400	5728
5.38467	5723
5.38533	5718
5.38600	5713
5.38667	5708
5.38733	5702
5.38800	5697
5.38867	5692
5.38933	5687
5.39000	5682
5.39067	5677
5.39133	5672
5.39200	5668
5.39267	5663
5.39333	5658
5.39400	5653
5.39467	5648
5.39533	5644
5.39600	5639
5.39667	5634
5.39733	5630
5.39800	5625
5.39867	5620
5.39933	5616
5.40000	5611
5.40067	5607
5.40133	5602
5.40200	5598
5.40267	5593
5.40333	5589
5.40400	5584
5.40467	5580
5.40533	5575
5.40600	5571
5.40667	5567
5.40733	5562
5.40800	5558
5.40867	5553
5.40933	5549
5.41000	5545
5.41067	5540
5.41133	5536
5.41200	5532
5.41267	5527
5.41333	5523
5.41400	5519
5.41467	5514
5.41533	5510
5.41600	5506
5.41667	5502
5.41733	5497
5.41800	5493
5.41867	5489
5.41933	5485
5.42000	5480
5.42067	5476
5.42133	5472
5.42200	5468
5.42267	5464
5.42333	5460
5.42400	5455
5.42467	5451
5.42533	5447
5.42600	5443
5.42667	5439
5.42733	5435
5.42800	5430
5.42867	5426
5.42933	5422
5.43000	5418
5.43067	5414
5.43133	5411
5.43200	5407
5.43267	5403
5.43333	5399
5.43400	5395
5.43467	5391
5.43533	5387
5.43600	5384
5.43667	5380
5.43733	5376
5.43800	5372
5.43867	5369
5.43933	5365
5.44000	5361
5.44067	5358
5.44133	5354
5.44200	5350
5.44267	5346
5.44333	5343
5.44400	5339
5.44467	5335
5.44533	5332
5.44600	5328
5.44667	5324
5.44733	5321
5.44800	5317
5.44867	5314
5.44933	5310
5.45000	5307
5.45067	5303
5.45133	5300
5.45200	5296
5.45267	5293
5.45333	5290
5.45400	5286
5.45467	5283
5.45533	5280
5.45600	5276
5.45667	5273
5.45733	5270
5.45800	5267
5.45867	5263
5.45933	5260
5.46000	5257
5.46067	5254
5.46133	5251
5.46200	5248
5.46267	5244
5.46333	5241
5.46400	5238
5.46467	5235
5.46533	5232
5.46600	5229
5.46667	5226
5.46733	5223
5.46800	5220
5.46867	5217
5.46933	5214
5.47000	5211
5.47067	5208
5.47133	5205
5.47200	5202
5.47267	5199
5.47333	5196
5.47400	5193
5.47467	5190
5.47533	5187
5.47600	5184
5.47667	5181
5.47733	5178
5.47800	5175
5.47867	5172
5.47933	5169
5.48000	5166
5.48067	5163
5.48133	5160
5.48200	5156
5.48267	5153
5.48333	5150
5.48400	5147
5.48467	5144
5.48533	5141
5.48600	5138
5.48667	5135
5.48733	5132
5.48800	5129
5.48867	5126
5.48933	5123
5.49000	5120
5.49067	5117
5.49133	5114
5.49200	5111
5.49267	5108
5.49333	5106
5.49400	5103
5.49467	5100
5.49533	5097
5.49600	5094
5.49667	5092
5.49733	5089
5.49800	5086
5.49867	5083
5.49933	5081
5.50000	5078
5.50067	5075
5.50133	5073
5.50200	5070
5.50267	5068
5.50333	5065
5.50400	5062
5.50467	5060
5.50533	5057
5.50600	5055
5.50667	5052
5.50733	5050
5.50800	5047
5.50867	5045
5.50933	5042
5.51000	5040
5.51067	5038
5.51133	5035
5.51200	5033
5.51267	5031
5.51333	5029
5.51400	5026
5.51467	5024
5.51533	5022
5.51600	5020
5.51667	5017
5.51733	5015
5.51800	5013
5.51867	5011
5.51933	5008
5.52000	5006
5.52067	5004
5.52133	5002
5.52200	5000
5.52267	4998
5.52333	4996
5.52400	4994
5.52467	4992
5.52533	4989
5.52600	4987
5.52667	4985
5.52733	4983
5.52800	4981
5.52867	4979
5.52933	4977
5.53000	4975
5.53067	4973
5.53133	4971
5.53200	4969
5.53267	4966
5.53333	4964
5.53400	4962
5.53467	4960
5.53533	4958
5.53600	4956
5.53667	4954
5.53733	4952
5.53800	4950
5.53867	4948
5.53933	4946
5.54000	4944
5.54067	4942
5.54133	4940
5.54200	4938
5.54267	4936
5.54333	4934
5.54400	4932
5.54467	4930
5.54533	4928
5.54600	4926
5.54667	4925
5.54733	4923
5.54800	4921
5.54867	4919
5.54933	4917
5.55000	4916
5.55067	4914
5.55133	4912
5.55200	4911
5.55267	4909
5.55333	4907
5.55400	4905
5.55467	4904
5.55533	4902
5.55600	4900
5.55667	4898
5.55733	4897
5.55800	4895
5.55867	4893
5.55933	4892
5.56000	4890
5.56067	4888
5.56133	4887
5.56200	4885
5.56267	4884
5.56333	4882
5.56400	4881
5.56467	4879
5.56533	4878
5.56600	4877
5.56667	4875
5.56733	4874
5.56800	4872
5.56867	4871
5.56933	4870
5.57000	4869
5.57067	4867
5.57133	4866
5.57200	4865
5.57267	4864
5.57333	4862
5.57400	4861
5.57467	4860
5.57533	4859
5.57600	4858
5.57667	4857
5.57733	4856
5.57800	4855
5.57867	4854
5.57933	4853
5.58000	4852
5.58067	4851
5.58133	4850
5.58200	4849
5.58267	4848
5.58333	4847
5.58400	4846
5.58467	4845
5.58533	4843
5.58600	4842
5.58667	4841
5.58733	4840
5.58800	4839
5.58867	4838
5.58933	4837
5.59000	4836
5.59067	4835
5.59133	4834
5.59200	4833
5.59267	4832
5.59333	4831
5.59400	4830
5.59467	4829
5.59533	4828
5.59600	4827
5.59667	4826
5.59733	4825
5.59800	4824
5.59867	4823
5.59933	4822
5.60000	4821
5.60067	4820
5.60133	4819
5.60200	4818
5.60267	4817
5.60333	4816
5.60400	4816
5.60467	4815
5.60533	4814
5.60600	4813
5.60667	4812
5.60733	4811
5.60800	4810
5.60867	4809
5.60933	4808
5.61000	4807
5.61067	4806
5.61133	4805
5.61200	4804
5.61267	4803
5.61333	4802
5.61400	4801
5.61467	4800
5.61533	4799
5.61600	4798
5.61667	4796
5.61733	4795
5.61800	4794
5.61867	4793
5.61933	4791
5.62000	4790
5.62067	4789
5.62133	4787
5.62200	4786
5.62267	4785
5.62333	4784
5.62400	4782
5.62467	4781
5.62533	4779
5.62600	4778
5.62667	4777
5.62733	4775
5.62800	4774
5.62867	4772
5.62933	4771
5.63000	4770
5.63067	4768
5.63133	4767
5.63200	4765
5.63267	4764
5.63333	4762
5.63400	4761
5.63467	4759
5.63533	4758
5.63600	4757
5.63667	4755
5.63733	4754
5.63800	4752
5.63867	4751
5.63933	4750
5.64000	4748
5.64067	4747
5.64133	4745
5.64200	4744
5.64267	4743
5.64333	4741
5.64400	4740
5.64467	4739
5.64533	4737
5.64600	4736
5.64667	4735
5.64733	4733
5.64800	4732
5.64867	4731
5.64933	4730
5.65000	4729
5.65067	4727
5.65133	4726
5.65200	4725
5.65267	4724
5.65333	4722
5.65400	4721
5.65467	4720
5.65533	4719
5.65600	4717
5.65667	4716
5.65733	4715
5.65800	4714
5.65867	4712
5.65933	4711
5.66000	4710
5.66067	4709
5.66133	4707
5.66200	4706
5.66267	4705
5.66333	4703
5.66400	4702
5.66467	4701
5.66533	4700
5.66600	4698
5.66667	4697
5.66733	4696
5.66800	4695
5.66867	4693
5.66933	4692
5.67000	4691
5.67067	4689
5.67133	4688
5.67200	4687
5.67267	4686
5.67333	4684
5.67400	4683
5.67467	4682
5.67533	4680
5.67600	4679
5.67667	4678
5.67733	4676
5.67800	4675
5.67867	4674
5.67933	4673
5.68000	4671
5.68067	4670
5.68133	4669
5.68200	4667
5.68267	4666
5.68333	4665
5.68400	4664
5.68467	4662
5.68533	4661
5.68600	4660
5.68667	4659
5.68733	4658
5.68800	4657
5.68867	4656
5.68933	4655
5.69000	4654
5.69067	4653
5.69133	4652
5.69200	4651
5.69267	4650
5.69333	4649
5.69400	4648
5.69467	4647
5.69533	4646
5.69600	4645
5.69667	4644
5.69733	4643
5.69800	4642
5.69867	4641
5.69933	4640
5.70000	4639
5.70067	4638
5.70133	4637
5.70200	4635
5.70267	4634
5.70333	4633
5.70400	4632
5.70467	4631
5.70533	4630
5.70600	4629
5.70667	4628
5.70733	4626
5.70800	4625
5.70867	4624
5.70933	4623
5.71000	4622
5.71067	4620
5.71133	4619
5.71200	4618
5.71267	4616
5.71333	4615
5.71400	4614
5.71467	4612
5.71533	4611
5.71600	4610
5.71667	4608
5.71733	4607
5.71800	4606
5.71867	4604
5.71933	4603
5.72000	4602
5.72067	4600
5.72133	4599
5.72200	4598
5.72267	4596
5.72333	4595
5.72400	4594
5.72467	4592
5.72533	4591
5.72600	4590
5.72667	4589
5.72733	4588
5.72800	4586
5.72867	4585
5.72933	4584
5.73000	4583
5.73067	4582
5.73133	4581
5.73200	4580
5.73267	4579
5.73333	4578
5.73400	4577
5.73467	4577
5.73533	4576
5.73600	4575
5.73667	4574
5.73733	4573
5.73800	4572
5.73867	4571
5.73933	4571
5.74000	4570
5.74067	4569
5.74133	4568
5.74200	4567
5.74267	4566
5.74333	4565
5.74400	4565
5.74467	4564
5.74533	4563
5.74600	4562
5.74667	4561
5.74733	4561
5.74800	4560
5.74867	4559
5.74933	4559
5.75000	4558
5.75067	4557
5.75133	4557
5.75200	4556
5.75267	4555
5.75333	4555
5.75400	4554
5.75467	4554
5.75533	4553
5.75600	4553
5.75667	4552
5.75733	4552
5.75800	4552
5.75867	4551
5.75933	4551
5.76000	4551
5.76067	4550
5.76133	4550
5.76200	4550
5.76267	4550
5.76333	4550
5.76400	4549
5.76467	4549
5.76533	4549
5.76600	4549
5.76667	4549
5.76733	4549
5.76800	4548
5.76867	4548
5.76933	4548
5.77000	4548
5.77067	4548
5.77133	4548
5.77200	4548
5.77267	4548
5.77333	4547
5.77400	4547
5.77467	4547
5.77533	4547
5.77600	4547
5.77667	4547
5.77733	4547
5.77800	4547
5.77867	4547
5.77933	4546
5.78000	4546
5.78067	4546
5.78133	4546
5.78200	4546
5.78267	4546
5.78333	4546
5.78400	4546
5.78467	4546
5.78533	4546
5.78600	4546
5.78667	4547
5.78733	4547
5.78800	4547
5.78867	4547
5.78933	4547
5.79000	4547
5.79067	4547
5.79133	4547
5.79200	4547
5.79267	4547
5.79333	4547
5.79400	4548
5.79467	4548
5.79533	4548
5.79600	4548
5.79667	4548
5.79733	4548
5.79800	4548
5.79867	4548
5.79933	4548
5.80000	4548
5.80067	4548
5.80133	4548
5.80200	4548
5.80267	4548
5.80333	4548
5.80400	4548
5.80467	4548
5.80533	4548
5.80600	4548
5.80667	4548
5.80733	4548
5.80800	4548
5.80867	4548
5.80933	4548
5.81000	4548
5.81067	4548
5.81133	4548
5.81200	4548
5.81267	4548
5.81333	4548
5.81400	4548
5.81467	4548
5.81533	4548
5.81600	4549
5.81667	4549
5.81733	4549
5.81800	4549
5.81867	4549
5.81933	4550
5.82000	4550
5.82067	4550
5.82133	4550
5.82200	4550
5.82267	4551
5.82333	4551
5.82400	4551
5.82467	4551
5.82533	4552
5.82600	4552
5.82667	4552
5.82733	4553
5.82800	4553
5.82867	4553
5.82933	4553
5.83000	4554
5.83067	4554
5.83133	4554
5.83200	4555
5.83267	4555
5.83333	4555
5.83400	4555
5.83467	4555
5.83533	4555
5.83600	4555
5.83667	4555
5.83733	4556
5.83800	4556
5.83867	4556
5.83933	4556
5.84000	4556
5.84067	4556
5.84133	4556
5.84200	4556
5.84267	4556
5.84333	4556
5.84400	4556
5.84467	4555
5.84533	4555
5.84600	4555
5.84667	4555
5.84733	4555
5.84800	4555
5.84867	4555
5.84933	4555
5.85000	4554
5.85067	4554
5.85133	4554
5.85200	4554
5.85267	4553
5.85333	4553
5.85400	4553
5.85467	4552
5.85533	4552
5.85600	4551
5.85667	4551
5.85733	4550
5.85800	4550
5.85867	4549
5.85933	4549
5.86000	4548
5.86067	4548
5.86133	4547
5.86200	4547
5.86267	4546
5.86333	4546
5.86400	4545
5.86467	4545
5.86533	4544
5.86600	4544
5.86667	4543
5.86733	4543
5.86800	4542
5.86867	4542
5.86933	4541
5.87000	4541
5.87067	4540
5.87133	4540
5.87200	4539
5.87267	4538
5.87333	4538
5.87400	4537
5.87467	4537
5.87533	4536
5.87600	4535
5.87667	4535
5.87733	4534
5.87800	4533
5.87867	4533
5.87933	4532
5.88000	4531
5.88067	4530
5.88133	4530
5.88200	4529
5.88267	4528
5.88333	4527
5.88400	4527
5.88467	4526
5.88533	4525
5.88600	4524
5.88667	4523
5.88733	4523
5.88800	4522
5.88867	4521
5.88933	4520
5.89000	4519
5.89067	4518
5.89133	4518
5.89200	4517
5.89267	4516
5.89333	4515
5.89400	4514
5.89467	4513
5.89533	4512
5.89600	4511
5.89667	4510
5.89733	4509
5.89800	4508
5.89867	4507
5.89933	4506
5.90000	4505
5.90067	4504
5.90133	4503
5.90200	4503
5.90267	4502
5.90333	4501
5.90400	4500
5.90467	4499
5.90533	4498
5.90600	4497
5.90667	4496
5.90733	4495
5.90800	4494
5.90867	4493
5.90933	4492
5.91000	4491
5.91067	4490
5.91133	4489
5.91200	4488
5.91267	4487
5.91333	4486
5.91400	4485
5.91467	4484
5.91533	4483
5.91600	4482
5.91667	4481
5.91733	4480
5.91800	4479
5.91867	4478
5.91933	4478
5.92000	4477
5.92067	4476
5.92133	4475
5.92200	4474
5.92267	4473
5.92333	4472
5.92400	4472
5.92467	4471
5.92533	4470
5.92600	4469
5.92667	4468
5.92733	4468
5.92800	4467
5.92867	4466
5.92933	4465
5.93000	4465
5.93067	4464
5.93133	4463
5.93200	4462
5.93267	4462
5.93333	4461
5.93400	4460
5.93467	4460
5.93533	4459
5.93600	4458
5.93667	4458
5.93733	4457
5.93800	4456
5.93867	4455
5.93933	4455
5.94000	4454
5.94067	4453
5.94133	4453
5.94200	4452
5.94267	4451
5.94333	4451
5.94400	4450
5.94467	4449
5.94533	4449
5.94600	4448
5.94667	4447
5.94733	4447
5.94800	4446
5.94867	4445
5.94933	4445
5.95000	4444
5.95067	4443
5.95133	4443
5.95200	4442
5.95267	4442
5.95333	4441
5.95400	4440
5.95467	4440
5.95533	4439
5.95600	4439
5.95667	4438
5.95733	4438
5.95800	4437
5.95867	4437
5.95933	4437
5.96000	4436
5.96067	4436
5.96133	4435
5.96200	4435
5.96267	4434
5.96333	4434
5.96400	4434
5.96467	4433
5.96533	4433
5.96600	4432
5.96667	4432
5.96733	4432
5.96800	4431
5.96867	4431
5.96933	4430
5.97000	4430
5.97067	4430
5.97133	4429
5.97200	4429
5.97267	4428
5.97333	4428
5.97400	4428
5.97467	4427
5.97533	4427
5.97600	4427
5.97667	4427
5.97733	4426
5.97800	4426
5.97867	4426
5.97933	4426
5.98000	4425
5.98067	4425
5.98133	4425
5.98200	4425
5.98267	4424
5.98333	4424
5.98400	4424
5.98467	4424
5.98533	4423
5.98600	4423
5.98667	4423
5.98733	4423
5.98800	4422
5.98867	4422
5.98933	4422
5.99000	4422
5.99067	4421
5.99133	4421
5.99200	4421
5.99267	4421
5.99333	4421
5.99400	4420
5.99467	4420
5.99533	4420
5.99600	4420
5.99667	4419
5.99733	4419
5.99800	4419
5.99867	4419
5.99933	4418
6.00000	4418
6.00067	4418
6.00133	4418
6.00200	4417
6.00267	4417
6.00333	4417
6.00400	4416
6.00467	4416
6.00533	4416
6.00600	4415
6.00667	4415
6.00733	4415
6.00800	4414
6.00867	4414
6.00933	4413
6.01000	4413
6.01067	4412
6.01133	4412
6.01200	4411
6.01267	4411
6.01333	4410
6.01400	4410
6.01467	4409
6.01533	4409
6.01600	4408
6.01667	4408
6.01733	4407
6.01800	4406
6.01867	4406
6.01933	4405
6.02000	4405
6.02067	4404
6.02133	4403
6.02200	4403
6.02267	4402
6.02333	4402
6.02400	4401
6.02467	4400
6.02533	4400
6.02600	4399
6.02667	4398
6.02733	4397
6.02800	4397
6.02867	4396
6.02933	4395
6.03000	4394
6.03067	4394
6.03133	4393
6.03200	4392
6.03267	4392
6.03333	4391
6.03400	4391
6.03467	4390
6.03533	4390
6.03600	4389
6.03667	4388
6.03733	4388
6.03800	4387
6.03867	4387
6.03933	4386
6.04000	4386
6.04067	4385
6.04133	4385
6.04200	4384
6.04267	4384
6.04333	4383
6.04400	4383
6.04467	4382
6.04533	4382
6.04600	4381
6.04667	4380
6.04733	4380
6.04800	4379
6.04867	4379
6.04933	4378
6.05000	4378
6.05067	4377
6.05133	4377
6.05200	4376
6.05267	4375
6.05333	4375
6.05400	4374
6.05467	4374
6.05533	4373
6.05600	4372
6.05667	4372
6.05733	4371
6.05800	4370
6.05867	4370
6.05933	4369
6.06000	4369
6.06067	4368
6.06133	4367
6.06200	4367
6.06267	4366
6.06333	4365
6.06400	4365
6.06467	4364
6.06533	4363
6.06600	4363
6.06667	4362
6.06733	4361
6.06800	4361
6.06867	4360
6.06933	4359
6.07000	4359
6.07067	4358
6.07133	4358
6.07200	4357
6.07267	4356
6.07333	4356
6.07400	4355
6.07467	4355
6.07533	4354
6.07600	4353
6.07667	4353
6.07733	4352
6.07800	4351
6.07867	4351
6.07933	4350
6.08000	4350
6.08067	4349
6.08133	4348
6.08200	4348
6.08267	4347
6.08333	4347
6.08400	4346
6.08467	4345
6.08533	4345
6.08600	4344
6.08667	4343
6.08733	4343
6.08800	4342
6.08867	4341
6.08933	4341
6.09000	4340
6.09067	4340
6.09133	4339
6.09200	4339
6.09267	4338
6.09333	4337
6.09400	4337
6.09467	4336
6.09533	4336
6.09600	4335
6.09667	4334
6.09733	4334
6.09800	4333
6.09867	4332
6.09933	4332
6.10000	4331
6.10067	4330
6.10133	4330
6.10200	4329
6.10267	4328
6.10333	4328
6.10400	4327
6.10467	4326
6.10533	4326
6.10600	4325
6.10667	4324
6.10733	4324
6.10800	4323
6.10867	4322
6.10933	4321
6.11000	4321
6.11067	4320
6.11133	4319
6.11200	4319
6.11267	4318
6.11333	4317
6.11400	4317
6.11467	4316
6.11533	4316
6.11600	4315
6.11667	4314
6.11733	4314
6.11800	4313
6.11867	4312
6.11933	4312
6.12000	4311
6.12067	4311
6.12133	4310
6.12200	4310
6.12267	4309
6.12333	4308
6.12400	4308
6.12467	4307
6.12533	4307
6.12600	4306
6.12667	4305
6.12733	4305
6.12800	4304
6.12867	4304
6.12933	4303
6.13000	4302
6.13067	4302
6.13133	4301
6.13200	4301
6.13267	4300
6.13333	4299
6.13400	4299
6.13467	4298
6.13533	4298
6.13600	4297
6.13667	4296
6.13733	4296
6.13800	4295
6.13867	4295
6.13933	4294
6.14000	4294
6.14067	4293
6.14133	4293
6.14200	4292
6.14267	4292
6.14333	4292
6.14400	4291
6.14467	4291
6.14533	4290
6.14600	4290
6.14667	4290
6.14733	4289
6.14800	4289
6.14867	4289
6.14933	4288
6.15000	4288
6.15067	4288
6.15133	4288
6.15200	4287
6.15267	4287
6.15333	4287
6.15400	4287
6.15467	4286
6.15533	4286
6.15600	4286
6.15667	4285
6.15733	4285
6.15800	4285
6.15867	4284
6.15933	4284
6.16000	4284
6.16067	4283
6.16133	4283
6.16200	4283
6.16267	4282
6.16333	4282
6.16400	4281
6.16467	4281
6.16533	4280
6.16600	4280
6.16667	4279
6.16733	4279
6.16800	4278
6.16867	4278
6.16933	4277
6.17000	4277
6.17067	4276
6.17133	4276
6.17200	4276
6.17267	4275
6.17333	4275
6.17400	4275
6.17467	4274
6.17533	4274
6.17600	4273
6.17667	4273
6.17733	4273
6.17800	4272
6.17867	4272
6.17933	4272
6.18000	4271
6.18067	4271
6.18133	4271
6.18200	4271
6.18267	4270
6.18333	4270
6.18400	4270
6.18467	4270
6.18533	4269
6.18600	4269
6.18667	4269
6.18733	4269
6.18800	4268
6.18867	4268
6.18933	4268
6.19000	4268
6.19067	4267
6.19133	4267
6.19200	4267
6.19267	4267
6.19333	4267
6.19400	4266
6.19467	4266
6.19533	4266
6.19600	4266
6.19667	4266
6.19733	4266
6.19800	4266
6.19867	4266
6.19933	4266
6.20000	4266
6.20067	4266
6.20133	4266
6.20200	4266
6.20267	4266
6.20333	4266
6.20400	4266
6.20467	4266
6.20533	4267
6.20600	4267
6.20667	4267
6.20733	4267
6.20800	4267
6.20867	4267
6.20933	4268
6.21000	4268
6.21067	4268
6.21133	4268
6.21200	4269
6.21267	4269
6.21333	4269
6.21400	4270
6.21467	4270
6.21533	4270
6.21600	4270
6.21667	4271
6.21733	4271
6.21800	4271
6.21867	4272
6.21933	4272
6.22000	4273
6.22067	4273
6.22133	4273
6.22200	4274
6.22267	4274
6.22333	4275
6.22400	4275
6.22467	4276
6.22533	4276
6.22600	4276
6.22667	4277
6.22733	4277
6.22800	4278
6.22867	4278
6.22933	4278
6.23000	4279
6.23067	4279
6.23133	4280
6.23200	4280
6.23267	4280
6.23333	4281
6.23400	4281
6.23467	4281
6.23533	4282
6.23600	4282
6.23667	4283
6.23733	4283
6.23800	4283
6.23867	4284
6.23933	4284
6.24000	4285
6.24067	4285
6.24133	4286
6.24200	4286
6.24267	4287
6.24333	4287
6.24400	4288
6.24467	4288
6.24533	4289
6.24600	4289
6.24667	4289
6.24733	4290
6.24800	4290
6.24867	4291
6.24933	4291
6.25000	4292
6.25067	4292
6.25133	4293
6.25200	4293
6.25267	4294
6.25333	4295
6.25400	4295
6.25467	4296
6.25533	4297
6.25600	4297
6.25667	4298
6.25733	4299
6.25800	4299
6.25867	4300
6.25933	4300
6.26000	4301
6.26067	4302
6.26133	4302
6.26200	4303
6.26267	4303
6.26333	4303
6.26400	4304
6.26467	4304
6.26533	4305
6.26600	4305
6.26667	4306
6.26733	4306
6.26800	4306
6.26867	4307
6.26933	4307
6.27000	4308
6.27067	4308
6.27133	4308
6.27200	4308
6.27267	4309
6.27333	4309
6.27400	4309
6.27467	4309
6.27533	4309
6.27600	4309
6.27667	4310
6.27733	4310
6.27800	4310
6.27867	4310
6.27933	4310
6.28000	4310
6.28067	4310
6.28133	4310
6.28200	4310
6.28267	4310
6.28333	4310
6.28400	4310
6.28467	4310
6.28533	4309
6.28600	4309
6.28667	4309
6.28733	4309
6.28800	4309
6.28867	4309
6.28933	4309
6.29000	4308
6.29067	4308
6.29133	4308
6.29200	4308
6.29267	4308
6.29333	4307
6.29400	4307
6.29467	4307
6.29533	4307
6.29600	4306
6.29667	4306
6.29733	4306
6.29800	4305
6.29867	4305
6.29933	4305
6.30000	4304
6.30067	4304
6.30133	4303
6.30200	4303
6.30267	4302
6.30333	4302
6.30400	4302
6.30467	4301
6.30533	4301
6.30600	4300
6.30667	4300
6.30733	4300
6.30800	4299
6.30867	4299
6.30933	4298
6.31000	4298
6.31067	4298
6.31133	4297
6.31200	4297
6.31267	4296
6.31333	4296
6.31400	4295
6.31467	4295
6.31533	4294
6.31600	4294
6.31667	4293
6.31733	4293
6.31800	4292
6.31867	4292
6.31933	4291
6.32000	4290
6.32067	4290
6.32133	4289
6.32200	4289
6.32267	4288
6.32333	4287
6.32400	4287
6.32467	4286
6.32533	4286
6.32600	4285
6.32667	4284
6.32733	4284
6.32800	4283
6.32867	4282
6.32933	4281
6.33000	4281
6.33067	4280
6.33133	4279
6.33200	4279
6.33267	4278
6.33333	4277
6.33400	4276
6.33467	4276
6.33533	4275
6.33600	4274
6.33667	4274
6.33733	4273
6.33800	4272
6.33867	4272
6.33933	4271
6.34000	4270
6.34067	4270
6.34133	4269
6.34200	4268
6.34267	4267
6.34333	4267
6.34400	4266
6.34467	4265
6.34533	4264
6.34600	4264
6.34667	4263
6.34733	4262
6.34800	4261
6.34867	4261
6.34933	4260
6.35000	4259
6.35067	4258
6.35133	4257
6.35200	4256
6.35267	4255
6.35333	4255
6.35400	4254
6.35467	4253
6.35533	4252
6.35600	4251
6.35667	4250
6.35733	4249
6.35800	4248
6.35867	4247
6.35933	4246
6.36000	4245
6.36067	4245
6.36133	4244
6.36200	4243
6.36267	4242
6.36333	4241
6.36400	4240
6.36467	4239
6.36533	4238
6.36600	4237
6.36667	4236
6.36733	4236
6.36800	4235
6.36867	4234
6.36933	4233
6.37000	4232
6.37067	4231
6.37133	4231
6.37200	4230
6.37267	4229
6.37333	4228
6.37400	4228
6.37467	4227
6.37533	4226
6.37600	4226
6.37667	4225
6.37733	4224
6.37800	4224
6.37867	4223
6.37933	4222
6.38000	4222
6.38067	4221
6.38133	4221
6.38200	4220
6.38267	4219
6.38333	4219
6.38400	4218
6.38467	4218
6.38533	4217
6.38600	4216
6.38667	4216
6.38733	4215
6.38800	4215
6.38867	4214
6.38933	4214
6.39000	4213
6.39067	4212
6.39133	4212
6.39200	4211
6.39267	4211
6.39333	4210
6.39400	4210
6.39467	4209
6.39533	4209
6.39600	4208
6.39667	4208
6.39733	4207
6.39800	4206
6.39867	4206
6.39933	4206

