[Header]
Application Name	LabSolutions
Version	5.73
Data File Name	C:\LabSolutions\Data\Project1\stephen\2016-01-06\80.gcd
Output Date	1/11/2016
Output Time	1:19:56 PM

[Configuration]
Instrument Name	WEISSTA-PC-Instrument1
Instrument #	1
Line #	1
# of Detectors	1
Detector ID	DET#2
Detector Name	DFID1
# of Channels	1

[Chromatogram (Ch1)]
Interval(msec)	40
# of Points	9600
Start Time(min)	0.000
End Time(min)	6.400
R.Time (min)	Intensity
0.00033	22
0.00100	22
0.00167	22
0.00233	22
0.00300	22
0.00367	22
0.00433	22
0.00500	22
0.00567	22
0.00633	22
0.00700	22
0.00767	22
0.00833	22
0.00900	21
0.00967	21
0.01033	20
0.01100	19
0.01167	18
0.01233	17
0.01300	15
0.01367	13
0.01433	11
0.01500	9
0.01567	6
0.01633	3
0.01700	-1
0.01767	-4
0.01833	-8
0.01900	-12
0.01967	-16
0.02033	-20
0.02100	-24
0.02167	-28
0.02233	-32
0.02300	-37
0.02367	-41
0.02433	-45
0.02500	-49
0.02567	-53
0.02633	-57
0.02700	-61
0.02767	-65
0.02833	-68
0.02900	-72
0.02967	-75
0.03033	-78
0.03100	-81
0.03167	-84
0.03233	-87
0.03300	-90
0.03367	-92
0.03433	-94
0.03500	-96
0.03567	-98
0.03633	-100
0.03700	-102
0.03767	-103
0.03833	-105
0.03900	-106
0.03967	-108
0.04033	-109
0.04100	-110
0.04167	-111
0.04233	-112
0.04300	-113
0.04367	-114
0.04433	-114
0.04500	-115
0.04567	-116
0.04633	-116
0.04700	-117
0.04767	-118
0.04833	-118
0.04900	-119
0.04967	-119
0.05033	-119
0.05100	-120
0.05167	-120
0.05233	-120
0.05300	-121
0.05367	-121
0.05433	-121
0.05500	-121
0.05567	-122
0.05633	-122
0.05700	-122
0.05767	-122
0.05833	-122
0.05900	-123
0.05967	-123
0.06033	-123
0.06100	-123
0.06167	-123
0.06233	-123
0.06300	-123
0.06367	-123
0.06433	-123
0.06500	-123
0.06567	-124
0.06633	-124
0.06700	-124
0.06767	-124
0.06833	-124
0.06900	-124
0.06967	-124
0.07033	-124
0.07100	-124
0.07167	-124
0.07233	-124
0.07300	-124
0.07367	-124
0.07433	-125
0.07500	-125
0.07567	-125
0.07633	-125
0.07700	-125
0.07767	-125
0.07833	-125
0.07900	-125
0.07967	-125
0.08033	-125
0.08100	-125
0.08167	-125
0.08233	-125
0.08300	-125
0.08367	-125
0.08433	-125
0.08500	-124
0.08567	-124
0.08633	-122
0.08700	-116
0.08767	-106
0.08833	-90
0.08900	-66
0.08967	-35
0.09033	2
0.09100	51
0.09167	105
0.09233	168
0.09300	253
0.09367	366
0.09433	506
0.09500	673
0.09567	845
0.09633	1034
0.09700	1227
0.09767	1434
0.09833	1660
0.09900	1906
0.09967	2156
0.10033	2397
0.10100	2634
0.10167	2880
0.10233	3181
0.10300	3539
0.10367	3926
0.10433	4322
0.10500	4703
0.10567	5063
0.10633	5411
0.10700	5763
0.10767	6131
0.10833	6530
0.10900	6944
0.10967	7353
0.11033	7762
0.11100	8187
0.11167	8605
0.11233	9062
0.11300	9515
0.11367	9940
0.11433	10344
0.11500	10718
0.11567	11069
0.11633	11399
0.11700	11751
0.11767	12105
0.11833	12430
0.11900	12726
0.11967	12996
0.12033	13277
0.12100	13576
0.12167	13878
0.12233	14158
0.12300	14407
0.12367	14645
0.12433	14870
0.12500	15068
0.12567	15241
0.12633	15387
0.12700	15534
0.12767	15669
0.12833	15779
0.12900	15891
0.12967	15997
0.13033	16089
0.13100	16172
0.13167	16260
0.13233	16328
0.13300	16387
0.13367	16534
0.13433	17135
0.13500	19250
0.13567	25457
0.13633	41165
0.13700	76120
0.13767	146195
0.13833	274040
0.13900	487211
0.13967	814424
0.14033	1282754
0.14100	1916455
0.14167	2735792
0.14233	3756848
0.14300	4990867
0.14367	6445096
0.14433	8123261
0.14500	10027418
0.14567	12157713
0.14633	14515104
0.14700	17103841
0.14767	19933278
0.14833	23009506
0.14900	26331487
0.14967	29889036
0.15033	33665768
0.15100	37641481
0.15167	41793883
0.15233	46099490
0.15300	50534690
0.15367	55076609
0.15433	59703456
0.15500	64394452
0.15567	69129760
0.15633	73890267
0.15700	78657595
0.15767	83414020
0.15833	88142967
0.15900	92828455
0.15967	97455429
0.16033	102009304
0.16100	106476553
0.16167	110843960
0.16233	115099280
0.16300	119230852
0.16367	123228643
0.16433	127083601
0.16500	130788429
0.16567	134336492
0.16633	137722616
0.16700	140942755
0.16767	143994143
0.16833	146874672
0.16900	149583167
0.16967	152118955
0.17033	154481986
0.17100	156672838
0.17167	158692631
0.17233	160542624
0.17300	162224597
0.17367	163740729
0.17433	165093244
0.17500	166284620
0.17567	167317351
0.17633	168194487
0.17700	168919334
0.17767	169495650
0.17833	169927396
0.17900	170218941
0.17967	170374702
0.18033	170399443
0.18100	170298084
0.18167	170075931
0.18233	169738718
0.18300	169293102
0.18367	168746011
0.18433	168103214
0.18500	167368795
0.18567	166545655
0.18633	165636287
0.18700	164643258
0.18767	163569464
0.18833	162418068
0.18900	161192477
0.18967	159896295
0.19033	158533311
0.19100	157107308
0.19167	155622126
0.19233	154081498
0.19300	152489171
0.19367	150848775
0.19433	149163925
0.19500	147438130
0.19567	145674856
0.19633	143877445
0.19700	142049163
0.19767	140193141
0.19833	138312438
0.19900	136409975
0.19967	134488586
0.20033	132550989
0.20100	130599800
0.20167	128637512
0.20233	126666501
0.20300	124689051
0.20367	122707336
0.20433	120723440
0.20500	118739336
0.20567	116756895
0.20633	114777878
0.20700	112803978
0.20767	110836791
0.20833	108877828
0.20900	106928474
0.20967	104990040
0.21033	103063750
0.21100	101150790
0.21167	99252236
0.21233	97369092
0.21300	95502299
0.21367	93652734
0.21433	91821185
0.21500	90008386
0.21567	88215014
0.21633	86441688
0.21700	84688978
0.21767	82957407
0.21833	81247462
0.21900	79559612
0.21967	77894350
0.22033	76252219
0.22100	74633756
0.22167	73039384
0.22233	71469352
0.22300	69923736
0.22367	68402470
0.22433	66905389
0.22500	65432304
0.22567	63983021
0.22633	62557371
0.22700	61155196
0.22767	59776368
0.22833	58420760
0.22900	57088261
0.22967	55778761
0.23033	54492148
0.23100	53228301
0.23167	51987095
0.23233	50768396
0.23300	49572063
0.23367	48397948
0.23433	47245891
0.23500	46115722
0.23567	45007262
0.23633	43920324
0.23700	42854711
0.23767	41810225
0.23833	40786655
0.23900	39783784
0.23967	38801383
0.24033	37839220
0.24100	36897054
0.24167	35974644
0.24233	35071739
0.24300	34188088
0.24367	33323434
0.24433	32477516
0.24500	31650075
0.24567	30840842
0.24633	30049547
0.24700	29275917
0.24767	28519675
0.24833	27780547
0.24900	27058258
0.24967	26352533
0.25033	25663097
0.25100	24989673
0.25167	24331985
0.25233	23689756
0.25300	23062713
0.25367	22450581
0.25433	21853090
0.25500	21269967
0.25567	20700945
0.25633	20145757
0.25700	19604138
0.25767	19075826
0.25833	18560559
0.25900	18058080
0.25967	17568134
0.26033	17090466
0.26100	16624826
0.26167	16170968
0.26233	15728644
0.26300	15297614
0.26367	14877636
0.26433	14468477
0.26500	14069901
0.26567	13681679
0.26633	13303582
0.26700	12935389
0.26767	12576877
0.26833	12227829
0.26900	11888031
0.26967	11557270
0.27033	11235338
0.27100	10922032
0.27167	10617148
0.27233	10320489
0.27300	10031861
0.27367	9751071
0.27433	9477932
0.27500	9212258
0.27567	8953867
0.27633	8702582
0.27700	8458228
0.27767	8220633
0.27833	7989630
0.27900	7765054
0.27967	7546743
0.28033	7334539
0.28100	7128287
0.28167	6927833
0.28233	6733029
0.28300	6543729
0.28367	6359791
0.28433	6181073
0.28500	6007440
0.28567	5838757
0.28633	5674894
0.28700	5515724
0.28767	5361120
0.28833	5210960
0.28900	5065125
0.28967	4923498
0.29033	4785965
0.29100	4652414
0.29167	4522736
0.29233	4396824
0.29300	4274576
0.29367	4155889
0.29433	4040665
0.29500	3928808
0.29567	3820222
0.29633	3714817
0.29700	3612503
0.29767	3513192
0.29833	3416801
0.29900	3323245
0.29967	3232445
0.30033	3144320
0.30100	3058796
0.30167	2975797
0.30233	2895250
0.30300	2817085
0.30367	2741232
0.30433	2667625
0.30500	2596199
0.30567	2526890
0.30633	2459636
0.30700	2394378
0.30767	2331057
0.30833	2269615
0.30900	2209999
0.30967	2152154
0.31033	2096028
0.31100	2041572
0.31167	1988735
0.31233	1937470
0.31300	1887730
0.31367	1839470
0.31433	1792646
0.31500	1747216
0.31567	1703138
0.31633	1660373
0.31700	1618881
0.31767	1578625
0.31833	1539569
0.31900	1501679
0.31967	1464920
0.32033	1429261
0.32100	1394668
0.32167	1361111
0.32233	1328561
0.32300	1296989
0.32367	1266366
0.32433	1236667
0.32500	1207864
0.32567	1179933
0.32633	1152848
0.32700	1126586
0.32767	1101124
0.32833	1076440
0.32900	1052514
0.32967	1029324
0.33033	1006853
0.33100	985080
0.33167	963990
0.33233	943566
0.33300	923792
0.33367	904654
0.33433	886138
0.33500	868230
0.33567	850917
0.33633	834186
0.33700	818024
0.33767	802419
0.33833	787357
0.33900	772826
0.33967	758815
0.34033	745311
0.34100	732303
0.34167	719781
0.34233	707733
0.34300	696151
0.34367	685027
0.34433	674352
0.34500	664122
0.34567	654333
0.34633	644982
0.34700	636069
0.34767	627598
0.34833	619573
0.34900	612000
0.34967	604884
0.35033	598229
0.35100	592038
0.35167	586309
0.35233	581040
0.35300	576223
0.35367	571850
0.35433	567912
0.35500	564396
0.35567	561289
0.35633	558575
0.35700	556237
0.35767	554258
0.35833	552619
0.35900	551301
0.35967	550286
0.36033	549555
0.36100	549092
0.36167	548878
0.36233	548899
0.36300	549138
0.36367	549583
0.36433	550217
0.36500	551029
0.36567	552003
0.36633	553130
0.36700	554396
0.36767	555792
0.36833	557306
0.36900	558928
0.36967	560649
0.37033	562458
0.37100	564348
0.37167	566308
0.37233	568330
0.37300	570408
0.37367	572533
0.37433	574700
0.37500	576904
0.37567	579140
0.37633	581409
0.37700	583710
0.37767	586042
0.37833	588406
0.37900	590803
0.37967	593233
0.38033	595694
0.38100	598186
0.38167	600703
0.38233	603242
0.38300	605795
0.38367	608356
0.38433	610920
0.38500	613480
0.38567	616031
0.38633	618567
0.38700	621084
0.38767	623576
0.38833	626042
0.38900	628477
0.38967	630879
0.39033	633246
0.39100	635575
0.39167	637865
0.39233	640113
0.39300	642318
0.39367	644478
0.39433	646588
0.39500	648642
0.39567	650633
0.39633	652553
0.39700	654391
0.39767	656137
0.39833	657779
0.39900	659304
0.39967	660702
0.40033	661960
0.40100	663067
0.40167	664010
0.40233	664776
0.40300	665352
0.40367	665722
0.40433	665871
0.40500	665784
0.40567	665446
0.40633	664840
0.40700	663952
0.40767	662769
0.40833	661275
0.40900	659460
0.40967	657312
0.41033	654820
0.41100	651978
0.41167	648782
0.41233	645232
0.41300	641332
0.41367	637088
0.41433	632510
0.41500	627610
0.41567	622402
0.41633	616902
0.41700	611128
0.41767	605097
0.41833	598829
0.41900	592343
0.41967	585656
0.42033	578789
0.42100	571759
0.42167	564584
0.42233	557281
0.42300	549866
0.42367	542356
0.42433	534764
0.42500	527106
0.42567	519394
0.42633	511643
0.42700	503863
0.42767	496066
0.42833	488263
0.42900	480465
0.42967	472680
0.43033	464918
0.43100	457187
0.43167	449494
0.43233	441847
0.43300	434251
0.43367	426714
0.43433	419239
0.43500	411833
0.43567	404500
0.43633	397243
0.43700	390067
0.43767	382976
0.43833	375972
0.43900	369059
0.43967	362238
0.44033	355514
0.44100	348886
0.44167	342357
0.44233	335928
0.44300	329601
0.44367	323376
0.44433	317253
0.44500	311234
0.44567	305319
0.44633	299507
0.44700	293798
0.44767	288194
0.44833	282694
0.44900	277297
0.44967	272005
0.45033	266817
0.45100	261733
0.45167	256752
0.45233	251875
0.45300	247099
0.45367	242426
0.45433	237853
0.45500	233381
0.45567	229008
0.45633	224734
0.45700	220557
0.45767	216475
0.45833	212490
0.45900	208598
0.45967	204800
0.46033	201094
0.46100	197481
0.46167	193958
0.46233	190525
0.46300	187182
0.46367	183928
0.46433	180763
0.46500	177685
0.46567	174696
0.46633	171795
0.46700	168982
0.46767	166256
0.46833	163617
0.46900	161063
0.46967	158593
0.47033	156204
0.47100	153893
0.47167	151657
0.47233	149495
0.47300	147403
0.47367	145381
0.47433	143425
0.47500	141533
0.47567	139703
0.47633	137932
0.47700	136219
0.47767	134560
0.47833	132954
0.47900	131398
0.47967	129891
0.48033	128432
0.48100	127017
0.48167	125645
0.48233	124315
0.48300	123025
0.48367	121773
0.48433	120558
0.48500	119379
0.48567	118233
0.48633	117120
0.48700	116039
0.48767	114987
0.48833	113964
0.48900	112968
0.48967	111999
0.49033	111055
0.49100	110136
0.49167	109240
0.49233	108365
0.49300	107512
0.49367	106678
0.49433	105863
0.49500	105067
0.49567	104287
0.49633	103524
0.49700	102777
0.49767	102045
0.49833	101327
0.49900	100622
0.49967	99930
0.50033	99251
0.50100	98583
0.50167	97926
0.50233	97280
0.50300	96645
0.50367	96019
0.50433	95402
0.50500	94795
0.50567	94196
0.50633	93605
0.50700	93021
0.50767	92445
0.50833	91876
0.50900	91314
0.50967	90758
0.51033	90209
0.51100	89665
0.51167	89127
0.51233	88595
0.51300	88067
0.51367	87545
0.51433	87027
0.51500	86514
0.51567	86005
0.51633	85500
0.51700	85000
0.51767	84503
0.51833	84010
0.51900	83521
0.51967	83036
0.52033	82554
0.52100	82075
0.52167	81599
0.52233	81127
0.52300	80658
0.52367	80191
0.52433	79728
0.52500	79267
0.52567	78809
0.52633	78354
0.52700	77902
0.52767	77452
0.52833	77005
0.52900	76560
0.52967	76118
0.53033	75678
0.53100	75240
0.53167	74805
0.53233	74373
0.53300	73942
0.53367	73514
0.53433	73089
0.53500	72666
0.53567	72245
0.53633	71826
0.53700	71410
0.53767	70996
0.53833	70584
0.53900	70175
0.53967	69768
0.54033	69363
0.54100	68961
0.54167	68561
0.54233	68164
0.54300	67769
0.54367	67377
0.54433	66987
0.54500	66600
0.54567	66217
0.54633	65836
0.54700	65459
0.54767	65086
0.54833	64716
0.54900	64351
0.54967	63989
0.55033	63632
0.55100	63280
0.55167	62933
0.55233	62592
0.55300	62255
0.55367	61924
0.55433	61599
0.55500	61279
0.55567	60965
0.55633	60656
0.55700	60353
0.55767	60055
0.55833	59762
0.55900	59473
0.55967	59189
0.56033	58909
0.56100	58632
0.56167	58358
0.56233	58088
0.56300	57819
0.56367	57553
0.56433	57289
0.56500	57026
0.56567	56764
0.56633	56503
0.56700	56242
0.56767	55982
0.56833	55722
0.56900	55462
0.56967	55201
0.57033	54941
0.57100	54680
0.57167	54419
0.57233	54158
0.57300	53896
0.57367	53634
0.57433	53372
0.57500	53109
0.57567	52846
0.57633	52582
0.57700	52319
0.57767	52055
0.57833	51791
0.57900	51527
0.57967	51263
0.58033	50999
0.58100	50735
0.58167	50471
0.58233	50207
0.58300	49943
0.58367	49679
0.58433	49416
0.58500	49153
0.58567	48891
0.58633	48629
0.58700	48367
0.58767	48106
0.58833	47846
0.58900	47586
0.58967	47327
0.59033	47069
0.59100	46812
0.59167	46556
0.59233	46301
0.59300	46046
0.59367	45793
0.59433	45541
0.59500	45291
0.59567	45041
0.59633	44793
0.59700	44546
0.59767	44301
0.59833	44057
0.59900	43814
0.59967	43573
0.60033	43333
0.60100	43094
0.60167	42857
0.60233	42622
0.60300	42388
0.60367	42156
0.60433	41925
0.60500	41696
0.60567	41468
0.60633	41242
0.60700	41018
0.60767	40796
0.60833	40575
0.60900	40356
0.60967	40138
0.61033	39923
0.61100	39709
0.61167	39496
0.61233	39286
0.61300	39077
0.61367	38870
0.61433	38666
0.61500	38462
0.61567	38261
0.61633	38062
0.61700	37864
0.61767	37668
0.61833	37475
0.61900	37282
0.61967	37092
0.62033	36904
0.62100	36717
0.62167	36532
0.62233	36348
0.62300	36167
0.62367	35986
0.62433	35808
0.62500	35631
0.62567	35455
0.62633	35281
0.62700	35109
0.62767	34938
0.62833	34768
0.62900	34600
0.62967	34433
0.63033	34268
0.63100	34104
0.63167	33941
0.63233	33780
0.63300	33620
0.63367	33461
0.63433	33304
0.63500	33148
0.63567	32993
0.63633	32840
0.63700	32688
0.63767	32537
0.63833	32388
0.63900	32240
0.63967	32093
0.64033	31948
0.64100	31804
0.64167	31661
0.64233	31520
0.64300	31380
0.64367	31241
0.64433	31104
0.64500	30967
0.64567	30832
0.64633	30699
0.64700	30566
0.64767	30435
0.64833	30304
0.64900	30175
0.64967	30047
0.65033	29920
0.65100	29794
0.65167	29669
0.65233	29545
0.65300	29422
0.65367	29300
0.65433	29179
0.65500	29058
0.65567	28939
0.65633	28820
0.65700	28702
0.65767	28585
0.65833	28468
0.65900	28352
0.65967	28237
0.66033	28123
0.66100	28009
0.66167	27896
0.66233	27784
0.66300	27673
0.66367	27562
0.66433	27451
0.66500	27342
0.66567	27233
0.66633	27125
0.66700	27017
0.66767	26910
0.66833	26804
0.66900	26699
0.66967	26594
0.67033	26490
0.67100	26386
0.67167	26283
0.67233	26181
0.67300	26080
0.67367	25980
0.67433	25880
0.67500	25781
0.67567	25682
0.67633	25585
0.67700	25489
0.67767	25394
0.67833	25300
0.67900	25207
0.67967	25116
0.68033	25026
0.68100	24938
0.68167	24852
0.68233	24768
0.68300	24686
0.68367	24607
0.68433	24531
0.68500	24459
0.68567	24389
0.68633	24324
0.68700	24263
0.68767	24206
0.68833	24154
0.68900	24107
0.68967	24066
0.69033	24031
0.69100	24001
0.69167	23978
0.69233	23962
0.69300	23953
0.69367	23950
0.69433	23955
0.69500	23967
0.69567	23986
0.69633	24012
0.69700	24045
0.69767	24084
0.69833	24129
0.69900	24180
0.69967	24237
0.70033	24298
0.70100	24362
0.70167	24430
0.70233	24500
0.70300	24572
0.70367	24645
0.70433	24717
0.70500	24789
0.70567	24860
0.70633	24929
0.70700	24994
0.70767	25056
0.70833	25115
0.70900	25168
0.70967	25217
0.71033	25260
0.71100	25297
0.71167	25328
0.71233	25353
0.71300	25372
0.71367	25384
0.71433	25390
0.71500	25389
0.71567	25382
0.71633	25369
0.71700	25349
0.71767	25324
0.71833	25293
0.71900	25256
0.71967	25214
0.72033	25166
0.72100	25114
0.72167	25058
0.72233	24996
0.72300	24931
0.72367	24862
0.72433	24789
0.72500	24713
0.72567	24633
0.72633	24551
0.72700	24465
0.72767	24378
0.72833	24287
0.72900	24195
0.72967	24101
0.73033	24005
0.73100	23907
0.73167	23808
0.73233	23707
0.73300	23605
0.73367	23502
0.73433	23399
0.73500	23294
0.73567	23189
0.73633	23083
0.73700	22976
0.73767	22869
0.73833	22762
0.73900	22655
0.73967	22547
0.74033	22440
0.74100	22332
0.74167	22225
0.74233	22117
0.74300	22010
0.74367	21903
0.74433	21797
0.74500	21691
0.74567	21585
0.74633	21479
0.74700	21375
0.74767	21270
0.74833	21166
0.74900	21063
0.74967	20961
0.75033	20859
0.75100	20757
0.75167	20656
0.75233	20557
0.75300	20457
0.75367	20359
0.75433	20261
0.75500	20164
0.75567	20068
0.75633	19973
0.75700	19878
0.75767	19785
0.75833	19692
0.75900	19600
0.75967	19509
0.76033	19419
0.76100	19330
0.76167	19242
0.76233	19155
0.76300	19068
0.76367	18983
0.76433	18898
0.76500	18814
0.76567	18732
0.76633	18650
0.76700	18569
0.76767	18489
0.76833	18410
0.76900	18332
0.76967	18254
0.77033	18178
0.77100	18103
0.77167	18028
0.77233	17954
0.77300	17881
0.77367	17809
0.77433	17738
0.77500	17668
0.77567	17598
0.77633	17530
0.77700	17462
0.77767	17395
0.77833	17329
0.77900	17263
0.77967	17199
0.78033	17135
0.78100	17072
0.78167	17010
0.78233	16948
0.78300	16887
0.78367	16827
0.78433	16768
0.78500	16709
0.78567	16652
0.78633	16594
0.78700	16538
0.78767	16482
0.78833	16427
0.78900	16372
0.78967	16318
0.79033	16265
0.79100	16212
0.79167	16160
0.79233	16109
0.79300	16058
0.79367	16008
0.79433	15958
0.79500	15909
0.79567	15860
0.79633	15812
0.79700	15765
0.79767	15718
0.79833	15671
0.79900	15626
0.79967	15580
0.80033	15536
0.80100	15491
0.80167	15448
0.80233	15404
0.80300	15362
0.80367	15319
0.80433	15277
0.80500	15236
0.80567	15195
0.80633	15154
0.80700	15114
0.80767	15075
0.80833	15036
0.80900	14997
0.80967	14959
0.81033	14921
0.81100	14884
0.81167	14847
0.81233	14810
0.81300	14774
0.81367	14739
0.81433	14704
0.81500	14669
0.81567	14635
0.81633	14602
0.81700	14568
0.81767	14536
0.81833	14503
0.81900	14471
0.81967	14439
0.82033	14408
0.82100	14377
0.82167	14347
0.82233	14317
0.82300	14287
0.82367	14257
0.82433	14228
0.82500	14199
0.82567	14170
0.82633	14142
0.82700	14114
0.82767	14086
0.82833	14058
0.82900	14031
0.82967	14004
0.83033	13977
0.83100	13950
0.83167	13924
0.83233	13898
0.83300	13872
0.83367	13846
0.83433	13820
0.83500	13795
0.83567	13770
0.83633	13744
0.83700	13719
0.83767	13694
0.83833	13670
0.83900	13645
0.83967	13621
0.84033	13596
0.84100	13572
0.84167	13548
0.84233	13523
0.84300	13499
0.84367	13475
0.84433	13451
0.84500	13428
0.84567	13404
0.84633	13380
0.84700	13356
0.84767	13333
0.84833	13309
0.84900	13285
0.84967	13262
0.85033	13238
0.85100	13215
0.85167	13191
0.85233	13168
0.85300	13145
0.85367	13121
0.85433	13098
0.85500	13075
0.85567	13051
0.85633	13028
0.85700	13005
0.85767	12982
0.85833	12959
0.85900	12936
0.85967	12913
0.86033	12890
0.86100	12867
0.86167	12844
0.86233	12822
0.86300	12799
0.86367	12777
0.86433	12754
0.86500	12732
0.86567	12709
0.86633	12687
0.86700	12664
0.86767	12642
0.86833	12620
0.86900	12598
0.86967	12576
0.87033	12554
0.87100	12532
0.87167	12510
0.87233	12489
0.87300	12467
0.87367	12446
0.87433	12424
0.87500	12403
0.87567	12382
0.87633	12361
0.87700	12340
0.87767	12319
0.87833	12298
0.87900	12278
0.87967	12257
0.88033	12237
0.88100	12217
0.88167	12197
0.88233	12177
0.88300	12157
0.88367	12137
0.88433	12118
0.88500	12098
0.88567	12079
0.88633	12060
0.88700	12041
0.88767	12022
0.88833	12003
0.88900	11984
0.88967	11965
0.89033	11947
0.89100	11928
0.89167	11910
0.89233	11892
0.89300	11874
0.89367	11855
0.89433	11838
0.89500	11820
0.89567	11802
0.89633	11784
0.89700	11767
0.89767	11749
0.89833	11732
0.89900	11714
0.89967	11697
0.90033	11680
0.90100	11663
0.90167	11646
0.90233	11629
0.90300	11612
0.90367	11595
0.90433	11578
0.90500	11562
0.90567	11545
0.90633	11528
0.90700	11512
0.90767	11496
0.90833	11479
0.90900	11463
0.90967	11447
0.91033	11431
0.91100	11415
0.91167	11399
0.91233	11384
0.91300	11368
0.91367	11352
0.91433	11337
0.91500	11321
0.91567	11305
0.91633	11290
0.91700	11275
0.91767	11259
0.91833	11244
0.91900	11229
0.91967	11214
0.92033	11199
0.92100	11184
0.92167	11169
0.92233	11154
0.92300	11139
0.92367	11125
0.92433	11110
0.92500	11096
0.92567	11081
0.92633	11067
0.92700	11052
0.92767	11038
0.92833	11024
0.92900	11010
0.92967	10996
0.93033	10982
0.93100	10968
0.93167	10955
0.93233	10941
0.93300	10927
0.93367	10914
0.93433	10900
0.93500	10887
0.93567	10874
0.93633	10860
0.93700	10847
0.93767	10834
0.93833	10821
0.93900	10807
0.93967	10794
0.94033	10781
0.94100	10768
0.94167	10755
0.94233	10742
0.94300	10729
0.94367	10717
0.94433	10704
0.94500	10691
0.94567	10678
0.94633	10665
0.94700	10653
0.94767	10640
0.94833	10627
0.94900	10615
0.94967	10602
0.95033	10590
0.95100	10577
0.95167	10565
0.95233	10553
0.95300	10540
0.95367	10528
0.95433	10516
0.95500	10504
0.95567	10492
0.95633	10480
0.95700	10468
0.95767	10456
0.95833	10445
0.95900	10433
0.95967	10422
0.96033	10410
0.96100	10399
0.96167	10388
0.96233	10377
0.96300	10366
0.96367	10355
0.96433	10344
0.96500	10333
0.96567	10323
0.96633	10312
0.96700	10302
0.96767	10291
0.96833	10281
0.96900	10271
0.96967	10261
0.97033	10250
0.97100	10240
0.97167	10230
0.97233	10220
0.97300	10210
0.97367	10199
0.97433	10189
0.97500	10179
0.97567	10168
0.97633	10158
0.97700	10147
0.97767	10136
0.97833	10126
0.97900	10115
0.97967	10104
0.98033	10094
0.98100	10083
0.98167	10072
0.98233	10061
0.98300	10049
0.98367	10038
0.98433	10027
0.98500	10015
0.98567	10004
0.98633	9993
0.98700	9981
0.98767	9969
0.98833	9958
0.98900	9946
0.98967	9934
0.99033	9923
0.99100	9911
0.99167	9899
0.99233	9888
0.99300	9876
0.99367	9864
0.99433	9853
0.99500	9841
0.99567	9829
0.99633	9818
0.99700	9806
0.99767	9795
0.99833	9783
0.99900	9772
0.99967	9760
1.00033	9749
1.00100	9737
1.00167	9726
1.00233	9715
1.00300	9703
1.00367	9692
1.00433	9681
1.00500	9669
1.00567	9658
1.00633	9647
1.00700	9636
1.00767	9625
1.00833	9614
1.00900	9603
1.00967	9593
1.01033	9582
1.01100	9572
1.01167	9562
1.01233	9552
1.01300	9542
1.01367	9532
1.01433	9523
1.01500	9513
1.01567	9504
1.01633	9496
1.01700	9487
1.01767	9479
1.01833	9470
1.01900	9463
1.01967	9455
1.02033	9448
1.02100	9441
1.02167	9434
1.02233	9428
1.02300	9422
1.02367	9416
1.02433	9411
1.02500	9406
1.02567	9401
1.02633	9396
1.02700	9391
1.02767	9387
1.02833	9383
1.02900	9379
1.02967	9375
1.03033	9371
1.03100	9367
1.03167	9363
1.03233	9359
1.03300	9356
1.03367	9352
1.03433	9348
1.03500	9343
1.03567	9339
1.03633	9335
1.03700	9330
1.03767	9326
1.03833	9321
1.03900	9316
1.03967	9311
1.04033	9306
1.04100	9300
1.04167	9295
1.04233	9289
1.04300	9283
1.04367	9277
1.04433	9270
1.04500	9264
1.04567	9257
1.04633	9251
1.04700	9244
1.04767	9237
1.04833	9229
1.04900	9222
1.04967	9215
1.05033	9207
1.05100	9199
1.05167	9191
1.05233	9183
1.05300	9175
1.05367	9167
1.05433	9159
1.05500	9151
1.05567	9142
1.05633	9134
1.05700	9126
1.05767	9117
1.05833	9108
1.05900	9100
1.05967	9091
1.06033	9082
1.06100	9073
1.06167	9064
1.06233	9055
1.06300	9047
1.06367	9038
1.06433	9029
1.06500	9020
1.06567	9011
1.06633	9002
1.06700	8993
1.06767	8984
1.06833	8974
1.06900	8965
1.06967	8956
1.07033	8947
1.07100	8938
1.07167	8928
1.07233	8919
1.07300	8910
1.07367	8901
1.07433	8891
1.07500	8882
1.07567	8873
1.07633	8863
1.07700	8854
1.07767	8845
1.07833	8835
1.07900	8826
1.07967	8817
1.08033	8808
1.08100	8798
1.08167	8789
1.08233	8780
1.08300	8771
1.08367	8761
1.08433	8752
1.08500	8743
1.08567	8734
1.08633	8725
1.08700	8716
1.08767	8707
1.08833	8698
1.08900	8689
1.08967	8680
1.09033	8671
1.09100	8662
1.09167	8654
1.09233	8645
1.09300	8636
1.09367	8628
1.09433	8619
1.09500	8611
1.09567	8602
1.09633	8594
1.09700	8585
1.09767	8577
1.09833	8568
1.09900	8560
1.09967	8552
1.10033	8544
1.10100	8535
1.10167	8527
1.10233	8519
1.10300	8511
1.10367	8503
1.10433	8495
1.10500	8487
1.10567	8479
1.10633	8471
1.10700	8464
1.10767	8456
1.10833	8448
1.10900	8440
1.10967	8433
1.11033	8425
1.11100	8417
1.11167	8410
1.11233	8403
1.11300	8395
1.11367	8388
1.11433	8381
1.11500	8373
1.11567	8366
1.11633	8359
1.11700	8352
1.11767	8345
1.11833	8338
1.11900	8331
1.11967	8325
1.12033	8318
1.12100	8311
1.12167	8305
1.12233	8298
1.12300	8292
1.12367	8285
1.12433	8279
1.12500	8273
1.12567	8266
1.12633	8260
1.12700	8254
1.12767	8248
1.12833	8243
1.12900	8237
1.12967	8231
1.13033	8226
1.13100	8220
1.13167	8215
1.13233	8209
1.13300	8204
1.13367	8199
1.13433	8194
1.13500	8190
1.13567	8185
1.13633	8180
1.13700	8176
1.13767	8172
1.13833	8168
1.13900	8164
1.13967	8160
1.14033	8157
1.14100	8153
1.14167	8150
1.14233	8146
1.14300	8143
1.14367	8140
1.14433	8137
1.14500	8134
1.14567	8131
1.14633	8128
1.14700	8125
1.14767	8122
1.14833	8119
1.14900	8116
1.14967	8113
1.15033	8111
1.15100	8108
1.15167	8105
1.15233	8102
1.15300	8099
1.15367	8096
1.15433	8092
1.15500	8089
1.15567	8086
1.15633	8082
1.15700	8079
1.15767	8075
1.15833	8071
1.15900	8068
1.15967	8064
1.16033	8060
1.16100	8056
1.16167	8051
1.16233	8047
1.16300	8043
1.16367	8038
1.16433	8034
1.16500	8029
1.16567	8024
1.16633	8019
1.16700	8015
1.16767	8010
1.16833	8005
1.16900	7999
1.16967	7994
1.17033	7989
1.17100	7984
1.17167	7978
1.17233	7973
1.17300	7967
1.17367	7962
1.17433	7956
1.17500	7951
1.17567	7945
1.17633	7940
1.17700	7934
1.17767	7929
1.17833	7923
1.17900	7918
1.17967	7912
1.18033	7907
1.18100	7902
1.18167	7896
1.18233	7891
1.18300	7885
1.18367	7880
1.18433	7875
1.18500	7869
1.18567	7864
1.18633	7858
1.18700	7853
1.18767	7848
1.18833	7842
1.18900	7837
1.18967	7832
1.19033	7826
1.19100	7821
1.19167	7816
1.19233	7811
1.19300	7806
1.19367	7801
1.19433	7796
1.19500	7792
1.19567	7787
1.19633	7782
1.19700	7777
1.19767	7773
1.19833	7768
1.19900	7764
1.19967	7759
1.20033	7755
1.20100	7750
1.20167	7746
1.20233	7742
1.20300	7738
1.20367	7733
1.20433	7729
1.20500	7725
1.20567	7721
1.20633	7717
1.20700	7714
1.20767	7710
1.20833	7706
1.20900	7703
1.20967	7699
1.21033	7695
1.21100	7692
1.21167	7688
1.21233	7685
1.21300	7682
1.21367	7679
1.21433	7676
1.21500	7673
1.21567	7670
1.21633	7667
1.21700	7664
1.21767	7661
1.21833	7658
1.21900	7655
1.21967	7653
1.22033	7650
1.22100	7647
1.22167	7645
1.22233	7642
1.22300	7640
1.22367	7637
1.22433	7635
1.22500	7633
1.22567	7630
1.22633	7628
1.22700	7626
1.22767	7624
1.22833	7621
1.22900	7619
1.22967	7617
1.23033	7615
1.23100	7613
1.23167	7611
1.23233	7609
1.23300	7607
1.23367	7605
1.23433	7603
1.23500	7601
1.23567	7599
1.23633	7598
1.23700	7596
1.23767	7594
1.23833	7592
1.23900	7591
1.23967	7589
1.24033	7588
1.24100	7586
1.24167	7585
1.24233	7583
1.24300	7582
1.24367	7580
1.24433	7579
1.24500	7578
1.24567	7576
1.24633	7575
1.24700	7574
1.24767	7572
1.24833	7571
1.24900	7570
1.24967	7569
1.25033	7567
1.25100	7566
1.25167	7565
1.25233	7564
1.25300	7563
1.25367	7562
1.25433	7561
1.25500	7560
1.25567	7559
1.25633	7558
1.25700	7557
1.25767	7556
1.25833	7555
1.25900	7554
1.25967	7553
1.26033	7553
1.26100	7552
1.26167	7551
1.26233	7551
1.26300	7550
1.26367	7549
1.26433	7549
1.26500	7549
1.26567	7548
1.26633	7548
1.26700	7548
1.26767	7548
1.26833	7547
1.26900	7547
1.26967	7547
1.27033	7547
1.27100	7547
1.27167	7548
1.27233	7548
1.27300	7548
1.27367	7549
1.27433	7549
1.27500	7550
1.27567	7551
1.27633	7551
1.27700	7552
1.27767	7553
1.27833	7554
1.27900	7556
1.27967	7557
1.28033	7558
1.28100	7560
1.28167	7561
1.28233	7563
1.28300	7565
1.28367	7567
1.28433	7569
1.28500	7571
1.28567	7573
1.28633	7575
1.28700	7577
1.28767	7579
1.28833	7582
1.28900	7584
1.28967	7586
1.29033	7588
1.29100	7591
1.29167	7593
1.29233	7595
1.29300	7597
1.29367	7599
1.29433	7601
1.29500	7603
1.29567	7605
1.29633	7607
1.29700	7608
1.29767	7609
1.29833	7611
1.29900	7612
1.29967	7612
1.30033	7613
1.30100	7613
1.30167	7614
1.30233	7614
1.30300	7613
1.30367	7613
1.30433	7612
1.30500	7612
1.30567	7611
1.30633	7609
1.30700	7608
1.30767	7607
1.30833	7605
1.30900	7603
1.30967	7601
1.31033	7599
1.31100	7596
1.31167	7594
1.31233	7591
1.31300	7588
1.31367	7585
1.31433	7582
1.31500	7579
1.31567	7575
1.31633	7572
1.31700	7569
1.31767	7565
1.31833	7562
1.31900	7558
1.31967	7554
1.32033	7550
1.32100	7547
1.32167	7542
1.32233	7538
1.32300	7534
1.32367	7530
1.32433	7525
1.32500	7521
1.32567	7516
1.32633	7512
1.32700	7507
1.32767	7502
1.32833	7497
1.32900	7493
1.32967	7488
1.33033	7483
1.33100	7478
1.33167	7473
1.33233	7467
1.33300	7462
1.33367	7457
1.33433	7451
1.33500	7446
1.33567	7440
1.33633	7435
1.33700	7429
1.33767	7424
1.33833	7418
1.33900	7412
1.33967	7407
1.34033	7401
1.34100	7395
1.34167	7390
1.34233	7384
1.34300	7378
1.34367	7372
1.34433	7367
1.34500	7361
1.34567	7355
1.34633	7349
1.34700	7344
1.34767	7338
1.34833	7332
1.34900	7327
1.34967	7321
1.35033	7315
1.35100	7309
1.35167	7304
1.35233	7298
1.35300	7292
1.35367	7286
1.35433	7281
1.35500	7275
1.35567	7269
1.35633	7264
1.35700	7258
1.35767	7253
1.35833	7247
1.35900	7242
1.35967	7236
1.36033	7231
1.36100	7225
1.36167	7220
1.36233	7214
1.36300	7209
1.36367	7204
1.36433	7198
1.36500	7193
1.36567	7188
1.36633	7183
1.36700	7178
1.36767	7173
1.36833	7168
1.36900	7163
1.36967	7158
1.37033	7153
1.37100	7149
1.37167	7144
1.37233	7139
1.37300	7135
1.37367	7130
1.37433	7126
1.37500	7121
1.37567	7117
1.37633	7113
1.37700	7108
1.37767	7104
1.37833	7100
1.37900	7096
1.37967	7092
1.38033	7088
1.38100	7084
1.38167	7080
1.38233	7076
1.38300	7072
1.38367	7069
1.38433	7065
1.38500	7061
1.38567	7058
1.38633	7054
1.38700	7051
1.38767	7047
1.38833	7044
1.38900	7040
1.38967	7037
1.39033	7034
1.39100	7030
1.39167	7027
1.39233	7024
1.39300	7021
1.39367	7017
1.39433	7014
1.39500	7011
1.39567	7008
1.39633	7004
1.39700	7001
1.39767	6998
1.39833	6995
1.39900	6991
1.39967	6988
1.40033	6985
1.40100	6982
1.40167	6978
1.40233	6975
1.40300	6972
1.40367	6968
1.40433	6965
1.40500	6961
1.40567	6958
1.40633	6954
1.40700	6951
1.40767	6947
1.40833	6944
1.40900	6940
1.40967	6937
1.41033	6933
1.41100	6930
1.41167	6926
1.41233	6922
1.41300	6919
1.41367	6915
1.41433	6912
1.41500	6908
1.41567	6905
1.41633	6901
1.41700	6897
1.41767	6894
1.41833	6890
1.41900	6887
1.41967	6883
1.42033	6880
1.42100	6876
1.42167	6873
1.42233	6869
1.42300	6866
1.42367	6863
1.42433	6859
1.42500	6856
1.42567	6853
1.42633	6850
1.42700	6847
1.42767	6844
1.42833	6841
1.42900	6838
1.42967	6835
1.43033	6832
1.43100	6830
1.43167	6827
1.43233	6825
1.43300	6822
1.43367	6820
1.43433	6818
1.43500	6815
1.43567	6813
1.43633	6811
1.43700	6809
1.43767	6807
1.43833	6805
1.43900	6803
1.43967	6801
1.44033	6799
1.44100	6798
1.44167	6796
1.44233	6795
1.44300	6793
1.44367	6792
1.44433	6790
1.44500	6789
1.44567	6788
1.44633	6786
1.44700	6785
1.44767	6784
1.44833	6783
1.44900	6781
1.44967	6780
1.45033	6779
1.45100	6778
1.45167	6777
1.45233	6776
1.45300	6775
1.45367	6773
1.45433	6772
1.45500	6771
1.45567	6770
1.45633	6769
1.45700	6767
1.45767	6766
1.45833	6765
1.45900	6763
1.45967	6762
1.46033	6760
1.46100	6759
1.46167	6757
1.46233	6755
1.46300	6754
1.46367	6752
1.46433	6750
1.46500	6748
1.46567	6746
1.46633	6744
1.46700	6743
1.46767	6741
1.46833	6739
1.46900	6737
1.46967	6735
1.47033	6733
1.47100	6731
1.47167	6728
1.47233	6726
1.47300	6724
1.47367	6722
1.47433	6720
1.47500	6718
1.47567	6716
1.47633	6714
1.47700	6712
1.47767	6709
1.47833	6707
1.47900	6705
1.47967	6703
1.48033	6701
1.48100	6698
1.48167	6696
1.48233	6694
1.48300	6692
1.48367	6689
1.48433	6687
1.48500	6685
1.48567	6682
1.48633	6680
1.48700	6678
1.48767	6675
1.48833	6673
1.48900	6670
1.48967	6668
1.49033	6665
1.49100	6663
1.49167	6660
1.49233	6658
1.49300	6655
1.49367	6653
1.49433	6650
1.49500	6648
1.49567	6645
1.49633	6643
1.49700	6640
1.49767	6638
1.49833	6635
1.49900	6633
1.49967	6630
1.50033	6628
1.50100	6625
1.50167	6623
1.50233	6620
1.50300	6617
1.50367	6615
1.50433	6612
1.50500	6609
1.50567	6607
1.50633	6604
1.50700	6601
1.50767	6598
1.50833	6596
1.50900	6593
1.50967	6590
1.51033	6587
1.51100	6584
1.51167	6582
1.51233	6579
1.51300	6576
1.51367	6574
1.51433	6571
1.51500	6568
1.51567	6566
1.51633	6563
1.51700	6561
1.51767	6558
1.51833	6556
1.51900	6553
1.51967	6551
1.52033	6549
1.52100	6546
1.52167	6544
1.52233	6542
1.52300	6539
1.52367	6537
1.52433	6535
1.52500	6532
1.52567	6530
1.52633	6528
1.52700	6526
1.52767	6523
1.52833	6521
1.52900	6519
1.52967	6517
1.53033	6515
1.53100	6513
1.53167	6511
1.53233	6509
1.53300	6507
1.53367	6505
1.53433	6503
1.53500	6501
1.53567	6499
1.53633	6497
1.53700	6495
1.53767	6493
1.53833	6491
1.53900	6489
1.53967	6487
1.54033	6485
1.54100	6483
1.54167	6481
1.54233	6479
1.54300	6477
1.54367	6476
1.54433	6474
1.54500	6472
1.54567	6470
1.54633	6469
1.54700	6467
1.54767	6466
1.54833	6464
1.54900	6462
1.54967	6461
1.55033	6459
1.55100	6458
1.55167	6456
1.55233	6455
1.55300	6453
1.55367	6451
1.55433	6450
1.55500	6448
1.55567	6446
1.55633	6445
1.55700	6443
1.55767	6441
1.55833	6440
1.55900	6438
1.55967	6437
1.56033	6435
1.56100	6433
1.56167	6432
1.56233	6430
1.56300	6428
1.56367	6427
1.56433	6425
1.56500	6423
1.56567	6422
1.56633	6420
1.56700	6418
1.56767	6417
1.56833	6415
1.56900	6413
1.56967	6412
1.57033	6410
1.57100	6408
1.57167	6407
1.57233	6405
1.57300	6403
1.57367	6402
1.57433	6400
1.57500	6399
1.57567	6397
1.57633	6396
1.57700	6394
1.57767	6393
1.57833	6391
1.57900	6389
1.57967	6388
1.58033	6386
1.58100	6385
1.58167	6383
1.58233	6381
1.58300	6380
1.58367	6378
1.58433	6377
1.58500	6375
1.58567	6374
1.58633	6372
1.58700	6371
1.58767	6369
1.58833	6368
1.58900	6366
1.58967	6365
1.59033	6363
1.59100	6362
1.59167	6361
1.59233	6359
1.59300	6358
1.59367	6357
1.59433	6356
1.59500	6354
1.59567	6353
1.59633	6352
1.59700	6351
1.59767	6349
1.59833	6348
1.59900	6347
1.59967	6346
1.60033	6345
1.60100	6344
1.60167	6342
1.60233	6341
1.60300	6340
1.60367	6339
1.60433	6338
1.60500	6337
1.60567	6335
1.60633	6334
1.60700	6333
1.60767	6332
1.60833	6331
1.60900	6329
1.60967	6328
1.61033	6327
1.61100	6326
1.61167	6325
1.61233	6323
1.61300	6322
1.61367	6321
1.61433	6320
1.61500	6318
1.61567	6317
1.61633	6316
1.61700	6314
1.61767	6313
1.61833	6311
1.61900	6310
1.61967	6308
1.62033	6307
1.62100	6305
1.62167	6304
1.62233	6302
1.62300	6300
1.62367	6299
1.62433	6297
1.62500	6296
1.62567	6294
1.62633	6292
1.62700	6291
1.62767	6289
1.62833	6288
1.62900	6286
1.62967	6285
1.63033	6283
1.63100	6282
1.63167	6281
1.63233	6279
1.63300	6278
1.63367	6277
1.63433	6276
1.63500	6275
1.63567	6274
1.63633	6273
1.63700	6272
1.63767	6271
1.63833	6270
1.63900	6269
1.63967	6268
1.64033	6267
1.64100	6266
1.64167	6265
1.64233	6264
1.64300	6263
1.64367	6262
1.64433	6261
1.64500	6261
1.64567	6260
1.64633	6259
1.64700	6258
1.64767	6257
1.64833	6257
1.64900	6256
1.64967	6255
1.65033	6255
1.65100	6254
1.65167	6253
1.65233	6253
1.65300	6252
1.65367	6251
1.65433	6251
1.65500	6250
1.65567	6249
1.65633	6248
1.65700	6248
1.65767	6247
1.65833	6246
1.65900	6245
1.65967	6244
1.66033	6243
1.66100	6242
1.66167	6241
1.66233	6240
1.66300	6239
1.66367	6238
1.66433	6237
1.66500	6236
1.66567	6235
1.66633	6234
1.66700	6233
1.66767	6232
1.66833	6231
1.66900	6230
1.66967	6229
1.67033	6227
1.67100	6226
1.67167	6225
1.67233	6224
1.67300	6223
1.67367	6222
1.67433	6220
1.67500	6219
1.67567	6218
1.67633	6217
1.67700	6216
1.67767	6215
1.67833	6214
1.67900	6213
1.67967	6211
1.68033	6210
1.68100	6209
1.68167	6208
1.68233	6207
1.68300	6206
1.68367	6205
1.68433	6204
1.68500	6203
1.68567	6202
1.68633	6201
1.68700	6200
1.68767	6199
1.68833	6198
1.68900	6197
1.68967	6195
1.69033	6194
1.69100	6193
1.69167	6192
1.69233	6191
1.69300	6189
1.69367	6188
1.69433	6187
1.69500	6186
1.69567	6184
1.69633	6183
1.69700	6182
1.69767	6180
1.69833	6179
1.69900	6177
1.69967	6176
1.70033	6174
1.70100	6172
1.70167	6171
1.70233	6169
1.70300	6168
1.70367	6166
1.70433	6164
1.70500	6163
1.70567	6161
1.70633	6159
1.70700	6158
1.70767	6156
1.70833	6155
1.70900	6153
1.70967	6152
1.71033	6150
1.71100	6149
1.71167	6148
1.71233	6146
1.71300	6145
1.71367	6144
1.71433	6143
1.71500	6143
1.71567	6143
1.71633	6143
1.71700	6143
1.71767	6145
1.71833	6147
1.71900	6149
1.71967	6153
1.72033	6158
1.72100	6165
1.72167	6173
1.72233	6184
1.72300	6197
1.72367	6214
1.72433	6235
1.72500	6260
1.72567	6292
1.72633	6330
1.72700	6376
1.72767	6433
1.72833	6501
1.72900	6582
1.72967	6680
1.73033	6796
1.73100	6934
1.73167	7097
1.73233	7289
1.73300	7514
1.73367	7776
1.73433	8082
1.73500	8436
1.73567	8846
1.73633	9319
1.73700	9860
1.73767	10479
1.73833	11183
1.73900	11981
1.73967	12883
1.74033	13900
1.74100	15042
1.74167	16319
1.74233	17744
1.74300	19329
1.74367	21085
1.74433	23026
1.74500	25163
1.74567	27509
1.74633	30076
1.74700	32876
1.74767	35920
1.74833	39217
1.74900	42778
1.74967	46612
1.75033	50725
1.75100	55125
1.75167	59816
1.75233	64799
1.75300	70074
1.75367	75638
1.75433	81489
1.75500	87620
1.75567	94023
1.75633	100687
1.75700	107601
1.75767	114748
1.75833	122114
1.75900	129679
1.75967	137425
1.76033	145329
1.76100	153368
1.76167	161515
1.76233	169744
1.76300	178025
1.76367	186329
1.76433	194628
1.76500	202891
1.76567	211087
1.76633	219181
1.76700	227139
1.76767	234923
1.76833	242500
1.76900	249838
1.76967	256908
1.77033	263680
1.77100	270132
1.77167	276240
1.77233	281986
1.77300	287352
1.77367	292322
1.77433	296884
1.77500	301029
1.77567	304752
1.77633	308051
1.77700	310927
1.77767	313381
1.77833	315419
1.77900	317046
1.77967	318273
1.78033	319108
1.78100	319565
1.78167	319657
1.78233	319398
1.78300	318804
1.78367	317890
1.78433	316673
1.78500	315169
1.78567	313395
1.78633	311367
1.78700	309101
1.78767	306613
1.78833	303920
1.78900	301038
1.78967	297980
1.79033	294763
1.79100	291399
1.79167	287902
1.79233	284286
1.79300	280562
1.79367	276742
1.79433	272838
1.79500	268860
1.79567	264818
1.79633	260722
1.79700	256581
1.79767	252402
1.79833	248195
1.79900	243966
1.79967	239723
1.80033	235472
1.80100	231218
1.80167	226969
1.80233	222728
1.80300	218501
1.80367	214292
1.80433	210106
1.80500	205947
1.80567	201817
1.80633	197721
1.80700	193661
1.80767	189641
1.80833	185662
1.80900	181726
1.80967	177837
1.81033	173996
1.81100	170204
1.81167	166464
1.81233	162775
1.81300	159140
1.81367	155560
1.81433	152035
1.81500	148567
1.81567	145155
1.81633	141800
1.81700	138503
1.81767	135264
1.81833	132082
1.81900	128959
1.81967	125895
1.82033	122888
1.82100	119940
1.82167	117049
1.82233	114216
1.82300	111440
1.82367	108721
1.82433	106058
1.82500	103452
1.82567	100901
1.82633	98405
1.82700	95963
1.82767	93575
1.82833	91241
1.82900	88959
1.82967	86728
1.83033	84549
1.83100	82420
1.83167	80341
1.83233	78311
1.83300	76329
1.83367	74394
1.83433	72505
1.83500	70663
1.83567	68865
1.83633	67111
1.83700	65401
1.83767	63733
1.83833	62107
1.83900	60522
1.83967	58977
1.84033	57472
1.84100	56005
1.84167	54576
1.84233	53184
1.84300	51828
1.84367	50507
1.84433	49222
1.84500	47970
1.84567	46751
1.84633	45565
1.84700	44411
1.84767	43288
1.84833	42195
1.84900	41131
1.84967	40097
1.85033	39091
1.85100	38112
1.85167	37160
1.85233	36235
1.85300	35335
1.85367	34460
1.85433	33610
1.85500	32783
1.85567	31980
1.85633	31199
1.85700	30440
1.85767	29703
1.85833	28986
1.85900	28290
1.85967	27614
1.86033	26957
1.86100	26319
1.86167	25700
1.86233	25098
1.86300	24513
1.86367	23946
1.86433	23394
1.86500	22859
1.86567	22339
1.86633	21835
1.86700	21345
1.86767	20869
1.86833	20407
1.86900	19959
1.86967	19523
1.87033	19101
1.87100	18691
1.87167	18293
1.87233	17907
1.87300	17532
1.87367	17169
1.87433	16816
1.87500	16474
1.87567	16141
1.87633	15819
1.87700	15506
1.87767	15203
1.87833	14908
1.87900	14623
1.87967	14345
1.88033	14077
1.88100	13816
1.88167	13563
1.88233	13318
1.88300	13080
1.88367	12849
1.88433	12625
1.88500	12408
1.88567	12198
1.88633	11994
1.88700	11796
1.88767	11604
1.88833	11418
1.88900	11238
1.88967	11063
1.89033	10894
1.89100	10729
1.89167	10570
1.89233	10416
1.89300	10266
1.89367	10121
1.89433	9980
1.89500	9844
1.89567	9712
1.89633	9583
1.89700	9459
1.89767	9339
1.89833	9222
1.89900	9109
1.89967	8999
1.90033	8893
1.90100	8789
1.90167	8689
1.90233	8592
1.90300	8498
1.90367	8407
1.90433	8319
1.90500	8233
1.90567	8150
1.90633	8069
1.90700	7991
1.90767	7915
1.90833	7841
1.90900	7770
1.90967	7701
1.91033	7633
1.91100	7568
1.91167	7504
1.91233	7443
1.91300	7383
1.91367	7324
1.91433	7268
1.91500	7213
1.91567	7160
1.91633	7108
1.91700	7058
1.91767	7009
1.91833	6962
1.91900	6916
1.91967	6871
1.92033	6827
1.92100	6785
1.92167	6744
1.92233	6704
1.92300	6665
1.92367	6627
1.92433	6591
1.92500	6555
1.92567	6520
1.92633	6486
1.92700	6454
1.92767	6422
1.92833	6390
1.92900	6360
1.92967	6331
1.93033	6302
1.93100	6274
1.93167	6247
1.93233	6220
1.93300	6194
1.93367	6169
1.93433	6145
1.93500	6121
1.93567	6097
1.93633	6075
1.93700	6053
1.93767	6031
1.93833	6010
1.93900	5990
1.93967	5970
1.94033	5951
1.94100	5932
1.94167	5913
1.94233	5895
1.94300	5878
1.94367	5861
1.94433	5844
1.94500	5828
1.94567	5812
1.94633	5797
1.94700	5782
1.94767	5767
1.94833	5753
1.94900	5739
1.94967	5726
1.95033	5713
1.95100	5700
1.95167	5688
1.95233	5676
1.95300	5664
1.95367	5652
1.95433	5641
1.95500	5630
1.95567	5620
1.95633	5609
1.95700	5599
1.95767	5589
1.95833	5580
1.95900	5570
1.95967	5561
1.96033	5552
1.96100	5543
1.96167	5535
1.96233	5526
1.96300	5518
1.96367	5510
1.96433	5503
1.96500	5495
1.96567	5488
1.96633	5480
1.96700	5473
1.96767	5466
1.96833	5459
1.96900	5453
1.96967	5446
1.97033	5440
1.97100	5434
1.97167	5428
1.97233	5422
1.97300	5416
1.97367	5410
1.97433	5405
1.97500	5399
1.97567	5394
1.97633	5388
1.97700	5383
1.97767	5378
1.97833	5373
1.97900	5368
1.97967	5363
1.98033	5358
1.98100	5354
1.98167	5349
1.98233	5345
1.98300	5340
1.98367	5336
1.98433	5331
1.98500	5327
1.98567	5323
1.98633	5319
1.98700	5315
1.98767	5311
1.98833	5307
1.98900	5303
1.98967	5299
1.99033	5296
1.99100	5292
1.99167	5288
1.99233	5285
1.99300	5281
1.99367	5278
1.99433	5274
1.99500	5271
1.99567	5268
1.99633	5265
1.99700	5261
1.99767	5258
1.99833	5255
1.99900	5252
1.99967	5249
2.00033	5246
2.00100	5243
2.00167	5240
2.00233	5237
2.00300	5234
2.00367	5231
2.00433	5228
2.00500	5225
2.00567	5222
2.00633	5219
2.00700	5216
2.00767	5213
2.00833	5210
2.00900	5208
2.00967	5205
2.01033	5202
2.01100	5199
2.01167	5196
2.01233	5193
2.01300	5190
2.01367	5187
2.01433	5185
2.01500	5182
2.01567	5179
2.01633	5176
2.01700	5173
2.01767	5170
2.01833	5168
2.01900	5165
2.01967	5162
2.02033	5159
2.02100	5157
2.02167	5154
2.02233	5151
2.02300	5149
2.02367	5146
2.02433	5143
2.02500	5141
2.02567	5138
2.02633	5135
2.02700	5133
2.02767	5130
2.02833	5128
2.02900	5125
2.02967	5122
2.03033	5120
2.03100	5117
2.03167	5115
2.03233	5112
2.03300	5110
2.03367	5107
2.03433	5105
2.03500	5102
2.03567	5100
2.03633	5097
2.03700	5095
2.03767	5092
2.03833	5090
2.03900	5087
2.03967	5085
2.04033	5083
2.04100	5080
2.04167	5078
2.04233	5076
2.04300	5073
2.04367	5071
2.04433	5069
2.04500	5066
2.04567	5064
2.04633	5062
2.04700	5060
2.04767	5058
2.04833	5056
2.04900	5053
2.04967	5051
2.05033	5049
2.05100	5047
2.05167	5045
2.05233	5043
2.05300	5041
2.05367	5039
2.05433	5037
2.05500	5035
2.05567	5033
2.05633	5031
2.05700	5029
2.05767	5027
2.05833	5026
2.05900	5024
2.05967	5022
2.06033	5020
2.06100	5018
2.06167	5016
2.06233	5014
2.06300	5012
2.06367	5010
2.06433	5008
2.06500	5006
2.06567	5004
2.06633	5002
2.06700	5000
2.06767	4999
2.06833	4997
2.06900	4995
2.06967	4993
2.07033	4991
2.07100	4990
2.07167	4988
2.07233	4986
2.07300	4984
2.07367	4983
2.07433	4981
2.07500	4979
2.07567	4977
2.07633	4976
2.07700	4974
2.07767	4972
2.07833	4970
2.07900	4968
2.07967	4967
2.08033	4965
2.08100	4963
2.08167	4961
2.08233	4959
2.08300	4957
2.08367	4956
2.08433	4954
2.08500	4952
2.08567	4950
2.08633	4948
2.08700	4946
2.08767	4944
2.08833	4942
2.08900	4940
2.08967	4938
2.09033	4937
2.09100	4935
2.09167	4933
2.09233	4931
2.09300	4929
2.09367	4928
2.09433	4926
2.09500	4924
2.09567	4922
2.09633	4920
2.09700	4918
2.09767	4917
2.09833	4915
2.09900	4913
2.09967	4911
2.10033	4910
2.10100	4908
2.10167	4906
2.10233	4905
2.10300	4903
2.10367	4901
2.10433	4900
2.10500	4898
2.10567	4896
2.10633	4895
2.10700	4893
2.10767	4891
2.10833	4890
2.10900	4888
2.10967	4887
2.11033	4885
2.11100	4883
2.11167	4882
2.11233	4880
2.11300	4879
2.11367	4877
2.11433	4876
2.11500	4874
2.11567	4873
2.11633	4871
2.11700	4870
2.11767	4868
2.11833	4866
2.11900	4865
2.11967	4863
2.12033	4862
2.12100	4860
2.12167	4859
2.12233	4857
2.12300	4856
2.12367	4854
2.12433	4853
2.12500	4851
2.12567	4850
2.12633	4848
2.12700	4847
2.12767	4845
2.12833	4844
2.12900	4843
2.12967	4841
2.13033	4840
2.13100	4838
2.13167	4837
2.13233	4835
2.13300	4833
2.13367	4832
2.13433	4830
2.13500	4829
2.13567	4827
2.13633	4825
2.13700	4824
2.13767	4822
2.13833	4821
2.13900	4819
2.13967	4818
2.14033	4816
2.14100	4815
2.14167	4813
2.14233	4811
2.14300	4810
2.14367	4808
2.14433	4807
2.14500	4805
2.14567	4804
2.14633	4802
2.14700	4801
2.14767	4799
2.14833	4797
2.14900	4796
2.14967	4794
2.15033	4793
2.15100	4791
2.15167	4790
2.15233	4788
2.15300	4786
2.15367	4785
2.15433	4783
2.15500	4782
2.15567	4780
2.15633	4779
2.15700	4777
2.15767	4776
2.15833	4774
2.15900	4773
2.15967	4771
2.16033	4770
2.16100	4768
2.16167	4767
2.16233	4766
2.16300	4765
2.16367	4763
2.16433	4762
2.16500	4761
2.16567	4759
2.16633	4758
2.16700	4757
2.16767	4756
2.16833	4754
2.16900	4753
2.16967	4752
2.17033	4750
2.17100	4749
2.17167	4748
2.17233	4746
2.17300	4745
2.17367	4743
2.17433	4742
2.17500	4740
2.17567	4739
2.17633	4737
2.17700	4736
2.17767	4734
2.17833	4733
2.17900	4731
2.17967	4730
2.18033	4728
2.18100	4727
2.18167	4726
2.18233	4724
2.18300	4723
2.18367	4721
2.18433	4720
2.18500	4719
2.18567	4717
2.18633	4716
2.18700	4714
2.18767	4713
2.18833	4712
2.18900	4710
2.18967	4709
2.19033	4708
2.19100	4707
2.19167	4705
2.19233	4704
2.19300	4703
2.19367	4702
2.19433	4701
2.19500	4699
2.19567	4698
2.19633	4697
2.19700	4696
2.19767	4695
2.19833	4694
2.19900	4693
2.19967	4691
2.20033	4690
2.20100	4689
2.20167	4689
2.20233	4688
2.20300	4687
2.20367	4686
2.20433	4685
2.20500	4684
2.20567	4683
2.20633	4683
2.20700	4682
2.20767	4681
2.20833	4680
2.20900	4680
2.20967	4679
2.21033	4679
2.21100	4679
2.21167	4678
2.21233	4678
2.21300	4678
2.21367	4678
2.21433	4678
2.21500	4678
2.21567	4678
2.21633	4678
2.21700	4678
2.21767	4678
2.21833	4679
2.21900	4679
2.21967	4679
2.22033	4680
2.22100	4680
2.22167	4680
2.22233	4681
2.22300	4681
2.22367	4681
2.22433	4682
2.22500	4682
2.22567	4682
2.22633	4683
2.22700	4683
2.22767	4683
2.22833	4683
2.22900	4684
2.22967	4684
2.23033	4684
2.23100	4684
2.23167	4684
2.23233	4684
2.23300	4684
2.23367	4684
2.23433	4684
2.23500	4684
2.23567	4684
2.23633	4683
2.23700	4683
2.23767	4683
2.23833	4683
2.23900	4682
2.23967	4682
2.24033	4681
2.24100	4681
2.24167	4680
2.24233	4680
2.24300	4679
2.24367	4678
2.24433	4678
2.24500	4677
2.24567	4676
2.24633	4676
2.24700	4675
2.24767	4675
2.24833	4674
2.24900	4673
2.24967	4673
2.25033	4672
2.25100	4671
2.25167	4670
2.25233	4670
2.25300	4669
2.25367	4668
2.25433	4667
2.25500	4667
2.25567	4666
2.25633	4665
2.25700	4664
2.25767	4664
2.25833	4663
2.25900	4662
2.25967	4661
2.26033	4660
2.26100	4659
2.26167	4658
2.26233	4657
2.26300	4656
2.26367	4655
2.26433	4654
2.26500	4653
2.26567	4652
2.26633	4651
2.26700	4650
2.26767	4649
2.26833	4648
2.26900	4646
2.26967	4645
2.27033	4644
2.27100	4643
2.27167	4641
2.27233	4640
2.27300	4639
2.27367	4637
2.27433	4636
2.27500	4635
2.27567	4633
2.27633	4632
2.27700	4631
2.27767	4629
2.27833	4628
2.27900	4626
2.27967	4625
2.28033	4624
2.28100	4623
2.28167	4621
2.28233	4620
2.28300	4619
2.28367	4618
2.28433	4616
2.28500	4615
2.28567	4614
2.28633	4613
2.28700	4611
2.28767	4610
2.28833	4609
2.28900	4608
2.28967	4606
2.29033	4605
2.29100	4604
2.29167	4603
2.29233	4601
2.29300	4600
2.29367	4598
2.29433	4597
2.29500	4596
2.29567	4595
2.29633	4593
2.29700	4592
2.29767	4591
2.29833	4590
2.29900	4588
2.29967	4587
2.30033	4586
2.30100	4585
2.30167	4584
2.30233	4583
2.30300	4582
2.30367	4581
2.30433	4580
2.30500	4579
2.30567	4578
2.30633	4577
2.30700	4576
2.30767	4576
2.30833	4575
2.30900	4574
2.30967	4573
2.31033	4573
2.31100	4572
2.31167	4571
2.31233	4571
2.31300	4570
2.31367	4570
2.31433	4569
2.31500	4568
2.31567	4568
2.31633	4567
2.31700	4567
2.31767	4566
2.31833	4566
2.31900	4565
2.31967	4565
2.32033	4564
2.32100	4564
2.32167	4564
2.32233	4563
2.32300	4563
2.32367	4563
2.32433	4563
2.32500	4563
2.32567	4562
2.32633	4562
2.32700	4562
2.32767	4562
2.32833	4562
2.32900	4562
2.32967	4562
2.33033	4562
2.33100	4562
2.33167	4563
2.33233	4563
2.33300	4563
2.33367	4563
2.33433	4563
2.33500	4563
2.33567	4564
2.33633	4564
2.33700	4564
2.33767	4564
2.33833	4565
2.33900	4565
2.33967	4565
2.34033	4566
2.34100	4566
2.34167	4566
2.34233	4566
2.34300	4567
2.34367	4567
2.34433	4567
2.34500	4567
2.34567	4568
2.34633	4568
2.34700	4568
2.34767	4568
2.34833	4569
2.34900	4569
2.34967	4569
2.35033	4570
2.35100	4570
2.35167	4570
2.35233	4570
2.35300	4571
2.35367	4571
2.35433	4571
2.35500	4572
2.35567	4572
2.35633	4572
2.35700	4572
2.35767	4573
2.35833	4573
2.35900	4573
2.35967	4574
2.36033	4574
2.36100	4574
2.36167	4574
2.36233	4575
2.36300	4575
2.36367	4575
2.36433	4575
2.36500	4575
2.36567	4575
2.36633	4575
2.36700	4576
2.36767	4576
2.36833	4576
2.36900	4576
2.36967	4576
2.37033	4576
2.37100	4576
2.37167	4576
2.37233	4576
2.37300	4576
2.37367	4576
2.37433	4576
2.37500	4576
2.37567	4576
2.37633	4576
2.37700	4576
2.37767	4576
2.37833	4576
2.37900	4576
2.37967	4576
2.38033	4575
2.38100	4575
2.38167	4575
2.38233	4575
2.38300	4575
2.38367	4574
2.38433	4574
2.38500	4574
2.38567	4574
2.38633	4573
2.38700	4573
2.38767	4572
2.38833	4572
2.38900	4572
2.38967	4571
2.39033	4571
2.39100	4570
2.39167	4570
2.39233	4569
2.39300	4569
2.39367	4568
2.39433	4567
2.39500	4567
2.39567	4566
2.39633	4566
2.39700	4565
2.39767	4564
2.39833	4564
2.39900	4563
2.39967	4563
2.40033	4562
2.40100	4561
2.40167	4561
2.40233	4560
2.40300	4559
2.40367	4558
2.40433	4558
2.40500	4557
2.40567	4556
2.40633	4556
2.40700	4555
2.40767	4554
2.40833	4554
2.40900	4553
2.40967	4552
2.41033	4552
2.41100	4551
2.41167	4550
2.41233	4550
2.41300	4549
2.41367	4548
2.41433	4548
2.41500	4547
2.41567	4546
2.41633	4545
2.41700	4545
2.41767	4544
2.41833	4543
2.41900	4543
2.41967	4542
2.42033	4541
2.42100	4541
2.42167	4540
2.42233	4539
2.42300	4539
2.42367	4538
2.42433	4537
2.42500	4536
2.42567	4536
2.42633	4535
2.42700	4534
2.42767	4533
2.42833	4532
2.42900	4531
2.42967	4530
2.43033	4529
2.43100	4528
2.43167	4527
2.43233	4526
2.43300	4524
2.43367	4523
2.43433	4522
2.43500	4521
2.43567	4520
2.43633	4518
2.43700	4517
2.43767	4516
2.43833	4514
2.43900	4513
2.43967	4511
2.44033	4510
2.44100	4509
2.44167	4507
2.44233	4506
2.44300	4504
2.44367	4503
2.44433	4501
2.44500	4499
2.44567	4498
2.44633	4496
2.44700	4495
2.44767	4493
2.44833	4491
2.44900	4490
2.44967	4488
2.45033	4486
2.45100	4485
2.45167	4483
2.45233	4481
2.45300	4479
2.45367	4478
2.45433	4476
2.45500	4474
2.45567	4472
2.45633	4471
2.45700	4469
2.45767	4467
2.45833	4465
2.45900	4464
2.45967	4462
2.46033	4460
2.46100	4458
2.46167	4457
2.46233	4455
2.46300	4453
2.46367	4451
2.46433	4450
2.46500	4448
2.46567	4446
2.46633	4444
2.46700	4443
2.46767	4441
2.46833	4439
2.46900	4437
2.46967	4436
2.47033	4434
2.47100	4432
2.47167	4430
2.47233	4429
2.47300	4427
2.47367	4425
2.47433	4423
2.47500	4422
2.47567	4420
2.47633	4418
2.47700	4416
2.47767	4415
2.47833	4413
2.47900	4411
2.47967	4409
2.48033	4408
2.48100	4406
2.48167	4404
2.48233	4403
2.48300	4401
2.48367	4399
2.48433	4398
2.48500	4396
2.48567	4394
2.48633	4393
2.48700	4391
2.48767	4389
2.48833	4388
2.48900	4386
2.48967	4385
2.49033	4383
2.49100	4381
2.49167	4379
2.49233	4378
2.49300	4376
2.49367	4374
2.49433	4373
2.49500	4371
2.49567	4369
2.49633	4368
2.49700	4366
2.49767	4364
2.49833	4363
2.49900	4361
2.49967	4359
2.50033	4358
2.50100	4356
2.50167	4354
2.50233	4353
2.50300	4351
2.50367	4350
2.50433	4348
2.50500	4347
2.50567	4345
2.50633	4343
2.50700	4342
2.50767	4340
2.50833	4339
2.50900	4337
2.50967	4335
2.51033	4334
2.51100	4332
2.51167	4330
2.51233	4329
2.51300	4327
2.51367	4325
2.51433	4324
2.51500	4322
2.51567	4321
2.51633	4319
2.51700	4317
2.51767	4316
2.51833	4314
2.51900	4313
2.51967	4311
2.52033	4310
2.52100	4308
2.52167	4307
2.52233	4305
2.52300	4304
2.52367	4302
2.52433	4301
2.52500	4299
2.52567	4297
2.52633	4296
2.52700	4294
2.52767	4293
2.52833	4291
2.52900	4289
2.52967	4288
2.53033	4286
2.53100	4284
2.53167	4282
2.53233	4281
2.53300	4279
2.53367	4277
2.53433	4275
2.53500	4274
2.53567	4272
2.53633	4270
2.53700	4268
2.53767	4267
2.53833	4265
2.53900	4263
2.53967	4262
2.54033	4260
2.54100	4258
2.54167	4256
2.54233	4255
2.54300	4253
2.54367	4251
2.54433	4250
2.54500	4248
2.54567	4246
2.54633	4245
2.54700	4243
2.54767	4242
2.54833	4240
2.54900	4239
2.54967	4237
2.55033	4236
2.55100	4235
2.55167	4233
2.55233	4232
2.55300	4231
2.55367	4229
2.55433	4228
2.55500	4227
2.55567	4226
2.55633	4224
2.55700	4223
2.55767	4222
2.55833	4221
2.55900	4220
2.55967	4219
2.56033	4218
2.56100	4217
2.56167	4216
2.56233	4215
2.56300	4214
2.56367	4213
2.56433	4211
2.56500	4210
2.56567	4209
2.56633	4208
2.56700	4207
2.56767	4206
2.56833	4205
2.56900	4204
2.56967	4203
2.57033	4202
2.57100	4201
2.57167	4200
2.57233	4199
2.57300	4198
2.57367	4197
2.57433	4196
2.57500	4195
2.57567	4194
2.57633	4193
2.57700	4192
2.57767	4191
2.57833	4190
2.57900	4189
2.57967	4188
2.58033	4187
2.58100	4186
2.58167	4185
2.58233	4184
2.58300	4183
2.58367	4182
2.58433	4181
2.58500	4180
2.58567	4179
2.58633	4179
2.58700	4178
2.58767	4177
2.58833	4176
2.58900	4175
2.58967	4174
2.59033	4173
2.59100	4172
2.59167	4172
2.59233	4171
2.59300	4170
2.59367	4169
2.59433	4168
2.59500	4167
2.59567	4166
2.59633	4165
2.59700	4165
2.59767	4164
2.59833	4163
2.59900	4162
2.59967	4161
2.60033	4160
2.60100	4159
2.60167	4158
2.60233	4158
2.60300	4157
2.60367	4156
2.60433	4155
2.60500	4154
2.60567	4153
2.60633	4152
2.60700	4152
2.60767	4151
2.60833	4150
2.60900	4149
2.60967	4148
2.61033	4147
2.61100	4146
2.61167	4145
2.61233	4144
2.61300	4144
2.61367	4143
2.61433	4142
2.61500	4141
2.61567	4140
2.61633	4139
2.61700	4138
2.61767	4137
2.61833	4136
2.61900	4135
2.61967	4134
2.62033	4133
2.62100	4132
2.62167	4131
2.62233	4130
2.62300	4129
2.62367	4128
2.62433	4127
2.62500	4126
2.62567	4125
2.62633	4124
2.62700	4123
2.62767	4122
2.62833	4121
2.62900	4120
2.62967	4119
2.63033	4118
2.63100	4117
2.63167	4116
2.63233	4115
2.63300	4114
2.63367	4113
2.63433	4112
2.63500	4111
2.63567	4109
2.63633	4108
2.63700	4107
2.63767	4106
2.63833	4105
2.63900	4104
2.63967	4103
2.64033	4101
2.64100	4100
2.64167	4099
2.64233	4098
2.64300	4097
2.64367	4096
2.64433	4094
2.64500	4093
2.64567	4092
2.64633	4091
2.64700	4089
2.64767	4088
2.64833	4087
2.64900	4086
2.64967	4085
2.65033	4084
2.65100	4082
2.65167	4081
2.65233	4080
2.65300	4079
2.65367	4077
2.65433	4076
2.65500	4075
2.65567	4073
2.65633	4072
2.65700	4071
2.65767	4070
2.65833	4068
2.65900	4067
2.65967	4066
2.66033	4065
2.66100	4063
2.66167	4062
2.66233	4061
2.66300	4059
2.66367	4058
2.66433	4057
2.66500	4055
2.66567	4054
2.66633	4053
2.66700	4051
2.66767	4050
2.66833	4048
2.66900	4047
2.66967	4046
2.67033	4044
2.67100	4042
2.67167	4041
2.67233	4039
2.67300	4038
2.67367	4037
2.67433	4035
2.67500	4034
2.67567	4032
2.67633	4031
2.67700	4030
2.67767	4028
2.67833	4027
2.67900	4026
2.67967	4024
2.68033	4023
2.68100	4022
2.68167	4021
2.68233	4019
2.68300	4018
2.68367	4017
2.68433	4016
2.68500	4015
2.68567	4014
2.68633	4013
2.68700	4012
2.68767	4011
2.68833	4010
2.68900	4009
2.68967	4008
2.69033	4007
2.69100	4006
2.69167	4005
2.69233	4004
2.69300	4003
2.69367	4002
2.69433	4002
2.69500	4001
2.69567	4000
2.69633	3999
2.69700	3998
2.69767	3998
2.69833	3997
2.69900	3996
2.69967	3995
2.70033	3994
2.70100	3993
2.70167	3992
2.70233	3991
2.70300	3991
2.70367	3990
2.70433	3989
2.70500	3988
2.70567	3987
2.70633	3986
2.70700	3985
2.70767	3984
2.70833	3984
2.70900	3983
2.70967	3982
2.71033	3981
2.71100	3980
2.71167	3979
2.71233	3978
2.71300	3977
2.71367	3977
2.71433	3976
2.71500	3975
2.71567	3974
2.71633	3974
2.71700	3973
2.71767	3972
2.71833	3971
2.71900	3971
2.71967	3970
2.72033	3969
2.72100	3968
2.72167	3968
2.72233	3967
2.72300	3966
2.72367	3966
2.72433	3965
2.72500	3964
2.72567	3964
2.72633	3963
2.72700	3963
2.72767	3962
2.72833	3962
2.72900	3961
2.72967	3961
2.73033	3960
2.73100	3960
2.73167	3960
2.73233	3959
2.73300	3959
2.73367	3958
2.73433	3958
2.73500	3958
2.73567	3957
2.73633	3957
2.73700	3956
2.73767	3956
2.73833	3955
2.73900	3955
2.73967	3955
2.74033	3954
2.74100	3954
2.74167	3953
2.74233	3953
2.74300	3953
2.74367	3953
2.74433	3952
2.74500	3952
2.74567	3952
2.74633	3952
2.74700	3951
2.74767	3951
2.74833	3951
2.74900	3951
2.74967	3951
2.75033	3951
2.75100	3951
2.75167	3951
2.75233	3950
2.75300	3950
2.75367	3950
2.75433	3950
2.75500	3950
2.75567	3950
2.75633	3950
2.75700	3950
2.75767	3950
2.75833	3950
2.75900	3950
2.75967	3951
2.76033	3951
2.76100	3951
2.76167	3951
2.76233	3951
2.76300	3952
2.76367	3952
2.76433	3953
2.76500	3953
2.76567	3953
2.76633	3954
2.76700	3954
2.76767	3955
2.76833	3955
2.76900	3956
2.76967	3957
2.77033	3957
2.77100	3958
2.77167	3959
2.77233	3960
2.77300	3961
2.77367	3961
2.77433	3962
2.77500	3963
2.77567	3964
2.77633	3965
2.77700	3967
2.77767	3968
2.77833	3969
2.77900	3970
2.77967	3972
2.78033	3973
2.78100	3975
2.78167	3977
2.78233	3978
2.78300	3980
2.78367	3982
2.78433	3984
2.78500	3986
2.78567	3988
2.78633	3990
2.78700	3992
2.78767	3994
2.78833	3997
2.78900	3999
2.78967	4002
2.79033	4004
2.79100	4007
2.79167	4010
2.79233	4012
2.79300	4015
2.79367	4018
2.79433	4021
2.79500	4024
2.79567	4027
2.79633	4030
2.79700	4034
2.79767	4037
2.79833	4040
2.79900	4044
2.79967	4047
2.80033	4051
2.80100	4055
2.80167	4059
2.80233	4062
2.80300	4066
2.80367	4070
2.80433	4074
2.80500	4078
2.80567	4082
2.80633	4086
2.80700	4090
2.80767	4094
2.80833	4098
2.80900	4102
2.80967	4106
2.81033	4110
2.81100	4114
2.81167	4118
2.81233	4122
2.81300	4126
2.81367	4130
2.81433	4133
2.81500	4137
2.81567	4141
2.81633	4144
2.81700	4148
2.81767	4151
2.81833	4155
2.81900	4158
2.81967	4161
2.82033	4165
2.82100	4168
2.82167	4171
2.82233	4174
2.82300	4176
2.82367	4179
2.82433	4181
2.82500	4184
2.82567	4186
2.82633	4188
2.82700	4190
2.82767	4192
2.82833	4194
2.82900	4196
2.82967	4197
2.83033	4198
2.83100	4200
2.83167	4201
2.83233	4202
2.83300	4203
2.83367	4203
2.83433	4204
2.83500	4204
2.83567	4204
2.83633	4204
2.83700	4204
2.83767	4204
2.83833	4204
2.83900	4203
2.83967	4202
2.84033	4202
2.84100	4201
2.84167	4200
2.84233	4199
2.84300	4197
2.84367	4196
2.84433	4195
2.84500	4193
2.84567	4191
2.84633	4190
2.84700	4188
2.84767	4186
2.84833	4184
2.84900	4182
2.84967	4180
2.85033	4178
2.85100	4176
2.85167	4173
2.85233	4171
2.85300	4169
2.85367	4166
2.85433	4164
2.85500	4161
2.85567	4159
2.85633	4157
2.85700	4154
2.85767	4152
2.85833	4149
2.85900	4147
2.85967	4144
2.86033	4142
2.86100	4140
2.86167	4137
2.86233	4135
2.86300	4132
2.86367	4130
2.86433	4128
2.86500	4126
2.86567	4123
2.86633	4121
2.86700	4119
2.86767	4117
2.86833	4115
2.86900	4113
2.86967	4111
2.87033	4109
2.87100	4108
2.87167	4106
2.87233	4104
2.87300	4103
2.87367	4101
2.87433	4100
2.87500	4099
2.87567	4097
2.87633	4096
2.87700	4095
2.87767	4094
2.87833	4094
2.87900	4093
2.87967	4093
2.88033	4092
2.88100	4092
2.88167	4092
2.88233	4092
2.88300	4092
2.88367	4093
2.88433	4093
2.88500	4094
2.88567	4095
2.88633	4096
2.88700	4097
2.88767	4098
2.88833	4099
2.88900	4101
2.88967	4103
2.89033	4104
2.89100	4106
2.89167	4108
2.89233	4111
2.89300	4113
2.89367	4115
2.89433	4118
2.89500	4121
2.89567	4123
2.89633	4126
2.89700	4129
2.89767	4132
2.89833	4135
2.89900	4138
2.89967	4142
2.90033	4145
2.90100	4148
2.90167	4151
2.90233	4155
2.90300	4158
2.90367	4161
2.90433	4164
2.90500	4167
2.90567	4170
2.90633	4173
2.90700	4176
2.90767	4179
2.90833	4181
2.90900	4184
2.90967	4186
2.91033	4188
2.91100	4190
2.91167	4192
2.91233	4193
2.91300	4195
2.91367	4196
2.91433	4197
2.91500	4198
2.91567	4199
2.91633	4199
2.91700	4199
2.91767	4199
2.91833	4199
2.91900	4199
2.91967	4198
2.92033	4197
2.92100	4196
2.92167	4194
2.92233	4193
2.92300	4191
2.92367	4189
2.92433	4186
2.92500	4184
2.92567	4181
2.92633	4178
2.92700	4175
2.92767	4171
2.92833	4168
2.92900	4164
2.92967	4160
2.93033	4156
2.93100	4151
2.93167	4147
2.93233	4142
2.93300	4137
2.93367	4132
2.93433	4127
2.93500	4122
2.93567	4117
2.93633	4111
2.93700	4106
2.93767	4100
2.93833	4094
2.93900	4088
2.93967	4082
2.94033	4076
2.94100	4070
2.94167	4064
2.94233	4058
2.94300	4052
2.94367	4046
2.94433	4040
2.94500	4034
2.94567	4027
2.94633	4021
2.94700	4015
2.94767	4009
2.94833	4003
2.94900	3996
2.94967	3990
2.95033	3984
2.95100	3978
2.95167	3972
2.95233	3966
2.95300	3960
2.95367	3954
2.95433	3949
2.95500	3943
2.95567	3937
2.95633	3932
2.95700	3926
2.95767	3920
2.95833	3915
2.95900	3909
2.95967	3904
2.96033	3899
2.96100	3893
2.96167	3888
2.96233	3883
2.96300	3878
2.96367	3872
2.96433	3867
2.96500	3862
2.96567	3857
2.96633	3852
2.96700	3847
2.96767	3843
2.96833	3838
2.96900	3833
2.96967	3829
2.97033	3824
2.97100	3820
2.97167	3815
2.97233	3811
2.97300	3807
2.97367	3803
2.97433	3798
2.97500	3794
2.97567	3790
2.97633	3786
2.97700	3782
2.97767	3778
2.97833	3774
2.97900	3771
2.97967	3767
2.98033	3763
2.98100	3760
2.98167	3756
2.98233	3753
2.98300	3749
2.98367	3746
2.98433	3742
2.98500	3739
2.98567	3735
2.98633	3732
2.98700	3729
2.98767	3726
2.98833	3723
2.98900	3719
2.98967	3716
2.99033	3713
2.99100	3710
2.99167	3707
2.99233	3704
2.99300	3701
2.99367	3698
2.99433	3695
2.99500	3692
2.99567	3690
2.99633	3687
2.99700	3684
2.99767	3682
2.99833	3679
2.99900	3676
2.99967	3674
3.00033	3672
3.00100	3669
3.00167	3667
3.00233	3665
3.00300	3662
3.00367	3660
3.00433	3658
3.00500	3656
3.00567	3654
3.00633	3652
3.00700	3650
3.00767	3648
3.00833	3646
3.00900	3644
3.00967	3642
3.01033	3640
3.01100	3638
3.01167	3636
3.01233	3634
3.01300	3632
3.01367	3630
3.01433	3628
3.01500	3626
3.01567	3625
3.01633	3623
3.01700	3621
3.01767	3619
3.01833	3618
3.01900	3616
3.01967	3614
3.02033	3612
3.02100	3610
3.02167	3609
3.02233	3607
3.02300	3605
3.02367	3603
3.02433	3602
3.02500	3600
3.02567	3598
3.02633	3597
3.02700	3595
3.02767	3594
3.02833	3592
3.02900	3591
3.02967	3589
3.03033	3588
3.03100	3586
3.03167	3585
3.03233	3584
3.03300	3582
3.03367	3581
3.03433	3579
3.03500	3578
3.03567	3577
3.03633	3575
3.03700	3574
3.03767	3573
3.03833	3572
3.03900	3570
3.03967	3569
3.04033	3568
3.04100	3567
3.04167	3566
3.04233	3564
3.04300	3563
3.04367	3562
3.04433	3561
3.04500	3560
3.04567	3559
3.04633	3558
3.04700	3557
3.04767	3556
3.04833	3555
3.04900	3554
3.04967	3553
3.05033	3552
3.05100	3551
3.05167	3550
3.05233	3549
3.05300	3549
3.05367	3548
3.05433	3547
3.05500	3547
3.05567	3546
3.05633	3546
3.05700	3546
3.05767	3545
3.05833	3545
3.05900	3545
3.05967	3545
3.06033	3544
3.06100	3544
3.06167	3544
3.06233	3544
3.06300	3544
3.06367	3544
3.06433	3544
3.06500	3544
3.06567	3544
3.06633	3545
3.06700	3545
3.06767	3545
3.06833	3545
3.06900	3545
3.06967	3546
3.07033	3546
3.07100	3547
3.07167	3547
3.07233	3548
3.07300	3548
3.07367	3549
3.07433	3550
3.07500	3550
3.07567	3551
3.07633	3552
3.07700	3552
3.07767	3553
3.07833	3554
3.07900	3554
3.07967	3555
3.08033	3555
3.08100	3556
3.08167	3557
3.08233	3557
3.08300	3558
3.08367	3558
3.08433	3558
3.08500	3559
3.08567	3559
3.08633	3559
3.08700	3560
3.08767	3560
3.08833	3560
3.08900	3560
3.08967	3561
3.09033	3561
3.09100	3561
3.09167	3561
3.09233	3561
3.09300	3562
3.09367	3562
3.09433	3562
3.09500	3562
3.09567	3562
3.09633	3561
3.09700	3561
3.09767	3561
3.09833	3561
3.09900	3560
3.09967	3560
3.10033	3560
3.10100	3559
3.10167	3558
3.10233	3558
3.10300	3557
3.10367	3556
3.10433	3555
3.10500	3554
3.10567	3553
3.10633	3552
3.10700	3551
3.10767	3550
3.10833	3549
3.10900	3547
3.10967	3546
3.11033	3545
3.11100	3543
3.11167	3542
3.11233	3540
3.11300	3539
3.11367	3537
3.11433	3536
3.11500	3534
3.11567	3532
3.11633	3531
3.11700	3529
3.11767	3527
3.11833	3526
3.11900	3524
3.11967	3522
3.12033	3520
3.12100	3518
3.12167	3517
3.12233	3515
3.12300	3513
3.12367	3511
3.12433	3509
3.12500	3507
3.12567	3506
3.12633	3504
3.12700	3502
3.12767	3500
3.12833	3498
3.12900	3497
3.12967	3495
3.13033	3493
3.13100	3491
3.13167	3489
3.13233	3488
3.13300	3486
3.13367	3484
3.13433	3482
3.13500	3481
3.13567	3479
3.13633	3477
3.13700	3475
3.13767	3474
3.13833	3472
3.13900	3470
3.13967	3469
3.14033	3467
3.14100	3465
3.14167	3464
3.14233	3462
3.14300	3461
3.14367	3459
3.14433	3458
3.14500	3456
3.14567	3454
3.14633	3453
3.14700	3451
3.14767	3450
3.14833	3448
3.14900	3447
3.14967	3446
3.15033	3444
3.15100	3443
3.15167	3441
3.15233	3440
3.15300	3439
3.15367	3437
3.15433	3436
3.15500	3435
3.15567	3433
3.15633	3432
3.15700	3431
3.15767	3429
3.15833	3428
3.15900	3427
3.15967	3426
3.16033	3424
3.16100	3423
3.16167	3422
3.16233	3421
3.16300	3420
3.16367	3419
3.16433	3417
3.16500	3416
3.16567	3415
3.16633	3414
3.16700	3413
3.16767	3412
3.16833	3411
3.16900	3410
3.16967	3409
3.17033	3407
3.17100	3406
3.17167	3405
3.17233	3404
3.17300	3403
3.17367	3402
3.17433	3401
3.17500	3400
3.17567	3399
3.17633	3398
3.17700	3397
3.17767	3397
3.17833	3396
3.17900	3395
3.17967	3394
3.18033	3393
3.18100	3392
3.18167	3391
3.18233	3390
3.18300	3389
3.18367	3388
3.18433	3387
3.18500	3386
3.18567	3385
3.18633	3385
3.18700	3384
3.18767	3383
3.18833	3382
3.18900	3381
3.18967	3380
3.19033	3379
3.19100	3378
3.19167	3377
3.19233	3376
3.19300	3375
3.19367	3375
3.19433	3374
3.19500	3373
3.19567	3372
3.19633	3371
3.19700	3370
3.19767	3369
3.19833	3368
3.19900	3367
3.19967	3366
3.20033	3365
3.20100	3365
3.20167	3364
3.20233	3363
3.20300	3362
3.20367	3361
3.20433	3360
3.20500	3359
3.20567	3358
3.20633	3358
3.20700	3357
3.20767	3356
3.20833	3355
3.20900	3354
3.20967	3354
3.21033	3353
3.21100	3352
3.21167	3351
3.21233	3351
3.21300	3350
3.21367	3349
3.21433	3349
3.21500	3348
3.21567	3347
3.21633	3346
3.21700	3346
3.21767	3345
3.21833	3344
3.21900	3344
3.21967	3343
3.22033	3343
3.22100	3342
3.22167	3341
3.22233	3341
3.22300	3340
3.22367	3339
3.22433	3339
3.22500	3338
3.22567	3338
3.22633	3337
3.22700	3337
3.22767	3336
3.22833	3336
3.22900	3336
3.22967	3335
3.23033	3335
3.23100	3334
3.23167	3334
3.23233	3333
3.23300	3333
3.23367	3332
3.23433	3332
3.23500	3332
3.23567	3331
3.23633	3331
3.23700	3330
3.23767	3330
3.23833	3330
3.23900	3329
3.23967	3329
3.24033	3329
3.24100	3328
3.24167	3328
3.24233	3328
3.24300	3327
3.24367	3327
3.24433	3327
3.24500	3326
3.24567	3326
3.24633	3326
3.24700	3325
3.24767	3325
3.24833	3325
3.24900	3324
3.24967	3324
3.25033	3324
3.25100	3323
3.25167	3323
3.25233	3323
3.25300	3322
3.25367	3322
3.25433	3322
3.25500	3321
3.25567	3321
3.25633	3321
3.25700	3320
3.25767	3320
3.25833	3320
3.25900	3319
3.25967	3319
3.26033	3319
3.26100	3319
3.26167	3318
3.26233	3318
3.26300	3318
3.26367	3317
3.26433	3317
3.26500	3316
3.26567	3316
3.26633	3316
3.26700	3315
3.26767	3315
3.26833	3314
3.26900	3314
3.26967	3313
3.27033	3313
3.27100	3312
3.27167	3312
3.27233	3311
3.27300	3311
3.27367	3310
3.27433	3310
3.27500	3309
3.27567	3309
3.27633	3308
3.27700	3308
3.27767	3307
3.27833	3306
3.27900	3306
3.27967	3305
3.28033	3305
3.28100	3304
3.28167	3303
3.28233	3303
3.28300	3302
3.28367	3302
3.28433	3301
3.28500	3301
3.28567	3300
3.28633	3300
3.28700	3299
3.28767	3299
3.28833	3298
3.28900	3298
3.28967	3297
3.29033	3297
3.29100	3296
3.29167	3296
3.29233	3295
3.29300	3295
3.29367	3294
3.29433	3294
3.29500	3293
3.29567	3293
3.29633	3293
3.29700	3292
3.29767	3292
3.29833	3291
3.29900	3291
3.29967	3290
3.30033	3290
3.30100	3289
3.30167	3288
3.30233	3288
3.30300	3287
3.30367	3287
3.30433	3286
3.30500	3286
3.30567	3285
3.30633	3285
3.30700	3284
3.30767	3284
3.30833	3283
3.30900	3283
3.30967	3282
3.31033	3282
3.31100	3281
3.31167	3281
3.31233	3280
3.31300	3280
3.31367	3279
3.31433	3279
3.31500	3279
3.31567	3278
3.31633	3278
3.31700	3278
3.31767	3277
3.31833	3277
3.31900	3277
3.31967	3276
3.32033	3276
3.32100	3275
3.32167	3275
3.32233	3275
3.32300	3274
3.32367	3274
3.32433	3274
3.32500	3273
3.32567	3273
3.32633	3273
3.32700	3272
3.32767	3272
3.32833	3272
3.32900	3271
3.32967	3271
3.33033	3271
3.33100	3270
3.33167	3270
3.33233	3270
3.33300	3269
3.33367	3269
3.33433	3268
3.33500	3268
3.33567	3268
3.33633	3267
3.33700	3267
3.33767	3266
3.33833	3266
3.33900	3265
3.33967	3265
3.34033	3265
3.34100	3264
3.34167	3264
3.34233	3264
3.34300	3264
3.34367	3263
3.34433	3263
3.34500	3263
3.34567	3263
3.34633	3262
3.34700	3262
3.34767	3262
3.34833	3262
3.34900	3262
3.34967	3261
3.35033	3261
3.35100	3261
3.35167	3261
3.35233	3260
3.35300	3260
3.35367	3260
3.35433	3260
3.35500	3259
3.35567	3259
3.35633	3259
3.35700	3259
3.35767	3259
3.35833	3259
3.35900	3259
3.35967	3258
3.36033	3258
3.36100	3258
3.36167	3258
3.36233	3258
3.36300	3257
3.36367	3257
3.36433	3257
3.36500	3257
3.36567	3257
3.36633	3257
3.36700	3257
3.36767	3257
3.36833	3257
3.36900	3257
3.36967	3257
3.37033	3257
3.37100	3258
3.37167	3258
3.37233	3258
3.37300	3258
3.37367	3259
3.37433	3259
3.37500	3259
3.37567	3259
3.37633	3260
3.37700	3260
3.37767	3260
3.37833	3260
3.37900	3261
3.37967	3261
3.38033	3261
3.38100	3262
3.38167	3262
3.38233	3262
3.38300	3263
3.38367	3263
3.38433	3264
3.38500	3264
3.38567	3264
3.38633	3265
3.38700	3265
3.38767	3266
3.38833	3266
3.38900	3266
3.38967	3267
3.39033	3267
3.39100	3268
3.39167	3268
3.39233	3269
3.39300	3269
3.39367	3270
3.39433	3271
3.39500	3271
3.39567	3272
3.39633	3272
3.39700	3273
3.39767	3274
3.39833	3274
3.39900	3275
3.39967	3276
3.40033	3277
3.40100	3277
3.40167	3278
3.40233	3279
3.40300	3280
3.40367	3281
3.40433	3282
3.40500	3283
3.40567	3284
3.40633	3285
3.40700	3286
3.40767	3287
3.40833	3288
3.40900	3290
3.40967	3291
3.41033	3292
3.41100	3293
3.41167	3295
3.41233	3296
3.41300	3297
3.41367	3299
3.41433	3300
3.41500	3301
3.41567	3303
3.41633	3304
3.41700	3306
3.41767	3307
3.41833	3309
3.41900	3311
3.41967	3312
3.42033	3314
3.42100	3316
3.42167	3317
3.42233	3319
3.42300	3321
3.42367	3323
3.42433	3325
3.42500	3327
3.42567	3329
3.42633	3331
3.42700	3333
3.42767	3335
3.42833	3337
3.42900	3340
3.42967	3342
3.43033	3345
3.43100	3347
3.43167	3350
3.43233	3352
3.43300	3355
3.43367	3358
3.43433	3361
3.43500	3363
3.43567	3366
3.43633	3369
3.43700	3372
3.43767	3376
3.43833	3379
3.43900	3382
3.43967	3386
3.44033	3389
3.44100	3393
3.44167	3396
3.44233	3400
3.44300	3404
3.44367	3408
3.44433	3412
3.44500	3416
3.44567	3420
3.44633	3424
3.44700	3428
3.44767	3433
3.44833	3437
3.44900	3442
3.44967	3447
3.45033	3452
3.45100	3457
3.45167	3462
3.45233	3467
3.45300	3472
3.45367	3477
3.45433	3482
3.45500	3488
3.45567	3493
3.45633	3499
3.45700	3504
3.45767	3510
3.45833	3516
3.45900	3522
3.45967	3528
3.46033	3534
3.46100	3540
3.46167	3546
3.46233	3553
3.46300	3559
3.46367	3566
3.46433	3573
3.46500	3579
3.46567	3586
3.46633	3593
3.46700	3600
3.46767	3607
3.46833	3614
3.46900	3621
3.46967	3628
3.47033	3635
3.47100	3642
3.47167	3649
3.47233	3656
3.47300	3663
3.47367	3671
3.47433	3678
3.47500	3685
3.47567	3693
3.47633	3700
3.47700	3708
3.47767	3715
3.47833	3723
3.47900	3731
3.47967	3738
3.48033	3746
3.48100	3754
3.48167	3762
3.48233	3770
3.48300	3778
3.48367	3786
3.48433	3794
3.48500	3802
3.48567	3811
3.48633	3819
3.48700	3827
3.48767	3836
3.48833	3845
3.48900	3853
3.48967	3862
3.49033	3871
3.49100	3880
3.49167	3889
3.49233	3898
3.49300	3908
3.49367	3918
3.49433	3927
3.49500	3937
3.49567	3948
3.49633	3958
3.49700	3969
3.49767	3980
3.49833	3991
3.49900	4003
3.49967	4015
3.50033	4027
3.50100	4040
3.50167	4053
3.50233	4066
3.50300	4080
3.50367	4094
3.50433	4108
3.50500	4123
3.50567	4139
3.50633	4155
3.50700	4172
3.50767	4189
3.50833	4207
3.50900	4225
3.50967	4244
3.51033	4264
3.51100	4285
3.51167	4306
3.51233	4328
3.51300	4351
3.51367	4374
3.51433	4399
3.51500	4424
3.51567	4450
3.51633	4477
3.51700	4505
3.51767	4534
3.51833	4564
3.51900	4594
3.51967	4626
3.52033	4659
3.52100	4692
3.52167	4727
3.52233	4762
3.52300	4799
3.52367	4836
3.52433	4875
3.52500	4914
3.52567	4955
3.52633	4996
3.52700	5039
3.52767	5082
3.52833	5127
3.52900	5172
3.52967	5219
3.53033	5266
3.53100	5314
3.53167	5363
3.53233	5413
3.53300	5464
3.53367	5516
3.53433	5568
3.53500	5621
3.53567	5675
3.53633	5730
3.53700	5785
3.53767	5840
3.53833	5897
3.53900	5953
3.53967	6010
3.54033	6068
3.54100	6126
3.54167	6184
3.54233	6243
3.54300	6301
3.54367	6360
3.54433	6419
3.54500	6479
3.54567	6538
3.54633	6597
3.54700	6657
3.54767	6716
3.54833	6775
3.54900	6833
3.54967	6891
3.55033	6949
3.55100	7006
3.55167	7063
3.55233	7119
3.55300	7174
3.55367	7228
3.55433	7282
3.55500	7335
3.55567	7386
3.55633	7437
3.55700	7487
3.55767	7536
3.55833	7583
3.55900	7629
3.55967	7674
3.56033	7718
3.56100	7761
3.56167	7802
3.56233	7841
3.56300	7880
3.56367	7917
3.56433	7952
3.56500	7986
3.56567	8018
3.56633	8049
3.56700	8078
3.56767	8105
3.56833	8131
3.56900	8155
3.56967	8177
3.57033	8198
3.57100	8217
3.57167	8234
3.57233	8250
3.57300	8263
3.57367	8276
3.57433	8286
3.57500	8295
3.57567	8303
3.57633	8309
3.57700	8313
3.57767	8316
3.57833	8317
3.57900	8317
3.57967	8315
3.58033	8312
3.58100	8307
3.58167	8301
3.58233	8294
3.58300	8285
3.58367	8275
3.58433	8264
3.58500	8251
3.58567	8237
3.58633	8222
3.58700	8206
3.58767	8189
3.58833	8170
3.58900	8151
3.58967	8131
3.59033	8109
3.59100	8087
3.59167	8064
3.59233	8040
3.59300	8015
3.59367	7990
3.59433	7963
3.59500	7936
3.59567	7908
3.59633	7880
3.59700	7851
3.59767	7821
3.59833	7791
3.59900	7760
3.59967	7729
3.60033	7697
3.60100	7665
3.60167	7633
3.60233	7600
3.60300	7567
3.60367	7534
3.60433	7500
3.60500	7466
3.60567	7432
3.60633	7398
3.60700	7363
3.60767	7329
3.60833	7294
3.60900	7259
3.60967	7224
3.61033	7189
3.61100	7154
3.61167	7119
3.61233	7084
3.61300	7049
3.61367	7014
3.61433	6979
3.61500	6944
3.61567	6909
3.61633	6874
3.61700	6839
3.61767	6804
3.61833	6770
3.61900	6735
3.61967	6701
3.62033	6666
3.62100	6632
3.62167	6598
3.62233	6564
3.62300	6530
3.62367	6496
3.62433	6462
3.62500	6429
3.62567	6395
3.62633	6362
3.62700	6329
3.62767	6296
3.62833	6263
3.62900	6231
3.62967	6199
3.63033	6166
3.63100	6134
3.63167	6103
3.63233	6071
3.63300	6039
3.63367	6008
3.63433	5977
3.63500	5946
3.63567	5915
3.63633	5885
3.63700	5854
3.63767	5824
3.63833	5794
3.63900	5765
3.63967	5735
3.64033	5706
3.64100	5677
3.64167	5648
3.64233	5620
3.64300	5591
3.64367	5563
3.64433	5535
3.64500	5507
3.64567	5480
3.64633	5452
3.64700	5425
3.64767	5398
3.64833	5372
3.64900	5345
3.64967	5319
3.65033	5293
3.65100	5267
3.65167	5242
3.65233	5216
3.65300	5191
3.65367	5167
3.65433	5142
3.65500	5118
3.65567	5094
3.65633	5070
3.65700	5046
3.65767	5023
3.65833	5000
3.65900	4977
3.65967	4954
3.66033	4932
3.66100	4910
3.66167	4888
3.66233	4866
3.66300	4845
3.66367	4823
3.66433	4802
3.66500	4782
3.66567	4761
3.66633	4741
3.66700	4721
3.66767	4701
3.66833	4681
3.66900	4662
3.66967	4643
3.67033	4624
3.67100	4605
3.67167	4587
3.67233	4569
3.67300	4551
3.67367	4533
3.67433	4516
3.67500	4498
3.67567	4481
3.67633	4465
3.67700	4448
3.67767	4432
3.67833	4416
3.67900	4400
3.67967	4384
3.68033	4368
3.68100	4353
3.68167	4338
3.68233	4323
3.68300	4309
3.68367	4294
3.68433	4280
3.68500	4266
3.68567	4252
3.68633	4238
3.68700	4224
3.68767	4211
3.68833	4198
3.68900	4185
3.68967	4172
3.69033	4160
3.69100	4147
3.69167	4135
3.69233	4123
3.69300	4111
3.69367	4099
3.69433	4088
3.69500	4076
3.69567	4065
3.69633	4054
3.69700	4043
3.69767	4032
3.69833	4022
3.69900	4011
3.69967	4001
3.70033	3991
3.70100	3981
3.70167	3971
3.70233	3962
3.70300	3952
3.70367	3943
3.70433	3934
3.70500	3925
3.70567	3916
3.70633	3907
3.70700	3898
3.70767	3890
3.70833	3881
3.70900	3873
3.70967	3865
3.71033	3857
3.71100	3849
3.71167	3842
3.71233	3834
3.71300	3827
3.71367	3819
3.71433	3812
3.71500	3805
3.71567	3798
3.71633	3791
3.71700	3784
3.71767	3777
3.71833	3771
3.71900	3764
3.71967	3758
3.72033	3752
3.72100	3745
3.72167	3739
3.72233	3733
3.72300	3727
3.72367	3721
3.72433	3715
3.72500	3710
3.72567	3704
3.72633	3698
3.72700	3693
3.72767	3688
3.72833	3682
3.72900	3677
3.72967	3672
3.73033	3666
3.73100	3661
3.73167	3656
3.73233	3651
3.73300	3647
3.73367	3642
3.73433	3637
3.73500	3632
3.73567	3628
3.73633	3623
3.73700	3618
3.73767	3614
3.73833	3609
3.73900	3605
3.73967	3601
3.74033	3597
3.74100	3592
3.74167	3588
3.74233	3584
3.74300	3580
3.74367	3576
3.74433	3572
3.74500	3568
3.74567	3564
3.74633	3560
3.74700	3556
3.74767	3552
3.74833	3549
3.74900	3545
3.74967	3541
3.75033	3537
3.75100	3534
3.75167	3530
3.75233	3526
3.75300	3523
3.75367	3519
3.75433	3516
3.75500	3512
3.75567	3509
3.75633	3505
3.75700	3502
3.75767	3499
3.75833	3495
3.75900	3492
3.75967	3489
3.76033	3486
3.76100	3482
3.76167	3479
3.76233	3476
3.76300	3473
3.76367	3470
3.76433	3467
3.76500	3464
3.76567	3461
3.76633	3458
3.76700	3455
3.76767	3451
3.76833	3448
3.76900	3445
3.76967	3442
3.77033	3439
3.77100	3436
3.77167	3433
3.77233	3430
3.77300	3427
3.77367	3424
3.77433	3422
3.77500	3419
3.77567	3416
3.77633	3413
3.77700	3410
3.77767	3408
3.77833	3405
3.77900	3402
3.77967	3400
3.78033	3397
3.78100	3394
3.78167	3392
3.78233	3389
3.78300	3387
3.78367	3384
3.78433	3382
3.78500	3380
3.78567	3377
3.78633	3375
3.78700	3372
3.78767	3370
3.78833	3368
3.78900	3365
3.78967	3363
3.79033	3361
3.79100	3359
3.79167	3356
3.79233	3354
3.79300	3352
3.79367	3350
3.79433	3348
3.79500	3346
3.79567	3344
3.79633	3342
3.79700	3339
3.79767	3337
3.79833	3335
3.79900	3333
3.79967	3331
3.80033	3330
3.80100	3328
3.80167	3326
3.80233	3324
3.80300	3322
3.80367	3320
3.80433	3318
3.80500	3316
3.80567	3314
3.80633	3312
3.80700	3310
3.80767	3308
3.80833	3306
3.80900	3304
3.80967	3302
3.81033	3301
3.81100	3299
3.81167	3297
3.81233	3295
3.81300	3293
3.81367	3291
3.81433	3289
3.81500	3288
3.81567	3286
3.81633	3284
3.81700	3282
3.81767	3280
3.81833	3278
3.81900	3277
3.81967	3275
3.82033	3273
3.82100	3271
3.82167	3269
3.82233	3268
3.82300	3266
3.82367	3264
3.82433	3263
3.82500	3261
3.82567	3259
3.82633	3258
3.82700	3256
3.82767	3254
3.82833	3253
3.82900	3251
3.82967	3250
3.83033	3248
3.83100	3247
3.83167	3245
3.83233	3243
3.83300	3242
3.83367	3240
3.83433	3239
3.83500	3237
3.83567	3235
3.83633	3234
3.83700	3232
3.83767	3231
3.83833	3229
3.83900	3228
3.83967	3226
3.84033	3225
3.84100	3223
3.84167	3222
3.84233	3220
3.84300	3219
3.84367	3217
3.84433	3216
3.84500	3215
3.84567	3213
3.84633	3212
3.84700	3211
3.84767	3209
3.84833	3208
3.84900	3207
3.84967	3205
3.85033	3204
3.85100	3202
3.85167	3201
3.85233	3200
3.85300	3198
3.85367	3197
3.85433	3196
3.85500	3194
3.85567	3193
3.85633	3192
3.85700	3191
3.85767	3189
3.85833	3188
3.85900	3187
3.85967	3186
3.86033	3184
3.86100	3183
3.86167	3182
3.86233	3181
3.86300	3179
3.86367	3178
3.86433	3177
3.86500	3176
3.86567	3174
3.86633	3173
3.86700	3172
3.86767	3171
3.86833	3169
3.86900	3168
3.86967	3167
3.87033	3166
3.87100	3164
3.87167	3163
3.87233	3162
3.87300	3161
3.87367	3160
3.87433	3159
3.87500	3158
3.87567	3156
3.87633	3155
3.87700	3154
3.87767	3153
3.87833	3152
3.87900	3151
3.87967	3151
3.88033	3150
3.88100	3149
3.88167	3148
3.88233	3147
3.88300	3146
3.88367	3145
3.88433	3145
3.88500	3144
3.88567	3143
3.88633	3142
3.88700	3141
3.88767	3141
3.88833	3140
3.88900	3139
3.88967	3138
3.89033	3137
3.89100	3136
3.89167	3135
3.89233	3135
3.89300	3134
3.89367	3133
3.89433	3132
3.89500	3131
3.89567	3130
3.89633	3129
3.89700	3129
3.89767	3128
3.89833	3127
3.89900	3126
3.89967	3126
3.90033	3125
3.90100	3124
3.90167	3123
3.90233	3123
3.90300	3122
3.90367	3121
3.90433	3121
3.90500	3120
3.90567	3119
3.90633	3119
3.90700	3118
3.90767	3117
3.90833	3117
3.90900	3116
3.90967	3115
3.91033	3115
3.91100	3114
3.91167	3113
3.91233	3113
3.91300	3112
3.91367	3112
3.91433	3111
3.91500	3111
3.91567	3110
3.91633	3110
3.91700	3109
3.91767	3108
3.91833	3108
3.91900	3107
3.91967	3107
3.92033	3106
3.92100	3105
3.92167	3105
3.92233	3104
3.92300	3104
3.92367	3103
3.92433	3102
3.92500	3102
3.92567	3101
3.92633	3101
3.92700	3100
3.92767	3099
3.92833	3099
3.92900	3098
3.92967	3097
3.93033	3097
3.93100	3096
3.93167	3096
3.93233	3095
3.93300	3094
3.93367	3094
3.93433	3093
3.93500	3092
3.93567	3092
3.93633	3091
3.93700	3091
3.93767	3090
3.93833	3089
3.93900	3089
3.93967	3088
3.94033	3088
3.94100	3087
3.94167	3087
3.94233	3086
3.94300	3085
3.94367	3085
3.94433	3084
3.94500	3084
3.94567	3083
3.94633	3083
3.94700	3082
3.94767	3082
3.94833	3081
3.94900	3080
3.94967	3080
3.95033	3079
3.95100	3079
3.95167	3078
3.95233	3078
3.95300	3077
3.95367	3077
3.95433	3076
3.95500	3076
3.95567	3075
3.95633	3075
3.95700	3074
3.95767	3074
3.95833	3073
3.95900	3073
3.95967	3073
3.96033	3072
3.96100	3072
3.96167	3071
3.96233	3071
3.96300	3070
3.96367	3070
3.96433	3070
3.96500	3069
3.96567	3069
3.96633	3068
3.96700	3068
3.96767	3067
3.96833	3067
3.96900	3066
3.96967	3066
3.97033	3066
3.97100	3065
3.97167	3065
3.97233	3064
3.97300	3064
3.97367	3064
3.97433	3063
3.97500	3063
3.97567	3062
3.97633	3062
3.97700	3062
3.97767	3061
3.97833	3061
3.97900	3061
3.97967	3060
3.98033	3060
3.98100	3060
3.98167	3059
3.98233	3059
3.98300	3059
3.98367	3058
3.98433	3058
3.98500	3058
3.98567	3058
3.98633	3057
3.98700	3057
3.98767	3057
3.98833	3057
3.98900	3057
3.98967	3057
3.99033	3057
3.99100	3057
3.99167	3057
3.99233	3057
3.99300	3057
3.99367	3057
3.99433	3057
3.99500	3057
3.99567	3057
3.99633	3057
3.99700	3058
3.99767	3058
3.99833	3058
3.99900	3059
3.99967	3059
4.00033	3060
4.00100	3061
4.00167	3061
4.00233	3062
4.00300	3063
4.00367	3064
4.00433	3065
4.00500	3066
4.00567	3067
4.00633	3068
4.00700	3070
4.00767	3071
4.00833	3072
4.00900	3074
4.00967	3075
4.01033	3076
4.01100	3078
4.01167	3079
4.01233	3081
4.01300	3083
4.01367	3084
4.01433	3086
4.01500	3088
4.01567	3090
4.01633	3092
4.01700	3094
4.01767	3096
4.01833	3098
4.01900	3100
4.01967	3103
4.02033	3105
4.02100	3108
4.02167	3110
4.02233	3113
4.02300	3115
4.02367	3118
4.02433	3121
4.02500	3124
4.02567	3127
4.02633	3130
4.02700	3133
4.02767	3136
4.02833	3140
4.02900	3143
4.02967	3147
4.03033	3150
4.03100	3154
4.03167	3157
4.03233	3161
4.03300	3165
4.03367	3169
4.03433	3173
4.03500	3177
4.03567	3181
4.03633	3185
4.03700	3189
4.03767	3193
4.03833	3198
4.03900	3202
4.03967	3207
4.04033	3211
4.04100	3215
4.04167	3220
4.04233	3225
4.04300	3229
4.04367	3234
4.04433	3238
4.04500	3243
4.04567	3248
4.04633	3253
4.04700	3258
4.04767	3262
4.04833	3267
4.04900	3272
4.04967	3277
4.05033	3282
4.05100	3287
4.05167	3292
4.05233	3297
4.05300	3303
4.05367	3308
4.05433	3313
4.05500	3318
4.05567	3323
4.05633	3328
4.05700	3333
4.05767	3338
4.05833	3343
4.05900	3348
4.05967	3354
4.06033	3359
4.06100	3364
4.06167	3369
4.06233	3374
4.06300	3378
4.06367	3383
4.06433	3388
4.06500	3393
4.06567	3398
4.06633	3403
4.06700	3407
4.06767	3412
4.06833	3417
4.06900	3421
4.06967	3426
4.07033	3431
4.07100	3435
4.07167	3440
4.07233	3444
4.07300	3448
4.07367	3453
4.07433	3457
4.07500	3461
4.07567	3465
4.07633	3469
4.07700	3473
4.07767	3477
4.07833	3481
4.07900	3485
4.07967	3488
4.08033	3492
4.08100	3495
4.08167	3499
4.08233	3502
4.08300	3506
4.08367	3509
4.08433	3512
4.08500	3515
4.08567	3518
4.08633	3521
4.08700	3524
4.08767	3526
4.08833	3529
4.08900	3532
4.08967	3534
4.09033	3537
4.09100	3539
4.09167	3542
4.09233	3544
4.09300	3546
4.09367	3548
4.09433	3550
4.09500	3552
4.09567	3553
4.09633	3555
4.09700	3557
4.09767	3558
4.09833	3559
4.09900	3561
4.09967	3562
4.10033	3563
4.10100	3564
4.10167	3565
4.10233	3566
4.10300	3567
4.10367	3568
4.10433	3568
4.10500	3569
4.10567	3569
4.10633	3570
4.10700	3570
4.10767	3571
4.10833	3571
4.10900	3572
4.10967	3572
4.11033	3572
4.11100	3572
4.11167	3572
4.11233	3573
4.11300	3573
4.11367	3572
4.11433	3572
4.11500	3572
4.11567	3572
4.11633	3572
4.11700	3572
4.11767	3571
4.11833	3571
4.11900	3570
4.11967	3570
4.12033	3570
4.12100	3569
4.12167	3569
4.12233	3568
4.12300	3568
4.12367	3567
4.12433	3567
4.12500	3566
4.12567	3566
4.12633	3565
4.12700	3565
4.12767	3565
4.12833	3564
4.12900	3563
4.12967	3563
4.13033	3562
4.13100	3562
4.13167	3561
4.13233	3561
4.13300	3561
4.13367	3560
4.13433	3560
4.13500	3559
4.13567	3559
4.13633	3559
4.13700	3558
4.13767	3558
4.13833	3558
4.13900	3557
4.13967	3557
4.14033	3557
4.14100	3556
4.14167	3556
4.14233	3555
4.14300	3555
4.14367	3555
4.14433	3554
4.14500	3554
4.14567	3554
4.14633	3553
4.14700	3553
4.14767	3553
4.14833	3552
4.14900	3552
4.14967	3552
4.15033	3551
4.15100	3551
4.15167	3551
4.15233	3550
4.15300	3550
4.15367	3549
4.15433	3549
4.15500	3548
4.15567	3548
4.15633	3547
4.15700	3547
4.15767	3547
4.15833	3546
4.15900	3546
4.15967	3545
4.16033	3544
4.16100	3544
4.16167	3543
4.16233	3543
4.16300	3542
4.16367	3542
4.16433	3541
4.16500	3540
4.16567	3540
4.16633	3539
4.16700	3539
4.16767	3538
4.16833	3537
4.16900	3537
4.16967	3536
4.17033	3535
4.17100	3535
4.17167	3534
4.17233	3533
4.17300	3532
4.17367	3532
4.17433	3531
4.17500	3530
4.17567	3529
4.17633	3528
4.17700	3528
4.17767	3527
4.17833	3526
4.17900	3525
4.17967	3524
4.18033	3523
4.18100	3522
4.18167	3522
4.18233	3521
4.18300	3520
4.18367	3519
4.18433	3518
4.18500	3517
4.18567	3516
4.18633	3515
4.18700	3514
4.18767	3513
4.18833	3513
4.18900	3512
4.18967	3511
4.19033	3510
4.19100	3509
4.19167	3509
4.19233	3508
4.19300	3508
4.19367	3507
4.19433	3506
4.19500	3506
4.19567	3506
4.19633	3505
4.19700	3505
4.19767	3505
4.19833	3505
4.19900	3505
4.19967	3505
4.20033	3505
4.20100	3505
4.20167	3505
4.20233	3505
4.20300	3506
4.20367	3506
4.20433	3507
4.20500	3507
4.20567	3508
4.20633	3509
4.20700	3510
4.20767	3511
4.20833	3512
4.20900	3513
4.20967	3515
4.21033	3516
4.21100	3518
4.21167	3519
4.21233	3521
4.21300	3523
4.21367	3525
4.21433	3527
4.21500	3530
4.21567	3532
4.21633	3535
4.21700	3537
4.21767	3540
4.21833	3543
4.21900	3547
4.21967	3550
4.22033	3553
4.22100	3557
4.22167	3561
4.22233	3565
4.22300	3569
4.22367	3574
4.22433	3578
4.22500	3583
4.22567	3588
4.22633	3593
4.22700	3599
4.22767	3605
4.22833	3611
4.22900	3617
4.22967	3624
4.23033	3630
4.23100	3638
4.23167	3645
4.23233	3652
4.23300	3660
4.23367	3668
4.23433	3677
4.23500	3685
4.23567	3694
4.23633	3703
4.23700	3713
4.23767	3723
4.23833	3733
4.23900	3743
4.23967	3754
4.24033	3764
4.24100	3775
4.24167	3787
4.24233	3799
4.24300	3810
4.24367	3823
4.24433	3835
4.24500	3848
4.24567	3861
4.24633	3875
4.24700	3889
4.24767	3903
4.24833	3917
4.24900	3932
4.24967	3947
4.25033	3962
4.25100	3978
4.25167	3994
4.25233	4010
4.25300	4027
4.25367	4043
4.25433	4061
4.25500	4078
4.25567	4096
4.25633	4114
4.25700	4132
4.25767	4151
4.25833	4170
4.25900	4189
4.25967	4209
4.26033	4229
4.26100	4249
4.26167	4269
4.26233	4290
4.26300	4311
4.26367	4332
4.26433	4353
4.26500	4375
4.26567	4397
4.26633	4419
4.26700	4442
4.26767	4465
4.26833	4488
4.26900	4511
4.26967	4535
4.27033	4559
4.27100	4583
4.27167	4607
4.27233	4632
4.27300	4656
4.27367	4681
4.27433	4707
4.27500	4732
4.27567	4758
4.27633	4784
4.27700	4810
4.27767	4836
4.27833	4863
4.27900	4890
4.27967	4917
4.28033	4944
4.28100	4971
4.28167	4999
4.28233	5026
4.28300	5054
4.28367	5083
4.28433	5111
4.28500	5140
4.28567	5168
4.28633	5197
4.28700	5227
4.28767	5256
4.28833	5285
4.28900	5315
4.28967	5345
4.29033	5375
4.29100	5405
4.29167	5435
4.29233	5465
4.29300	5495
4.29367	5526
4.29433	5556
4.29500	5586
4.29567	5617
4.29633	5647
4.29700	5678
4.29767	5708
4.29833	5739
4.29900	5769
4.29967	5800
4.30033	5830
4.30100	5860
4.30167	5890
4.30233	5921
4.30300	5950
4.30367	5980
4.30433	6010
4.30500	6040
4.30567	6069
4.30633	6098
4.30700	6127
4.30767	6156
4.30833	6185
4.30900	6213
4.30967	6241
4.31033	6269
4.31100	6296
4.31167	6324
4.31233	6351
4.31300	6377
4.31367	6404
4.31433	6430
4.31500	6456
4.31567	6481
4.31633	6506
4.31700	6531
4.31767	6556
4.31833	6580
4.31900	6604
4.31967	6627
4.32033	6650
4.32100	6673
4.32167	6695
4.32233	6716
4.32300	6738
4.32367	6758
4.32433	6779
4.32500	6799
4.32567	6818
4.32633	6837
4.32700	6855
4.32767	6873
4.32833	6891
4.32900	6908
4.32967	6924
4.33033	6941
4.33100	6956
4.33167	6971
4.33233	6986
4.33300	7000
4.33367	7014
4.33433	7027
4.33500	7040
4.33567	7052
4.33633	7064
4.33700	7076
4.33767	7086
4.33833	7097
4.33900	7107
4.33967	7116
4.34033	7125
4.34100	7133
4.34167	7141
4.34233	7149
4.34300	7156
4.34367	7163
4.34433	7169
4.34500	7175
4.34567	7180
4.34633	7185
4.34700	7190
4.34767	7194
4.34833	7198
4.34900	7202
4.34967	7205
4.35033	7209
4.35100	7212
4.35167	7214
4.35233	7217
4.35300	7219
4.35367	7221
4.35433	7224
4.35500	7225
4.35567	7227
4.35633	7229
4.35700	7231
4.35767	7232
4.35833	7234
4.35900	7236
4.35967	7238
4.36033	7240
4.36100	7242
4.36167	7245
4.36233	7247
4.36300	7250
4.36367	7253
4.36433	7257
4.36500	7261
4.36567	7266
4.36633	7270
4.36700	7276
4.36767	7282
4.36833	7289
4.36900	7296
4.36967	7304
4.37033	7312
4.37100	7321
4.37167	7331
4.37233	7342
4.37300	7354
4.37367	7366
4.37433	7380
4.37500	7394
4.37567	7409
4.37633	7425
4.37700	7443
4.37767	7461
4.37833	7480
4.37900	7501
4.37967	7523
4.38033	7546
4.38100	7570
4.38167	7595
4.38233	7622
4.38300	7650
4.38367	7679
4.38433	7710
4.38500	7742
4.38567	7775
4.38633	7809
4.38700	7845
4.38767	7882
4.38833	7921
4.38900	7961
4.38967	8003
4.39033	8045
4.39100	8090
4.39167	8136
4.39233	8183
4.39300	8232
4.39367	8282
4.39433	8334
4.39500	8388
4.39567	8442
4.39633	8499
4.39700	8557
4.39767	8617
4.39833	8678
4.39900	8741
4.39967	8806
4.40033	8872
4.40100	8939
4.40167	9009
4.40233	9079
4.40300	9151
4.40367	9225
4.40433	9300
4.40500	9376
4.40567	9454
4.40633	9533
4.40700	9613
4.40767	9694
4.40833	9777
4.40900	9860
4.40967	9945
4.41033	10031
4.41100	10118
4.41167	10206
4.41233	10295
4.41300	10385
4.41367	10476
4.41433	10567
4.41500	10660
4.41567	10753
4.41633	10847
4.41700	10941
4.41767	11036
4.41833	11131
4.41900	11227
4.41967	11323
4.42033	11419
4.42100	11516
4.42167	11613
4.42233	11709
4.42300	11806
4.42367	11903
4.42433	12000
4.42500	12097
4.42567	12193
4.42633	12290
4.42700	12386
4.42767	12482
4.42833	12577
4.42900	12672
4.42967	12766
4.43033	12859
4.43100	12952
4.43167	13044
4.43233	13135
4.43300	13225
4.43367	13314
4.43433	13402
4.43500	13488
4.43567	13574
4.43633	13658
4.43700	13741
4.43767	13822
4.43833	13902
4.43900	13981
4.43967	14058
4.44033	14133
4.44100	14206
4.44167	14278
4.44233	14348
4.44300	14416
4.44367	14482
4.44433	14546
4.44500	14608
4.44567	14668
4.44633	14726
4.44700	14781
4.44767	14834
4.44833	14884
4.44900	14932
4.44967	14978
4.45033	15021
4.45100	15061
4.45167	15099
4.45233	15135
4.45300	15168
4.45367	15198
4.45433	15226
4.45500	15251
4.45567	15274
4.45633	15295
4.45700	15312
4.45767	15327
4.45833	15340
4.45900	15349
4.45967	15356
4.46033	15361
4.46100	15362
4.46167	15361
4.46233	15357
4.46300	15351
4.46367	15342
4.46433	15330
4.46500	15315
4.46567	15298
4.46633	15278
4.46700	15256
4.46767	15231
4.46833	15204
4.46900	15174
4.46967	15142
4.47033	15107
4.47100	15070
4.47167	15031
4.47233	14990
4.47300	14946
4.47367	14900
4.47433	14852
4.47500	14801
4.47567	14749
4.47633	14694
4.47700	14638
4.47767	14579
4.47833	14519
4.47900	14456
4.47967	14392
4.48033	14326
4.48100	14259
4.48167	14189
4.48233	14119
4.48300	14046
4.48367	13973
4.48433	13898
4.48500	13822
4.48567	13744
4.48633	13665
4.48700	13585
4.48767	13504
4.48833	13422
4.48900	13340
4.48967	13256
4.49033	13171
4.49100	13086
4.49167	13000
4.49233	12913
4.49300	12826
4.49367	12738
4.49433	12650
4.49500	12561
4.49567	12472
4.49633	12383
4.49700	12294
4.49767	12204
4.49833	12114
4.49900	12024
4.49967	11935
4.50033	11845
4.50100	11755
4.50167	11666
4.50233	11576
4.50300	11487
4.50367	11399
4.50433	11310
4.50500	11223
4.50567	11135
4.50633	11049
4.50700	10962
4.50767	10877
4.50833	10792
4.50900	10708
4.50967	10625
4.51033	10543
4.51100	10461
4.51167	10381
4.51233	10301
4.51300	10223
4.51367	10145
4.51433	10069
4.51500	9994
4.51567	9920
4.51633	9847
4.51700	9776
4.51767	9706
4.51833	9637
4.51900	9570
4.51967	9504
4.52033	9440
4.52100	9377
4.52167	9316
4.52233	9257
4.52300	9199
4.52367	9143
4.52433	9089
4.52500	9036
4.52567	8985
4.52633	8936
4.52700	8889
4.52767	8844
4.52833	8801
4.52900	8759
4.52967	8720
4.53033	8683
4.53100	8647
4.53167	8614
4.53233	8582
4.53300	8553
4.53367	8525
4.53433	8500
4.53500	8477
4.53567	8456
4.53633	8436
4.53700	8419
4.53767	8404
4.53833	8392
4.53900	8381
4.53967	8372
4.54033	8365
4.54100	8361
4.54167	8359
4.54233	8359
4.54300	8360
4.54367	8364
4.54433	8371
4.54500	8379
4.54567	8389
4.54633	8401
4.54700	8415
4.54767	8432
4.54833	8450
4.54900	8470
4.54967	8493
4.55033	8517
4.55100	8543
4.55167	8572
4.55233	8602
4.55300	8634
4.55367	8668
4.55433	8703
4.55500	8741
4.55567	8780
4.55633	8821
4.55700	8864
4.55767	8909
4.55833	8955
4.55900	9003
4.55967	9053
4.56033	9104
4.56100	9156
4.56167	9211
4.56233	9266
4.56300	9323
4.56367	9382
4.56433	9442
4.56500	9504
4.56567	9567
4.56633	9631
4.56700	9697
4.56767	9764
4.56833	9832
4.56900	9901
4.56967	9972
4.57033	10044
4.57100	10117
4.57167	10190
4.57233	10265
4.57300	10341
4.57367	10417
4.57433	10495
4.57500	10573
4.57567	10651
4.57633	10730
4.57700	10810
4.57767	10890
4.57833	10971
4.57900	11052
4.57967	11133
4.58033	11215
4.58100	11296
4.58167	11378
4.58233	11460
4.58300	11542
4.58367	11624
4.58433	11706
4.58500	11787
4.58567	11869
4.58633	11950
4.58700	12031
4.58767	12112
4.58833	12192
4.58900	12271
4.58967	12350
4.59033	12429
4.59100	12507
4.59167	12584
4.59233	12661
4.59300	12736
4.59367	12811
4.59433	12886
4.59500	12959
4.59567	13031
4.59633	13103
4.59700	13173
4.59767	13243
4.59833	13311
4.59900	13378
4.59967	13444
4.60033	13509
4.60100	13572
4.60167	13634
4.60233	13695
4.60300	13754
4.60367	13812
4.60433	13868
4.60500	13923
4.60567	13977
4.60633	14028
4.60700	14079
4.60767	14127
4.60833	14174
4.60900	14220
4.60967	14264
4.61033	14306
4.61100	14347
4.61167	14386
4.61233	14424
4.61300	14460
4.61367	14494
4.61433	14527
4.61500	14559
4.61567	14588
4.61633	14616
4.61700	14643
4.61767	14668
4.61833	14691
4.61900	14713
4.61967	14733
4.62033	14752
4.62100	14769
4.62167	14785
4.62233	14799
4.62300	14811
4.62367	14822
4.62433	14831
4.62500	14839
4.62567	14845
4.62633	14850
4.62700	14853
4.62767	14854
4.62833	14854
4.62900	14853
4.62967	14850
4.63033	14846
4.63100	14841
4.63167	14834
4.63233	14826
4.63300	14817
4.63367	14807
4.63433	14795
4.63500	14782
4.63567	14768
4.63633	14753
4.63700	14737
4.63767	14719
4.63833	14701
4.63900	14682
4.63967	14662
4.64033	14641
4.64100	14618
4.64167	14596
4.64233	14572
4.64300	14547
4.64367	14522
4.64433	14496
4.64500	14469
4.64567	14441
4.64633	14413
4.64700	14385
4.64767	14355
4.64833	14325
4.64900	14295
4.64967	14264
4.65033	14232
4.65100	14200
4.65167	14167
4.65233	14134
4.65300	14100
4.65367	14066
4.65433	14032
4.65500	13997
4.65567	13961
4.65633	13926
4.65700	13890
4.65767	13854
4.65833	13817
4.65900	13780
4.65967	13744
4.66033	13707
4.66100	13670
4.66167	13633
4.66233	13595
4.66300	13558
4.66367	13521
4.66433	13484
4.66500	13447
4.66567	13410
4.66633	13373
4.66700	13336
4.66767	13300
4.66833	13263
4.66900	13227
4.66967	13190
4.67033	13154
4.67100	13118
4.67167	13082
4.67233	13046
4.67300	13011
4.67367	12975
4.67433	12940
4.67500	12905
4.67567	12870
4.67633	12835
4.67700	12800
4.67767	12766
4.67833	12732
4.67900	12697
4.67967	12664
4.68033	12630
4.68100	12596
4.68167	12563
4.68233	12530
4.68300	12497
4.68367	12464
4.68433	12431
4.68500	12398
4.68567	12366
4.68633	12333
4.68700	12301
4.68767	12269
4.68833	12238
4.68900	12206
4.68967	12175
4.69033	12143
4.69100	12112
4.69167	12082
4.69233	12051
4.69300	12021
4.69367	11990
4.69433	11960
4.69500	11930
4.69567	11900
4.69633	11871
4.69700	11841
4.69767	11812
4.69833	11783
4.69900	11754
4.69967	11725
4.70033	11697
4.70100	11668
4.70167	11640
4.70233	11612
4.70300	11584
4.70367	11557
4.70433	11530
4.70500	11503
4.70567	11476
4.70633	11449
4.70700	11423
4.70767	11397
4.70833	11371
4.70900	11345
4.70967	11320
4.71033	11295
4.71100	11270
4.71167	11245
4.71233	11220
4.71300	11196
4.71367	11172
4.71433	11148
4.71500	11124
4.71567	11100
4.71633	11077
4.71700	11054
4.71767	11031
4.71833	11008
4.71900	10985
4.71967	10963
4.72033	10941
4.72100	10919
4.72167	10897
4.72233	10876
4.72300	10854
4.72367	10833
4.72433	10812
4.72500	10792
4.72567	10771
4.72633	10750
4.72700	10730
4.72767	10710
4.72833	10689
4.72900	10669
4.72967	10649
4.73033	10630
4.73100	10610
4.73167	10590
4.73233	10571
4.73300	10552
4.73367	10533
4.73433	10514
4.73500	10495
4.73567	10476
4.73633	10457
4.73700	10439
4.73767	10421
4.73833	10402
4.73900	10384
4.73967	10366
4.74033	10349
4.74100	10331
4.74167	10314
4.74233	10297
4.74300	10280
4.74367	10263
4.74433	10246
4.74500	10230
4.74567	10213
4.74633	10197
4.74700	10181
4.74767	10165
4.74833	10150
4.74900	10134
4.74967	10119
4.75033	10104
4.75100	10089
4.75167	10074
4.75233	10060
4.75300	10045
4.75367	10031
4.75433	10017
4.75500	10003
4.75567	9989
4.75633	9976
4.75700	9962
4.75767	9949
4.75833	9935
4.75900	9922
4.75967	9909
4.76033	9896
4.76100	9884
4.76167	9871
4.76233	9859
4.76300	9846
4.76367	9834
4.76433	9822
4.76500	9809
4.76567	9797
4.76633	9785
4.76700	9773
4.76767	9761
4.76833	9750
4.76900	9738
4.76967	9726
4.77033	9715
4.77100	9703
4.77167	9692
4.77233	9680
4.77300	9669
4.77367	9657
4.77433	9646
4.77500	9635
4.77567	9624
4.77633	9612
4.77700	9601
4.77767	9590
4.77833	9579
4.77900	9568
4.77967	9557
4.78033	9546
4.78100	9535
4.78167	9524
4.78233	9514
4.78300	9503
4.78367	9492
4.78433	9482
4.78500	9471
4.78567	9461
4.78633	9451
4.78700	9441
4.78767	9431
4.78833	9421
4.78900	9411
4.78967	9401
4.79033	9392
4.79100	9382
4.79167	9372
4.79233	9363
4.79300	9353
4.79367	9344
4.79433	9334
4.79500	9325
4.79567	9315
4.79633	9306
4.79700	9296
4.79767	9287
4.79833	9277
4.79900	9267
4.79967	9258
4.80033	9248
4.80100	9238
4.80167	9229
4.80233	9219
4.80300	9209
4.80367	9199
4.80433	9190
4.80500	9180
4.80567	9170
4.80633	9160
4.80700	9150
4.80767	9140
4.80833	9130
4.80900	9121
4.80967	9111
4.81033	9101
4.81100	9091
4.81167	9081
4.81233	9071
4.81300	9061
4.81367	9051
4.81433	9041
4.81500	9031
4.81567	9021
4.81633	9012
4.81700	9002
4.81767	8992
4.81833	8983
4.81900	8973
4.81967	8964
4.82033	8954
4.82100	8945
4.82167	8935
4.82233	8926
4.82300	8917
4.82367	8908
4.82433	8899
4.82500	8889
4.82567	8880
4.82633	8871
4.82700	8863
4.82767	8854
4.82833	8845
4.82900	8836
4.82967	8828
4.83033	8819
4.83100	8811
4.83167	8802
4.83233	8794
4.83300	8786
4.83367	8777
4.83433	8769
4.83500	8761
4.83567	8753
4.83633	8744
4.83700	8736
4.83767	8728
4.83833	8720
4.83900	8712
4.83967	8704
4.84033	8696
4.84100	8688
4.84167	8680
4.84233	8672
4.84300	8665
4.84367	8657
4.84433	8649
4.84500	8642
4.84567	8634
4.84633	8626
4.84700	8619
4.84767	8611
4.84833	8603
4.84900	8595
4.84967	8588
4.85033	8580
4.85100	8572
4.85167	8564
4.85233	8556
4.85300	8548
4.85367	8540
4.85433	8531
4.85500	8523
4.85567	8515
4.85633	8507
4.85700	8499
4.85767	8491
4.85833	8483
4.85900	8475
4.85967	8468
4.86033	8460
4.86100	8452
4.86167	8445
4.86233	8437
4.86300	8430
4.86367	8422
4.86433	8415
4.86500	8408
4.86567	8400
4.86633	8393
4.86700	8386
4.86767	8379
4.86833	8372
4.86900	8365
4.86967	8358
4.87033	8351
4.87100	8344
4.87167	8338
4.87233	8331
4.87300	8324
4.87367	8317
4.87433	8310
4.87500	8304
4.87567	8297
4.87633	8290
4.87700	8283
4.87767	8277
4.87833	8270
4.87900	8263
4.87967	8256
4.88033	8250
4.88100	8243
4.88167	8236
4.88233	8230
4.88300	8223
4.88367	8216
4.88433	8209
4.88500	8203
4.88567	8196
4.88633	8189
4.88700	8182
4.88767	8175
4.88833	8168
4.88900	8162
4.88967	8155
4.89033	8148
4.89100	8141
4.89167	8134
4.89233	8127
4.89300	8120
4.89367	8113
4.89433	8106
4.89500	8099
4.89567	8093
4.89633	8086
4.89700	8079
4.89767	8072
4.89833	8065
4.89900	8058
4.89967	8051
4.90033	8045
4.90100	8038
4.90167	8031
4.90233	8025
4.90300	8018
4.90367	8011
4.90433	8005
4.90500	7998
4.90567	7992
4.90633	7986
4.90700	7979
4.90767	7973
4.90833	7967
4.90900	7961
4.90967	7954
4.91033	7948
4.91100	7942
4.91167	7936
4.91233	7930
4.91300	7924
4.91367	7918
4.91433	7912
4.91500	7906
4.91567	7900
4.91633	7894
4.91700	7889
4.91767	7883
4.91833	7877
4.91900	7872
4.91967	7866
4.92033	7860
4.92100	7855
4.92167	7849
4.92233	7844
4.92300	7838
4.92367	7833
4.92433	7827
4.92500	7822
4.92567	7816
4.92633	7811
4.92700	7805
4.92767	7800
4.92833	7794
4.92900	7789
4.92967	7783
4.93033	7778
4.93100	7772
4.93167	7767
4.93233	7761
4.93300	7756
4.93367	7750
4.93433	7745
4.93500	7739
4.93567	7734
4.93633	7728
4.93700	7722
4.93767	7717
4.93833	7711
4.93900	7706
4.93967	7700
4.94033	7695
4.94100	7689
4.94167	7683
4.94233	7678
4.94300	7672
4.94367	7666
4.94433	7660
4.94500	7655
4.94567	7649
4.94633	7643
4.94700	7637
4.94767	7632
4.94833	7626
4.94900	7620
4.94967	7614
4.95033	7608
4.95100	7603
4.95167	7597
4.95233	7591
4.95300	7586
4.95367	7580
4.95433	7574
4.95500	7569
4.95567	7563
4.95633	7558
4.95700	7552
4.95767	7546
4.95833	7541
4.95900	7535
4.95967	7530
4.96033	7524
4.96100	7518
4.96167	7513
4.96233	7507
4.96300	7501
4.96367	7496
4.96433	7490
4.96500	7484
4.96567	7478
4.96633	7473
4.96700	7467
4.96767	7461
4.96833	7456
4.96900	7450
4.96967	7444
4.97033	7439
4.97100	7433
4.97167	7428
4.97233	7422
4.97300	7416
4.97367	7411
4.97433	7405
4.97500	7400
4.97567	7394
4.97633	7388
4.97700	7383
4.97767	7377
4.97833	7371
4.97900	7366
4.97967	7360
4.98033	7355
4.98100	7350
4.98167	7345
4.98233	7339
4.98300	7334
4.98367	7329
4.98433	7324
4.98500	7319
4.98567	7314
4.98633	7309
4.98700	7304
4.98767	7299
4.98833	7295
4.98900	7290
4.98967	7285
4.99033	7280
4.99100	7276
4.99167	7271
4.99233	7266
4.99300	7261
4.99367	7257
4.99433	7252
4.99500	7248
4.99567	7243
4.99633	7238
4.99700	7234
4.99767	7229
4.99833	7225
4.99900	7220
4.99967	7216
5.00033	7211
5.00100	7207
5.00167	7202
5.00233	7198
5.00300	7193
5.00367	7188
5.00433	7184
5.00500	7179
5.00567	7175
5.00633	7170
5.00700	7166
5.00767	7162
5.00833	7157
5.00900	7153
5.00967	7148
5.01033	7144
5.01100	7140
5.01167	7135
5.01233	7131
5.01300	7127
5.01367	7122
5.01433	7118
5.01500	7114
5.01567	7110
5.01633	7106
5.01700	7102
5.01767	7097
5.01833	7093
5.01900	7089
5.01967	7086
5.02033	7082
5.02100	7078
5.02167	7074
5.02233	7070
5.02300	7066
5.02367	7062
5.02433	7058
5.02500	7054
5.02567	7050
5.02633	7046
5.02700	7042
5.02767	7037
5.02833	7033
5.02900	7029
5.02967	7025
5.03033	7021
5.03100	7017
5.03167	7013
5.03233	7009
5.03300	7005
5.03367	7001
5.03433	6997
5.03500	6993
5.03567	6988
5.03633	6984
5.03700	6980
5.03767	6976
5.03833	6972
5.03900	6968
5.03967	6963
5.04033	6959
5.04100	6955
5.04167	6951
5.04233	6946
5.04300	6942
5.04367	6938
5.04433	6934
5.04500	6930
5.04567	6926
5.04633	6922
5.04700	6917
5.04767	6913
5.04833	6909
5.04900	6905
5.04967	6902
5.05033	6898
5.05100	6894
5.05167	6890
5.05233	6886
5.05300	6882
5.05367	6878
5.05433	6875
5.05500	6871
5.05567	6867
5.05633	6863
5.05700	6860
5.05767	6856
5.05833	6853
5.05900	6849
5.05967	6846
5.06033	6842
5.06100	6839
5.06167	6835
5.06233	6832
5.06300	6829
5.06367	6825
5.06433	6822
5.06500	6819
5.06567	6816
5.06633	6813
5.06700	6810
5.06767	6807
5.06833	6804
5.06900	6801
5.06967	6798
5.07033	6795
5.07100	6792
5.07167	6789
5.07233	6786
5.07300	6783
5.07367	6780
5.07433	6777
5.07500	6773
5.07567	6770
5.07633	6767
5.07700	6764
5.07767	6761
5.07833	6758
5.07900	6755
5.07967	6752
5.08033	6749
5.08100	6746
5.08167	6743
5.08233	6740
5.08300	6737
5.08367	6734
5.08433	6732
5.08500	6729
5.08567	6726
5.08633	6723
5.08700	6720
5.08767	6718
5.08833	6715
5.08900	6713
5.08967	6710
5.09033	6708
5.09100	6705
5.09167	6703
5.09233	6700
5.09300	6698
5.09367	6696
5.09433	6693
5.09500	6691
5.09567	6689
5.09633	6687
5.09700	6685
5.09767	6683
5.09833	6681
5.09900	6679
5.09967	6677
5.10033	6676
5.10100	6674
5.10167	6672
5.10233	6671
5.10300	6669
5.10367	6668
5.10433	6666
5.10500	6665
5.10567	6664
5.10633	6662
5.10700	6661
5.10767	6660
5.10833	6659
5.10900	6658
5.10967	6657
5.11033	6657
5.11100	6656
5.11167	6656
5.11233	6655
5.11300	6655
5.11367	6655
5.11433	6655
5.11500	6655
5.11567	6656
5.11633	6656
5.11700	6657
5.11767	6657
5.11833	6658
5.11900	6659
5.11967	6659
5.12033	6661
5.12100	6662
5.12167	6663
5.12233	6664
5.12300	6666
5.12367	6667
5.12433	6669
5.12500	6671
5.12567	6673
5.12633	6676
5.12700	6678
5.12767	6681
5.12833	6684
5.12900	6687
5.12967	6690
5.13033	6693
5.13100	6697
5.13167	6701
5.13233	6705
5.13300	6709
5.13367	6714
5.13433	6719
5.13500	6724
5.13567	6729
5.13633	6735
5.13700	6741
5.13767	6747
5.13833	6754
5.13900	6760
5.13967	6767
5.14033	6775
5.14100	6782
5.14167	6790
5.14233	6798
5.14300	6807
5.14367	6816
5.14433	6825
5.14500	6834
5.14567	6844
5.14633	6854
5.14700	6864
5.14767	6875
5.14833	6886
5.14900	6897
5.14967	6908
5.15033	6920
5.15100	6932
5.15167	6945
5.15233	6958
5.15300	6971
5.15367	6984
5.15433	6998
5.15500	7012
5.15567	7027
5.15633	7041
5.15700	7057
5.15767	7072
5.15833	7088
5.15900	7105
5.15967	7121
5.16033	7139
5.16100	7156
5.16167	7174
5.16233	7193
5.16300	7212
5.16367	7231
5.16433	7250
5.16500	7270
5.16567	7291
5.16633	7312
5.16700	7333
5.16767	7354
5.16833	7376
5.16900	7399
5.16967	7421
5.17033	7444
5.17100	7468
5.17167	7491
5.17233	7515
5.17300	7540
5.17367	7564
5.17433	7589
5.17500	7615
5.17567	7640
5.17633	7666
5.17700	7692
5.17767	7719
5.17833	7745
5.17900	7772
5.17967	7799
5.18033	7827
5.18100	7854
5.18167	7882
5.18233	7910
5.18300	7938
5.18367	7967
5.18433	7995
5.18500	8024
5.18567	8053
5.18633	8082
5.18700	8111
5.18767	8140
5.18833	8170
5.18900	8199
5.18967	8229
5.19033	8259
5.19100	8289
5.19167	8318
5.19233	8348
5.19300	8378
5.19367	8408
5.19433	8438
5.19500	8468
5.19567	8498
5.19633	8528
5.19700	8558
5.19767	8588
5.19833	8618
5.19900	8648
5.19967	8677
5.20033	8707
5.20100	8736
5.20167	8765
5.20233	8794
5.20300	8823
5.20367	8852
5.20433	8880
5.20500	8908
5.20567	8936
5.20633	8963
5.20700	8990
5.20767	9017
5.20833	9044
5.20900	9070
5.20967	9096
5.21033	9121
5.21100	9147
5.21167	9171
5.21233	9196
5.21300	9220
5.21367	9244
5.21433	9267
5.21500	9290
5.21567	9312
5.21633	9334
5.21700	9356
5.21767	9377
5.21833	9398
5.21900	9418
5.21967	9438
5.22033	9458
5.22100	9477
5.22167	9495
5.22233	9513
5.22300	9530
5.22367	9547
5.22433	9563
5.22500	9578
5.22567	9593
5.22633	9607
5.22700	9621
5.22767	9634
5.22833	9647
5.22900	9658
5.22967	9670
5.23033	9680
5.23100	9691
5.23167	9700
5.23233	9709
5.23300	9717
5.23367	9725
5.23433	9732
5.23500	9739
5.23567	9745
5.23633	9750
5.23700	9755
5.23767	9759
5.23833	9762
5.23900	9765
5.23967	9767
5.24033	9769
5.24100	9770
5.24167	9770
5.24233	9770
5.24300	9769
5.24367	9768
5.24433	9766
5.24500	9763
5.24567	9760
5.24633	9756
5.24700	9751
5.24767	9746
5.24833	9740
5.24900	9734
5.24967	9727
5.25033	9719
5.25100	9711
5.25167	9702
5.25233	9693
5.25300	9683
5.25367	9673
5.25433	9662
5.25500	9651
5.25567	9639
5.25633	9627
5.25700	9614
5.25767	9601
5.25833	9587
5.25900	9573
5.25967	9559
5.26033	9544
5.26100	9528
5.26167	9513
5.26233	9497
5.26300	9480
5.26367	9463
5.26433	9446
5.26500	9429
5.26567	9411
5.26633	9393
5.26700	9375
5.26767	9356
5.26833	9337
5.26900	9318
5.26967	9298
5.27033	9279
5.27100	9259
5.27167	9239
5.27233	9218
5.27300	9198
5.27367	9177
5.27433	9156
5.27500	9135
5.27567	9114
5.27633	9093
5.27700	9071
5.27767	9050
5.27833	9028
5.27900	9007
5.27967	8985
5.28033	8963
5.28100	8941
5.28167	8919
5.28233	8897
5.28300	8874
5.28367	8852
5.28433	8830
5.28500	8808
5.28567	8786
5.28633	8764
5.28700	8741
5.28767	8719
5.28833	8697
5.28900	8675
5.28967	8653
5.29033	8631
5.29100	8609
5.29167	8587
5.29233	8565
5.29300	8544
5.29367	8522
5.29433	8500
5.29500	8479
5.29567	8457
5.29633	8435
5.29700	8414
5.29767	8393
5.29833	8371
5.29900	8350
5.29967	8329
5.30033	8308
5.30100	8287
5.30167	8266
5.30233	8245
5.30300	8224
5.30367	8204
5.30433	8183
5.30500	8163
5.30567	8143
5.30633	8123
5.30700	8103
5.30767	8083
5.30833	8063
5.30900	8044
5.30967	8024
5.31033	8005
5.31100	7986
5.31167	7967
5.31233	7948
5.31300	7929
5.31367	7910
5.31433	7891
5.31500	7873
5.31567	7854
5.31633	7836
5.31700	7818
5.31767	7799
5.31833	7781
5.31900	7763
5.31967	7746
5.32033	7728
5.32100	7710
5.32167	7693
5.32233	7676
5.32300	7659
5.32367	7642
5.32433	7625
5.32500	7608
5.32567	7592
5.32633	7576
5.32700	7559
5.32767	7543
5.32833	7527
5.32900	7511
5.32967	7496
5.33033	7480
5.33100	7465
5.33167	7449
5.33233	7434
5.33300	7419
5.33367	7404
5.33433	7390
5.33500	7375
5.33567	7361
5.33633	7346
5.33700	7332
5.33767	7318
5.33833	7304
5.33900	7291
5.33967	7277
5.34033	7263
5.34100	7250
5.34167	7237
5.34233	7223
5.34300	7210
5.34367	7197
5.34433	7184
5.34500	7171
5.34567	7159
5.34633	7146
5.34700	7133
5.34767	7121
5.34833	7108
5.34900	7096
5.34967	7084
5.35033	7071
5.35100	7059
5.35167	7047
5.35233	7035
5.35300	7023
5.35367	7012
5.35433	7000
5.35500	6988
5.35567	6977
5.35633	6965
5.35700	6954
5.35767	6943
5.35833	6932
5.35900	6921
5.35967	6910
5.36033	6900
5.36100	6889
5.36167	6879
5.36233	6868
5.36300	6858
5.36367	6848
5.36433	6838
5.36500	6828
5.36567	6819
5.36633	6809
5.36700	6800
5.36767	6790
5.36833	6781
5.36900	6772
5.36967	6762
5.37033	6753
5.37100	6745
5.37167	6736
5.37233	6727
5.37300	6718
5.37367	6710
5.37433	6701
5.37500	6693
5.37567	6684
5.37633	6676
5.37700	6668
5.37767	6659
5.37833	6651
5.37900	6643
5.37967	6635
5.38033	6626
5.38100	6618
5.38167	6610
5.38233	6602
5.38300	6594
5.38367	6586
5.38433	6578
5.38500	6570
5.38567	6562
5.38633	6555
5.38700	6547
5.38767	6540
5.38833	6532
5.38900	6525
5.38967	6518
5.39033	6510
5.39100	6503
5.39167	6496
5.39233	6489
5.39300	6482
5.39367	6475
5.39433	6468
5.39500	6461
5.39567	6454
5.39633	6447
5.39700	6440
5.39767	6433
5.39833	6427
5.39900	6420
5.39967	6413
5.40033	6406
5.40100	6400
5.40167	6393
5.40233	6387
5.40300	6380
5.40367	6374
5.40433	6367
5.40500	6361
5.40567	6355
5.40633	6349
5.40700	6342
5.40767	6336
5.40833	6330
5.40900	6324
5.40967	6318
5.41033	6313
5.41100	6307
5.41167	6301
5.41233	6295
5.41300	6290
5.41367	6284
5.41433	6279
5.41500	6273
5.41567	6268
5.41633	6262
5.41700	6257
5.41767	6252
5.41833	6246
5.41900	6241
5.41967	6236
5.42033	6231
5.42100	6225
5.42167	6220
5.42233	6215
5.42300	6210
5.42367	6205
5.42433	6200
5.42500	6195
5.42567	6190
5.42633	6185
5.42700	6180
5.42767	6175
5.42833	6170
5.42900	6165
5.42967	6160
5.43033	6156
5.43100	6151
5.43167	6146
5.43233	6141
5.43300	6137
5.43367	6132
5.43433	6127
5.43500	6123
5.43567	6118
5.43633	6113
5.43700	6109
5.43767	6104
5.43833	6100
5.43900	6095
5.43967	6090
5.44033	6086
5.44100	6081
5.44167	6076
5.44233	6072
5.44300	6067
5.44367	6062
5.44433	6058
5.44500	6053
5.44567	6048
5.44633	6043
5.44700	6039
5.44767	6034
5.44833	6029
5.44900	6025
5.44967	6020
5.45033	6016
5.45100	6011
5.45167	6007
5.45233	6002
5.45300	5998
5.45367	5993
5.45433	5989
5.45500	5985
5.45567	5981
5.45633	5976
5.45700	5972
5.45767	5968
5.45833	5964
5.45900	5960
5.45967	5955
5.46033	5951
5.46100	5947
5.46167	5943
5.46233	5939
5.46300	5935
5.46367	5931
5.46433	5927
5.46500	5923
5.46567	5919
5.46633	5915
5.46700	5910
5.46767	5906
5.46833	5902
5.46900	5898
5.46967	5894
5.47033	5890
5.47100	5886
5.47167	5882
5.47233	5878
5.47300	5875
5.47367	5871
5.47433	5867
5.47500	5863
5.47567	5859
5.47633	5855
5.47700	5851
5.47767	5847
5.47833	5843
5.47900	5840
5.47967	5836
5.48033	5832
5.48100	5828
5.48167	5824
5.48233	5821
5.48300	5817
5.48367	5813
5.48433	5809
5.48500	5806
5.48567	5802
5.48633	5798
5.48700	5794
5.48767	5790
5.48833	5787
5.48900	5783
5.48967	5779
5.49033	5775
5.49100	5772
5.49167	5768
5.49233	5765
5.49300	5761
5.49367	5757
5.49433	5754
5.49500	5750
5.49567	5747
5.49633	5744
5.49700	5740
5.49767	5737
5.49833	5734
5.49900	5731
5.49967	5727
5.50033	5724
5.50100	5721
5.50167	5718
5.50233	5715
5.50300	5712
5.50367	5709
5.50433	5705
5.50500	5702
5.50567	5699
5.50633	5696
5.50700	5693
5.50767	5690
5.50833	5687
5.50900	5684
5.50967	5680
5.51033	5677
5.51100	5674
5.51167	5671
5.51233	5668
5.51300	5665
5.51367	5662
5.51433	5659
5.51500	5656
5.51567	5653
5.51633	5650
5.51700	5647
5.51767	5644
5.51833	5641
5.51900	5638
5.51967	5635
5.52033	5632
5.52100	5629
5.52167	5627
5.52233	5624
5.52300	5621
5.52367	5618
5.52433	5615
5.52500	5612
5.52567	5609
5.52633	5606
5.52700	5603
5.52767	5600
5.52833	5598
5.52900	5595
5.52967	5592
5.53033	5589
5.53100	5586
5.53167	5583
5.53233	5580
5.53300	5578
5.53367	5575
5.53433	5572
5.53500	5569
5.53567	5566
5.53633	5564
5.53700	5561
5.53767	5558
5.53833	5556
5.53900	5553
5.53967	5550
5.54033	5547
5.54100	5545
5.54167	5542
5.54233	5539
5.54300	5536
5.54367	5534
5.54433	5531
5.54500	5528
5.54567	5525
5.54633	5522
5.54700	5520
5.54767	5517
5.54833	5514
5.54900	5511
5.54967	5509
5.55033	5506
5.55100	5503
5.55167	5501
5.55233	5498
5.55300	5495
5.55367	5493
5.55433	5490
5.55500	5488
5.55567	5485
5.55633	5483
5.55700	5480
5.55767	5478
5.55833	5476
5.55900	5473
5.55967	5471
5.56033	5468
5.56100	5466
5.56167	5464
5.56233	5461
5.56300	5459
5.56367	5457
5.56433	5455
5.56500	5452
5.56567	5450
5.56633	5448
5.56700	5446
5.56767	5444
5.56833	5441
5.56900	5439
5.56967	5437
5.57033	5435
5.57100	5433
5.57167	5430
5.57233	5428
5.57300	5426
5.57367	5424
5.57433	5422
5.57500	5420
5.57567	5418
5.57633	5416
5.57700	5414
5.57767	5412
5.57833	5410
5.57900	5408
5.57967	5406
5.58033	5404
5.58100	5402
5.58167	5400
5.58233	5398
5.58300	5396
5.58367	5394
5.58433	5392
5.58500	5390
5.58567	5388
5.58633	5386
5.58700	5384
5.58767	5381
5.58833	5379
5.58900	5377
5.58967	5375
5.59033	5374
5.59100	5372
5.59167	5370
5.59233	5368
5.59300	5366
5.59367	5364
5.59433	5362
5.59500	5360
5.59567	5358
5.59633	5356
5.59700	5354
5.59767	5352
5.59833	5350
5.59900	5348
5.59967	5346
5.60033	5345
5.60100	5343
5.60167	5341
5.60233	5339
5.60300	5337
5.60367	5335
5.60433	5333
5.60500	5331
5.60567	5330
5.60633	5328
5.60700	5326
5.60767	5324
5.60833	5322
5.60900	5320
5.60967	5318
5.61033	5316
5.61100	5314
5.61167	5313
5.61233	5311
5.61300	5309
5.61367	5307
5.61433	5305
5.61500	5303
5.61567	5301
5.61633	5299
5.61700	5297
5.61767	5295
5.61833	5293
5.61900	5291
5.61967	5289
5.62033	5286
5.62100	5284
5.62167	5282
5.62233	5280
5.62300	5278
5.62367	5276
5.62433	5273
5.62500	5271
5.62567	5269
5.62633	5267
5.62700	5265
5.62767	5263
5.62833	5261
5.62900	5259
5.62967	5257
5.63033	5255
5.63100	5253
5.63167	5251
5.63233	5249
5.63300	5247
5.63367	5245
5.63433	5243
5.63500	5241
5.63567	5239
5.63633	5237
5.63700	5235
5.63767	5233
5.63833	5232
5.63900	5230
5.63967	5228
5.64033	5226
5.64100	5224
5.64167	5222
5.64233	5221
5.64300	5219
5.64367	5217
5.64433	5215
5.64500	5213
5.64567	5211
5.64633	5209
5.64700	5207
5.64767	5205
5.64833	5203
5.64900	5201
5.64967	5199
5.65033	5197
5.65100	5195
5.65167	5193
5.65233	5191
5.65300	5189
5.65367	5187
5.65433	5185
5.65500	5183
5.65567	5181
5.65633	5180
5.65700	5178
5.65767	5176
5.65833	5174
5.65900	5172
5.65967	5170
5.66033	5168
5.66100	5166
5.66167	5165
5.66233	5163
5.66300	5161
5.66367	5159
5.66433	5157
5.66500	5155
5.66567	5153
5.66633	5151
5.66700	5149
5.66767	5147
5.66833	5145
5.66900	5143
5.66967	5141
5.67033	5139
5.67100	5137
5.67167	5135
5.67233	5133
5.67300	5131
5.67367	5129
5.67433	5127
5.67500	5125
5.67567	5123
5.67633	5121
5.67700	5119
5.67767	5117
5.67833	5115
5.67900	5113
5.67967	5111
5.68033	5110
5.68100	5108
5.68167	5106
5.68233	5104
5.68300	5102
5.68367	5100
5.68433	5099
5.68500	5097
5.68567	5095
5.68633	5093
5.68700	5091
5.68767	5089
5.68833	5088
5.68900	5086
5.68967	5084
5.69033	5082
5.69100	5081
5.69167	5079
5.69233	5077
5.69300	5075
5.69367	5074
5.69433	5072
5.69500	5070
5.69567	5069
5.69633	5067
5.69700	5065
5.69767	5064
5.69833	5062
5.69900	5060
5.69967	5059
5.70033	5057
5.70100	5056
5.70167	5054
5.70233	5053
5.70300	5051
5.70367	5049
5.70433	5048
5.70500	5046
5.70567	5045
5.70633	5043
5.70700	5042
5.70767	5040
5.70833	5038
5.70900	5037
5.70967	5035
5.71033	5034
5.71100	5032
5.71167	5031
5.71233	5029
5.71300	5027
5.71367	5026
5.71433	5024
5.71500	5023
5.71567	5021
5.71633	5019
5.71700	5018
5.71767	5016
5.71833	5015
5.71900	5013
5.71967	5012
5.72033	5010
5.72100	5009
5.72167	5007
5.72233	5006
5.72300	5004
5.72367	5003
5.72433	5001
5.72500	5000
5.72567	4998
5.72633	4997
5.72700	4995
5.72767	4994
5.72833	4992
5.72900	4991
5.72967	4989
5.73033	4988
5.73100	4986
5.73167	4985
5.73233	4983
5.73300	4982
5.73367	4981
5.73433	4979
5.73500	4978
5.73567	4977
5.73633	4975
5.73700	4974
5.73767	4973
5.73833	4971
5.73900	4970
5.73967	4969
5.74033	4967
5.74100	4966
5.74167	4965
5.74233	4964
5.74300	4963
5.74367	4961
5.74433	4960
5.74500	4959
5.74567	4958
5.74633	4957
5.74700	4956
5.74767	4955
5.74833	4954
5.74900	4953
5.74967	4952
5.75033	4951
5.75100	4950
5.75167	4949
5.75233	4948
5.75300	4947
5.75367	4946
5.75433	4945
5.75500	4944
5.75567	4943
5.75633	4942
5.75700	4941
5.75767	4940
5.75833	4939
5.75900	4938
5.75967	4937
5.76033	4936
5.76100	4935
5.76167	4934
5.76233	4933
5.76300	4932
5.76367	4931
5.76433	4930
5.76500	4929
5.76567	4928
5.76633	4928
5.76700	4927
5.76767	4926
5.76833	4925
5.76900	4924
5.76967	4923
5.77033	4922
5.77100	4921
5.77167	4920
5.77233	4920
5.77300	4919
5.77367	4918
5.77433	4917
5.77500	4917
5.77567	4916
5.77633	4915
5.77700	4914
5.77767	4913
5.77833	4913
5.77900	4912
5.77967	4911
5.78033	4911
5.78100	4910
5.78167	4909
5.78233	4909
5.78300	4908
5.78367	4907
5.78433	4906
5.78500	4906
5.78567	4905
5.78633	4905
5.78700	4904
5.78767	4903
5.78833	4903
5.78900	4902
5.78967	4902
5.79033	4901
5.79100	4901
5.79167	4900
5.79233	4900
5.79300	4899
5.79367	4899
5.79433	4898
5.79500	4898
5.79567	4897
5.79633	4897
5.79700	4896
5.79767	4895
5.79833	4895
5.79900	4894
5.79967	4894
5.80033	4893
5.80100	4892
5.80167	4892
5.80233	4891
5.80300	4891
5.80367	4890
5.80433	4889
5.80500	4889
5.80567	4888
5.80633	4888
5.80700	4887
5.80767	4886
5.80833	4886
5.80900	4885
5.80967	4885
5.81033	4884
5.81100	4884
5.81167	4883
5.81233	4883
5.81300	4882
5.81367	4882
5.81433	4881
5.81500	4881
5.81567	4880
5.81633	4880
5.81700	4880
5.81767	4879
5.81833	4879
5.81900	4878
5.81967	4878
5.82033	4878
5.82100	4877
5.82167	4877
5.82233	4877
5.82300	4877
5.82367	4876
5.82433	4876
5.82500	4876
5.82567	4876
5.82633	4875
5.82700	4875
5.82767	4875
5.82833	4875
5.82900	4874
5.82967	4874
5.83033	4874
5.83100	4874
5.83167	4874
5.83233	4873
5.83300	4873
5.83367	4873
5.83433	4873
5.83500	4873
5.83567	4872
5.83633	4872
5.83700	4872
5.83767	4871
5.83833	4871
5.83900	4871
5.83967	4871
5.84033	4870
5.84100	4870
5.84167	4870
5.84233	4870
5.84300	4869
5.84367	4869
5.84433	4869
5.84500	4869
5.84567	4868
5.84633	4868
5.84700	4868
5.84767	4868
5.84833	4868
5.84900	4867
5.84967	4867
5.85033	4867
5.85100	4867
5.85167	4866
5.85233	4866
5.85300	4865
5.85367	4865
5.85433	4865
5.85500	4864
5.85567	4864
5.85633	4863
5.85700	4863
5.85767	4862
5.85833	4862
5.85900	4861
5.85967	4861
5.86033	4860
5.86100	4860
5.86167	4859
5.86233	4858
5.86300	4858
5.86367	4857
5.86433	4856
5.86500	4856
5.86567	4855
5.86633	4854
5.86700	4853
5.86767	4852
5.86833	4852
5.86900	4851
5.86967	4850
5.87033	4849
5.87100	4848
5.87167	4847
5.87233	4846
5.87300	4845
5.87367	4844
5.87433	4843
5.87500	4842
5.87567	4841
5.87633	4840
5.87700	4838
5.87767	4837
5.87833	4836
5.87900	4835
5.87967	4834
5.88033	4833
5.88100	4831
5.88167	4830
5.88233	4829
5.88300	4828
5.88367	4826
5.88433	4825
5.88500	4824
5.88567	4823
5.88633	4821
5.88700	4820
5.88767	4819
5.88833	4818
5.88900	4816
5.88967	4815
5.89033	4814
5.89100	4813
5.89167	4812
5.89233	4810
5.89300	4809
5.89367	4808
5.89433	4807
5.89500	4806
5.89567	4804
5.89633	4803
5.89700	4802
5.89767	4801
5.89833	4800
5.89900	4799
5.89967	4798
5.90033	4797
5.90100	4796
5.90167	4794
5.90233	4793
5.90300	4792
5.90367	4791
5.90433	4790
5.90500	4789
5.90567	4788
5.90633	4787
5.90700	4786
5.90767	4785
5.90833	4784
5.90900	4782
5.90967	4781
5.91033	4780
5.91100	4779
5.91167	4778
5.91233	4777
5.91300	4776
5.91367	4775
5.91433	4774
5.91500	4772
5.91567	4771
5.91633	4770
5.91700	4769
5.91767	4768
5.91833	4767
5.91900	4766
5.91967	4765
5.92033	4764
5.92100	4763
5.92167	4761
5.92233	4760
5.92300	4759
5.92367	4758
5.92433	4757
5.92500	4755
5.92567	4754
5.92633	4753
5.92700	4752
5.92767	4750
5.92833	4749
5.92900	4748
5.92967	4747
5.93033	4746
5.93100	4744
5.93167	4743
5.93233	4742
5.93300	4741
5.93367	4740
5.93433	4738
5.93500	4737
5.93567	4736
5.93633	4735
5.93700	4734
5.93767	4732
5.93833	4731
5.93900	4730
5.93967	4729
5.94033	4728
5.94100	4727
5.94167	4725
5.94233	4724
5.94300	4723
5.94367	4722
5.94433	4721
5.94500	4720
5.94567	4719
5.94633	4718
5.94700	4716
5.94767	4715
5.94833	4714
5.94900	4713
5.94967	4712
5.95033	4711
5.95100	4710
5.95167	4709
5.95233	4709
5.95300	4708
5.95367	4707
5.95433	4706
5.95500	4706
5.95567	4705
5.95633	4705
5.95700	4704
5.95767	4703
5.95833	4703
5.95900	4702
5.95967	4702
5.96033	4701
5.96100	4701
5.96167	4701
5.96233	4700
5.96300	4700
5.96367	4699
5.96433	4699
5.96500	4698
5.96567	4698
5.96633	4698
5.96700	4697
5.96767	4697
5.96833	4697
5.96900	4696
5.96967	4696
5.97033	4695
5.97100	4695
5.97167	4695
5.97233	4694
5.97300	4694
5.97367	4693
5.97433	4693
5.97500	4692
5.97567	4692
5.97633	4692
5.97700	4691
5.97767	4691
5.97833	4690
5.97900	4690
5.97967	4690
5.98033	4689
5.98100	4689
5.98167	4689
5.98233	4688
5.98300	4688
5.98367	4688
5.98433	4687
5.98500	4687
5.98567	4687
5.98633	4686
5.98700	4686
5.98767	4686
5.98833	4685
5.98900	4685
5.98967	4685
5.99033	4684
5.99100	4684
5.99167	4684
5.99233	4683
5.99300	4683
5.99367	4682
5.99433	4682
5.99500	4681
5.99567	4681
5.99633	4681
5.99700	4680
5.99767	4680
5.99833	4679
5.99900	4679
5.99967	4679
6.00033	4678
6.00100	4678
6.00167	4677
6.00233	4677
6.00300	4676
6.00367	4676
6.00433	4676
6.00500	4675
6.00567	4675
6.00633	4674
6.00700	4674
6.00767	4673
6.00833	4673
6.00900	4672
6.00967	4671
6.01033	4671
6.01100	4670
6.01167	4670
6.01233	4669
6.01300	4669
6.01367	4668
6.01433	4667
6.01500	4667
6.01567	4666
6.01633	4666
6.01700	4665
6.01767	4665
6.01833	4664
6.01900	4664
6.01967	4663
6.02033	4663
6.02100	4662
6.02167	4662
6.02233	4661
6.02300	4660
6.02367	4660
6.02433	4659
6.02500	4659
6.02567	4658
6.02633	4657
6.02700	4657
6.02767	4656
6.02833	4655
6.02900	4655
6.02967	4654
6.03033	4653
6.03100	4653
6.03167	4652
6.03233	4651
6.03300	4650
6.03367	4650
6.03433	4649
6.03500	4648
6.03567	4648
6.03633	4647
6.03700	4646
6.03767	4645
6.03833	4645
6.03900	4644
6.03967	4643
6.04033	4642
6.04100	4642
6.04167	4641
6.04233	4640
6.04300	4639
6.04367	4639
6.04433	4638
6.04500	4637
6.04567	4636
6.04633	4636
6.04700	4635
6.04767	4634
6.04833	4633
6.04900	4632
6.04967	4632
6.05033	4631
6.05100	4630
6.05167	4630
6.05233	4629
6.05300	4628
6.05367	4627
6.05433	4627
6.05500	4626
6.05567	4625
6.05633	4625
6.05700	4624
6.05767	4623
6.05833	4623
6.05900	4622
6.05967	4621
6.06033	4621
6.06100	4620
6.06167	4619
6.06233	4618
6.06300	4617
6.06367	4617
6.06433	4616
6.06500	4615
6.06567	4614
6.06633	4614
6.06700	4613
6.06767	4612
6.06833	4611
6.06900	4610
6.06967	4610
6.07033	4609
6.07100	4608
6.07167	4607
6.07233	4606
6.07300	4605
6.07367	4605
6.07433	4604
6.07500	4603
6.07567	4602
6.07633	4601
6.07700	4600
6.07767	4599
6.07833	4598
6.07900	4597
6.07967	4597
6.08033	4596
6.08100	4595
6.08167	4594
6.08233	4593
6.08300	4592
6.08367	4592
6.08433	4591
6.08500	4590
6.08567	4589
6.08633	4588
6.08700	4587
6.08767	4586
6.08833	4585
6.08900	4584
6.08967	4583
6.09033	4582
6.09100	4581
6.09167	4580
6.09233	4579
6.09300	4578
6.09367	4577
6.09433	4576
6.09500	4575
6.09567	4574
6.09633	4574
6.09700	4573
6.09767	4572
6.09833	4571
6.09900	4570
6.09967	4569
6.10033	4568
6.10100	4567
6.10167	4566
6.10233	4565
6.10300	4564
6.10367	4563
6.10433	4562
6.10500	4561
6.10567	4560
6.10633	4559
6.10700	4558
6.10767	4557
6.10833	4556
6.10900	4555
6.10967	4555
6.11033	4554
6.11100	4553
6.11167	4552
6.11233	4551
6.11300	4550
6.11367	4549
6.11433	4549
6.11500	4548
6.11567	4547
6.11633	4546
6.11700	4545
6.11767	4544
6.11833	4543
6.11900	4543
6.11967	4542
6.12033	4541
6.12100	4540
6.12167	4539
6.12233	4538
6.12300	4538
6.12367	4537
6.12433	4536
6.12500	4535
6.12567	4534
6.12633	4534
6.12700	4533
6.12767	4532
6.12833	4531
6.12900	4530
6.12967	4530
6.13033	4529
6.13100	4528
6.13167	4527
6.13233	4526
6.13300	4526
6.13367	4525
6.13433	4524
6.13500	4523
6.13567	4523
6.13633	4522
6.13700	4521
6.13767	4520
6.13833	4519
6.13900	4519
6.13967	4518
6.14033	4517
6.14100	4516
6.14167	4516
6.14233	4515
6.14300	4514
6.14367	4513
6.14433	4512
6.14500	4512
6.14567	4511
6.14633	4510
6.14700	4509
6.14767	4509
6.14833	4508
6.14900	4507
6.14967	4506
6.15033	4505
6.15100	4504
6.15167	4503
6.15233	4503
6.15300	4502
6.15367	4501
6.15433	4500
6.15500	4499
6.15567	4498
6.15633	4497
6.15700	4496
6.15767	4495
6.15833	4494
6.15900	4493
6.15967	4492
6.16033	4491
6.16100	4491
6.16167	4490
6.16233	4489
6.16300	4488
6.16367	4487
6.16433	4486
6.16500	4485
6.16567	4484
6.16633	4484
6.16700	4483
6.16767	4482
6.16833	4481
6.16900	4480
6.16967	4480
6.17033	4479
6.17100	4478
6.17167	4478
6.17233	4477
6.17300	4477
6.17367	4476
6.17433	4475
6.17500	4475
6.17567	4474
6.17633	4474
6.17700	4473
6.17767	4473
6.17833	4472
6.17900	4472
6.17967	4472
6.18033	4471
6.18100	4471
6.18167	4470
6.18233	4470
6.18300	4469
6.18367	4469
6.18433	4469
6.18500	4468
6.18567	4468
6.18633	4468
6.18700	4468
6.18767	4468
6.18833	4468
6.18900	4468
6.18967	4468
6.19033	4468
6.19100	4468
6.19167	4468
6.19233	4468
6.19300	4468
6.19367	4468
6.19433	4468
6.19500	4468
6.19567	4468
6.19633	4468
6.19700	4469
6.19767	4469
6.19833	4469
6.19900	4469
6.19967	4469
6.20033	4469
6.20100	4469
6.20167	4469
6.20233	4469
6.20300	4470
6.20367	4470
6.20433	4470
6.20500	4470
6.20567	4470
6.20633	4470
6.20700	4470
6.20767	4471
6.20833	4471
6.20900	4471
6.20967	4471
6.21033	4472
6.21100	4472
6.21167	4472
6.21233	4472
6.21300	4472
6.21367	4473
6.21433	4473
6.21500	4473
6.21567	4473
6.21633	4474
6.21700	4474
6.21767	4474
6.21833	4475
6.21900	4475
6.21967	4475
6.22033	4476
6.22100	4476
6.22167	4477
6.22233	4477
6.22300	4478
6.22367	4478
6.22433	4479
6.22500	4479
6.22567	4480
6.22633	4480
6.22700	4481
6.22767	4481
6.22833	4482
6.22900	4483
6.22967	4483
6.23033	4484
6.23100	4484
6.23167	4485
6.23233	4486
6.23300	4486
6.23367	4487
6.23433	4488
6.23500	4488
6.23567	4489
6.23633	4490
6.23700	4490
6.23767	4491
6.23833	4491
6.23900	4492
6.23967	4493
6.24033	4493
6.24100	4494
6.24167	4495
6.24233	4495
6.24300	4496
6.24367	4497
6.24433	4497
6.24500	4498
6.24567	4499
6.24633	4499
6.24700	4500
6.24767	4501
6.24833	4501
6.24900	4502
6.24967	4503
6.25033	4503
6.25100	4504
6.25167	4505
6.25233	4505
6.25300	4506
6.25367	4506
6.25433	4507
6.25500	4507
6.25567	4507
6.25633	4508
6.25700	4508
6.25767	4509
6.25833	4509
6.25900	4510
6.25967	4510
6.26033	4510
6.26100	4511
6.26167	4511
6.26233	4511
6.26300	4511
6.26367	4512
6.26433	4512
6.26500	4512
6.26567	4513
6.26633	4513
6.26700	4513
6.26767	4513
6.26833	4513
6.26900	4513
6.26967	4514
6.27033	4514
6.27100	4514
6.27167	4514
6.27233	4514
6.27300	4514
6.27367	4514
6.27433	4514
6.27500	4514
6.27567	4514
6.27633	4514
6.27700	4514
6.27767	4514
6.27833	4514
6.27900	4514
6.27967	4514
6.28033	4514
6.28100	4514
6.28167	4514
6.28233	4513
6.28300	4513
6.28367	4513
6.28433	4513
6.28500	4513
6.28567	4513
6.28633	4513
6.28700	4512
6.28767	4512
6.28833	4512
6.28900	4511
6.28967	4511
6.29033	4511
6.29100	4510
6.29167	4510
6.29233	4510
6.29300	4509
6.29367	4509
6.29433	4508
6.29500	4508
6.29567	4508
6.29633	4507
6.29700	4506
6.29767	4506
6.29833	4505
6.29900	4505
6.29967	4504
6.30033	4503
6.30100	4503
6.30167	4502
6.30233	4502
6.30300	4501
6.30367	4500
6.30433	4500
6.30500	4499
6.30567	4498
6.30633	4498
6.30700	4497
6.30767	4496
6.30833	4495
6.30900	4495
6.30967	4494
6.31033	4493
6.31100	4493
6.31167	4492
6.31233	4491
6.31300	4491
6.31367	4490
6.31433	4489
6.31500	4488
6.31567	4488
6.31633	4487
6.31700	4486
6.31767	4485
6.31833	4484
6.31900	4484
6.31967	4483
6.32033	4482
6.32100	4481
6.32167	4480
6.32233	4479
6.32300	4478
6.32367	4478
6.32433	4477
6.32500	4476
6.32567	4475
6.32633	4474
6.32700	4473
6.32767	4472
6.32833	4471
6.32900	4471
6.32967	4470
6.33033	4469
6.33100	4468
6.33167	4467
6.33233	4466
6.33300	4465
6.33367	4464
6.33433	4463
6.33500	4462
6.33567	4462
6.33633	4461
6.33700	4460
6.33767	4459
6.33833	4458
6.33900	4457
6.33967	4456
6.34033	4455
6.34100	4454
6.34167	4453
6.34233	4452
6.34300	4451
6.34367	4450
6.34433	4449
6.34500	4449
6.34567	4448
6.34633	4447
6.34700	4446
6.34767	4445
6.34833	4444
6.34900	4443
6.34967	4442
6.35033	4442
6.35100	4441
6.35167	4440
6.35233	4439
6.35300	4439
6.35367	4438
6.35433	4437
6.35500	4436
6.35567	4435
6.35633	4435
6.35700	4434
6.35767	4433
6.35833	4432
6.35900	4431
6.35967	4431
6.36033	4430
6.36100	4429
6.36167	4428
6.36233	4427
6.36300	4426
6.36367	4425
6.36433	4425
6.36500	4424
6.36567	4423
6.36633	4422
6.36700	4421
6.36767	4421
6.36833	4420
6.36900	4419
6.36967	4419
6.37033	4418
6.37100	4417
6.37167	4417
6.37233	4416
6.37300	4416
6.37367	4415
6.37433	4415
6.37500	4414
6.37567	4414
6.37633	4413
6.37700	4412
6.37767	4412
6.37833	4411
6.37900	4411
6.37967	4410
6.38033	4409
6.38100	4409
6.38167	4408
6.38233	4407
6.38300	4407
6.38367	4406
6.38433	4406
6.38500	4405
6.38567	4404
6.38633	4404
6.38700	4403
6.38767	4402
6.38833	4402
6.38900	4401
6.38967	4401
6.39033	4400
6.39100	4399
6.39167	4399
6.39233	4398
6.39300	4397
6.39367	4397
6.39433	4396
6.39500	4395
6.39567	4395
6.39633	4394
6.39700	4393
6.39767	4393
6.39833	4392
6.39900	4392
6.39967	4391

