[Header]
Application Name	LabSolutions
Version	5.73
Data File Name	C:\LabSolutions\Data\Project1\stephen\2016-01-06\81.gcd
Output Date	1/11/2016
Output Time	1:19:56 PM

[Configuration]
Instrument Name	WEISSTA-PC-Instrument1
Instrument #	1
Line #	1
# of Detectors	1
Detector ID	DET#2
Detector Name	DFID1
# of Channels	1

[Chromatogram (Ch1)]
Interval(msec)	40
# of Points	9600
Start Time(min)	0.000
End Time(min)	6.399
R.Time (min)	Intensity
0.00000	15
0.00067	15
0.00133	15
0.00200	15
0.00267	15
0.00333	15
0.00400	15
0.00467	15
0.00533	15
0.00600	15
0.00667	15
0.00733	15
0.00800	14
0.00867	14
0.00933	14
0.01000	14
0.01067	13
0.01133	13
0.01200	12
0.01267	11
0.01333	10
0.01400	10
0.01467	9
0.01533	7
0.01600	6
0.01667	5
0.01733	4
0.01800	2
0.01867	0
0.01933	-1
0.02000	-3
0.02067	-5
0.02133	-7
0.02200	-9
0.02267	-12
0.02333	-14
0.02400	-16
0.02467	-19
0.02533	-21
0.02600	-24
0.02667	-26
0.02733	-29
0.02800	-31
0.02867	-34
0.02933	-37
0.03000	-39
0.03067	-42
0.03133	-45
0.03200	-47
0.03267	-50
0.03333	-52
0.03400	-55
0.03467	-58
0.03533	-60
0.03600	-63
0.03667	-65
0.03733	-67
0.03800	-69
0.03867	-72
0.03933	-74
0.04000	-76
0.04067	-78
0.04133	-80
0.04200	-82
0.04267	-84
0.04333	-86
0.04400	-87
0.04467	-89
0.04533	-91
0.04600	-92
0.04667	-94
0.04733	-96
0.04800	-97
0.04867	-99
0.04933	-100
0.05000	-101
0.05067	-103
0.05133	-104
0.05200	-105
0.05267	-107
0.05333	-108
0.05400	-109
0.05467	-110
0.05533	-112
0.05600	-113
0.05667	-114
0.05733	-115
0.05800	-116
0.05867	-117
0.05933	-118
0.06000	-119
0.06067	-120
0.06133	-121
0.06200	-122
0.06267	-123
0.06333	-124
0.06400	-124
0.06467	-125
0.06533	-126
0.06600	-127
0.06667	-128
0.06733	-129
0.06800	-129
0.06867	-130
0.06933	-131
0.07000	-132
0.07067	-133
0.07133	-134
0.07200	-134
0.07267	-135
0.07333	-136
0.07400	-137
0.07467	-137
0.07533	-138
0.07600	-139
0.07667	-140
0.07733	-140
0.07800	-141
0.07867	-142
0.07933	-143
0.08000	-143
0.08067	-144
0.08133	-145
0.08200	-145
0.08267	-146
0.08333	-147
0.08400	-147
0.08467	-148
0.08533	-149
0.08600	-149
0.08667	-150
0.08733	-151
0.08800	-151
0.08867	-152
0.08933	-152
0.09000	-153
0.09067	-154
0.09133	-154
0.09200	-155
0.09267	-155
0.09333	-155
0.09400	-152
0.09467	-148
0.09533	-135
0.09600	-95
0.09667	-45
0.09733	12
0.09800	74
0.09867	136
0.09933	195
0.10000	252
0.10067	309
0.10133	364
0.10200	415
0.10267	464
0.10333	520
0.10400	596
0.10467	677
0.10533	757
0.10600	834
0.10667	906
0.10733	986
0.10800	1067
0.10867	1145
0.10933	1218
0.11000	1285
0.11067	1345
0.11133	1398
0.11200	1446
0.11267	1488
0.11333	1524
0.11400	1557
0.11467	1585
0.11533	1610
0.11600	1631
0.11667	1649
0.11733	1663
0.11800	1675
0.11867	1688
0.11933	1701
0.12000	1710
0.12067	1717
0.12133	1721
0.12200	1740
0.12267	1771
0.12333	1800
0.12400	1825
0.12467	1845
0.12533	1862
0.12600	1874
0.12667	1884
0.12733	1889
0.12800	1892
0.12867	1891
0.12933	1888
0.13000	1883
0.13067	1876
0.13133	1883
0.13200	2001
0.13267	2592
0.13333	4647
0.13400	10363
0.13467	23848
0.13533	51828
0.13600	104263
0.13667	194838
0.13733	340477
0.13800	560259
0.13867	873527
0.13933	1298717
0.14000	1852797
0.14067	2551076
0.14133	3406336
0.14200	4429592
0.14267	5629153
0.14333	7011929
0.14400	8582568
0.14467	10344195
0.14533	12297507
0.14600	14441856
0.14667	16774428
0.14733	19290954
0.14800	21985569
0.14867	24851645
0.14933	27881681
0.15000	31067460
0.15067	34399520
0.15133	37867531
0.15200	41460221
0.15267	45165392
0.15333	48970094
0.15400	52860541
0.15467	56822030
0.15533	60839306
0.15600	64896568
0.15667	68977921
0.15733	73067299
0.15800	77149051
0.15867	81207568
0.15933	85227988
0.16000	89196018
0.16067	93098521
0.16133	96922872
0.16200	100657814
0.16267	104293156
0.16333	107820208
0.16400	111231356
0.16467	114520181
0.16533	117681094
0.16600	120709837
0.16667	123602996
0.16733	126358197
0.16800	128973808
0.16867	131449063
0.16933	133783702
0.17000	135978149
0.17067	138033469
0.17133	139951123
0.17200	141733044
0.17267	143381528
0.17333	144899237
0.17400	146288998
0.17467	147554024
0.17533	148697613
0.17600	149723384
0.17667	150634982
0.17733	151436179
0.17800	152130702
0.17867	152722451
0.17933	153215309
0.18000	153613165
0.18067	153919890
0.18133	154139434
0.18200	154275656
0.18267	154332372
0.18333	154313230
0.18400	154221787
0.18467	154061531
0.18533	153835898
0.18600	153548243
0.18667	153201716
0.18733	152799262
0.18800	152343626
0.18867	151837563
0.18933	151283760
0.19000	150684798
0.19067	150043044
0.19133	149360798
0.19200	148640184
0.19267	147883308
0.19333	147092126
0.19400	146268523
0.19467	145414236
0.19533	144530973
0.19600	143620363
0.19667	142683961
0.19733	141723185
0.19800	140739353
0.19867	139733735
0.19933	138707554
0.20000	137662004
0.20067	136598211
0.20133	135517246
0.20200	134420131
0.20267	133307869
0.20333	132181356
0.20400	131041504
0.20467	129889159
0.20533	128725183
0.20600	127550355
0.20667	126365457
0.20733	125171190
0.20800	123968301
0.20867	122757497
0.20933	121539484
0.21000	120314907
0.21067	119084404
0.21133	117848547
0.21200	116607966
0.21267	115363316
0.21333	114115212
0.21400	112864215
0.21467	111610882
0.21533	110355790
0.21600	109099493
0.21667	107842568
0.21733	106585603
0.21800	105329212
0.21867	104073955
0.21933	102820386
0.22000	101569041
0.22067	100320504
0.22133	99075322
0.22200	97834069
0.22267	96597282
0.22333	95365486
0.22400	94139167
0.22467	92918840
0.22533	91705002
0.22600	90498120
0.22667	89298585
0.22733	88106777
0.22800	86923073
0.22867	85747856
0.22933	84581517
0.23000	83424405
0.23067	82276835
0.23133	81139069
0.23200	80011375
0.23267	78894037
0.23333	77787329
0.23400	76691507
0.23467	75606800
0.23533	74533387
0.23600	73471459
0.23667	72421205
0.23733	71382817
0.23800	70356450
0.23867	69342239
0.23933	68340264
0.24000	67350604
0.24067	66373320
0.24133	65408473
0.24200	64456102
0.24267	63516234
0.24333	62588876
0.24400	61674018
0.24467	60771637
0.24533	59881697
0.24600	59004144
0.24667	58138910
0.24733	57285950
0.24800	56445215
0.24867	55616654
0.24933	54800184
0.25000	53995731
0.25067	53203224
0.25133	52422601
0.25200	51653789
0.25267	50896703
0.25333	50151256
0.25400	49417371
0.25467	48694949
0.25533	47983899
0.25600	47284134
0.25667	46595560
0.25733	45918074
0.25800	45251573
0.25867	44595953
0.25933	43951109
0.26000	43316925
0.26067	42693287
0.26133	42080085
0.26200	41477200
0.26267	40884510
0.26333	40301874
0.26400	39729130
0.26467	39166120
0.26533	38612691
0.26600	38068683
0.26667	37533943
0.26733	37008314
0.26800	36491638
0.26867	35983732
0.26933	35484425
0.27000	34993551
0.27067	34510958
0.27133	34036487
0.27200	33569981
0.27267	33111270
0.27333	32660200
0.27400	32216619
0.27467	31780376
0.27533	31351319
0.27600	30929305
0.27667	30514195
0.27733	30105855
0.27800	29704150
0.27867	29308945
0.27933	28920105
0.28000	28537501
0.28067	28161007
0.28133	27790493
0.28200	27425837
0.28267	27066912
0.28333	26713593
0.28400	26365754
0.28467	26023275
0.28533	25686031
0.28600	25353899
0.28667	25026754
0.28733	24704488
0.28800	24386986
0.28867	24074128
0.28933	23765790
0.29000	23461855
0.29067	23162212
0.29133	22866754
0.29200	22575372
0.29267	22287961
0.29333	22004423
0.29400	21724659
0.29467	21448583
0.29533	21176106
0.29600	20907152
0.29667	20641646
0.29733	20379517
0.29800	20120686
0.29867	19865079
0.29933	19612619
0.30000	19363241
0.30067	19116879
0.30133	18873466
0.30200	18632927
0.30267	18395191
0.30333	18160189
0.30400	17927858
0.30467	17698130
0.30533	17470942
0.30600	17246219
0.30667	17023883
0.30733	16803866
0.30800	16586100
0.30867	16370510
0.30933	16157024
0.31000	15945581
0.31067	15736124
0.31133	15528599
0.31200	15322952
0.31267	15119131
0.31333	14917082
0.31400	14716759
0.31467	14518120
0.31533	14321123
0.31600	14125724
0.31667	13931884
0.31733	13739562
0.31800	13548722
0.31867	13359325
0.31933	13171336
0.32000	12984721
0.32067	12799450
0.32133	12615493
0.32200	12432822
0.32267	12251411
0.32333	12071240
0.32400	11892288
0.32467	11714533
0.32533	11537963
0.32600	11362567
0.32667	11188344
0.32733	11015289
0.32800	10843403
0.32867	10672680
0.32933	10503124
0.33000	10334738
0.33067	10167536
0.33133	10001527
0.33200	9836725
0.33267	9673143
0.33333	9510800
0.33400	9349710
0.33467	9189891
0.33533	9031361
0.33600	8874139
0.33667	8718248
0.33733	8563708
0.33800	8410544
0.33867	8258776
0.33933	8108427
0.34000	7959520
0.34067	7812079
0.34133	7666126
0.34200	7521686
0.34267	7378782
0.34333	7237438
0.34400	7097678
0.34467	6959523
0.34533	6822996
0.34600	6688118
0.34667	6554908
0.34733	6423387
0.34800	6293571
0.34867	6165476
0.34933	6039117
0.35000	5914506
0.35067	5791656
0.35133	5670576
0.35200	5551276
0.35267	5433763
0.35333	5318045
0.35400	5204127
0.35467	5092015
0.35533	4981713
0.35600	4873227
0.35667	4766561
0.35733	4661719
0.35800	4558709
0.35867	4457534
0.35933	4358200
0.36000	4260712
0.36067	4165073
0.36133	4071287
0.36200	3979355
0.36267	3889276
0.36333	3801048
0.36400	3714665
0.36467	3630119
0.36533	3547399
0.36600	3466493
0.36667	3387384
0.36733	3310051
0.36800	3234472
0.36867	3160624
0.36933	3088477
0.37000	3018002
0.37067	2949167
0.37133	2881936
0.37200	2816273
0.37267	2752140
0.37333	2689497
0.37400	2628305
0.37467	2568524
0.37533	2510113
0.37600	2453032
0.37667	2397243
0.37733	2342705
0.37800	2289381
0.37867	2237235
0.37933	2186233
0.38000	2136341
0.38067	2087529
0.38133	2039769
0.38200	1993031
0.38267	1947291
0.38333	1902523
0.38400	1858703
0.38467	1815808
0.38533	1773816
0.38600	1732706
0.38667	1692456
0.38733	1653049
0.38800	1614466
0.38867	1576690
0.38933	1539704
0.39000	1503495
0.39067	1468047
0.39133	1433348
0.39200	1399385
0.39267	1366146
0.39333	1333620
0.39400	1301794
0.39467	1270658
0.39533	1240202
0.39600	1210415
0.39667	1181287
0.39733	1152808
0.39800	1124967
0.39867	1097755
0.39933	1071162
0.40000	1045177
0.40067	1019792
0.40133	994996
0.40200	970778
0.40267	947130
0.40333	924042
0.40400	901502
0.40467	879502
0.40533	858032
0.40600	837081
0.40667	816641
0.40733	796701
0.40800	777251
0.40867	758282
0.40933	739784
0.41000	721747
0.41067	704163
0.41133	687022
0.41200	670315
0.41267	654031
0.41333	638164
0.41400	622702
0.41467	607638
0.41533	592963
0.41600	578667
0.41667	564743
0.41733	551182
0.41800	537976
0.41867	525116
0.41933	512594
0.42000	500403
0.42067	488535
0.42133	476982
0.42200	465736
0.42267	454790
0.42333	444137
0.42400	433770
0.42467	423681
0.42533	413864
0.42600	404311
0.42667	395017
0.42733	385974
0.42800	377176
0.42867	368618
0.42933	360292
0.43000	352193
0.43067	344315
0.43133	336653
0.43200	329200
0.43267	321952
0.43333	314903
0.43400	308048
0.43467	301381
0.43533	294898
0.43600	288593
0.43667	282462
0.43733	276500
0.43800	270701
0.43867	265062
0.43933	259578
0.44000	254245
0.44067	249059
0.44133	244016
0.44200	239114
0.44267	234348
0.44333	229715
0.44400	225212
0.44467	220836
0.44533	216585
0.44600	212454
0.44667	208441
0.44733	204544
0.44800	200759
0.44867	197083
0.44933	193516
0.45000	190053
0.45067	186692
0.45133	183433
0.45200	180273
0.45267	177210
0.45333	174243
0.45400	171371
0.45467	168592
0.45533	165905
0.45600	163310
0.45667	160806
0.45733	158392
0.45800	156069
0.45867	153836
0.45933	151691
0.46000	149633
0.46067	147660
0.46133	145769
0.46200	143955
0.46267	142216
0.46333	140550
0.46400	138954
0.46467	137423
0.46533	135956
0.46600	134550
0.46667	133201
0.46733	131907
0.46800	130665
0.46867	129473
0.46933	128328
0.47000	127228
0.47067	126170
0.47133	125152
0.47200	124173
0.47267	123229
0.47333	122320
0.47400	121443
0.47467	120597
0.47533	119780
0.47600	118990
0.47667	118227
0.47733	117488
0.47800	116772
0.47867	116077
0.47933	115404
0.48000	114749
0.48067	114113
0.48133	113494
0.48200	112891
0.48267	112303
0.48333	111730
0.48400	111170
0.48467	110623
0.48533	110090
0.48600	109569
0.48667	109061
0.48733	108564
0.48800	108078
0.48867	107602
0.48933	107136
0.49000	106679
0.49067	106229
0.49133	105786
0.49200	105348
0.49267	104916
0.49333	104489
0.49400	104065
0.49467	103645
0.49533	103227
0.49600	102811
0.49667	102397
0.49733	101984
0.49800	101572
0.49867	101160
0.49933	100749
0.50000	100338
0.50067	99927
0.50133	99516
0.50200	99103
0.50267	98691
0.50333	98277
0.50400	97862
0.50467	97447
0.50533	97030
0.50600	96612
0.50667	96193
0.50733	95772
0.50800	95350
0.50867	94926
0.50933	94502
0.51000	94075
0.51067	93648
0.51133	93219
0.51200	92788
0.51267	92357
0.51333	91924
0.51400	91490
0.51467	91055
0.51533	90619
0.51600	90182
0.51667	89743
0.51733	89304
0.51800	88864
0.51867	88423
0.51933	87981
0.52000	87539
0.52067	87096
0.52133	86653
0.52200	86209
0.52267	85765
0.52333	85321
0.52400	84876
0.52467	84431
0.52533	83986
0.52600	83541
0.52667	83097
0.52733	82652
0.52800	82208
0.52867	81764
0.52933	81320
0.53000	80877
0.53067	80435
0.53133	79993
0.53200	79552
0.53267	79111
0.53333	78672
0.53400	78233
0.53467	77795
0.53533	77359
0.53600	76923
0.53667	76488
0.53733	76054
0.53800	75622
0.53867	75191
0.53933	74761
0.54000	74333
0.54067	73906
0.54133	73481
0.54200	73057
0.54267	72635
0.54333	72214
0.54400	71795
0.54467	71377
0.54533	70962
0.54600	70548
0.54667	70136
0.54733	69726
0.54800	69318
0.54867	68912
0.54933	68507
0.55000	68105
0.55067	67705
0.55133	67307
0.55200	66911
0.55267	66518
0.55333	66126
0.55400	65737
0.55467	65350
0.55533	64966
0.55600	64584
0.55667	64204
0.55733	63827
0.55800	63452
0.55867	63079
0.55933	62709
0.56000	62341
0.56067	61976
0.56133	61613
0.56200	61253
0.56267	60895
0.56333	60539
0.56400	60186
0.56467	59835
0.56533	59487
0.56600	59141
0.56667	58798
0.56733	58457
0.56800	58118
0.56867	57782
0.56933	57449
0.57000	57117
0.57067	56788
0.57133	56461
0.57200	56137
0.57267	55815
0.57333	55495
0.57400	55177
0.57467	54861
0.57533	54547
0.57600	54236
0.57667	53927
0.57733	53620
0.57800	53315
0.57867	53012
0.57933	52711
0.58000	52413
0.58067	52116
0.58133	51822
0.58200	51529
0.58267	51239
0.58333	50951
0.58400	50665
0.58467	50381
0.58533	50099
0.58600	49819
0.58667	49541
0.58733	49265
0.58800	48992
0.58867	48720
0.58933	48451
0.59000	48183
0.59067	47918
0.59133	47654
0.59200	47393
0.59267	47134
0.59333	46877
0.59400	46621
0.59467	46368
0.59533	46117
0.59600	45868
0.59667	45621
0.59733	45377
0.59800	45134
0.59867	44894
0.59933	44656
0.60000	44420
0.60067	44187
0.60133	43956
0.60200	43729
0.60267	43503
0.60333	43281
0.60400	43062
0.60467	42846
0.60533	42634
0.60600	42425
0.60667	42220
0.60733	42018
0.60800	41821
0.60867	41629
0.60933	41440
0.61000	41257
0.61067	41079
0.61133	40906
0.61200	40739
0.61267	40577
0.61333	40422
0.61400	40272
0.61467	40129
0.61533	39992
0.61600	39862
0.61667	39738
0.61733	39620
0.61800	39509
0.61867	39403
0.61933	39304
0.62000	39209
0.62067	39120
0.62133	39035
0.62200	38953
0.62267	38875
0.62333	38800
0.62400	38727
0.62467	38656
0.62533	38586
0.62600	38517
0.62667	38449
0.62733	38380
0.62800	38311
0.62867	38240
0.62933	38169
0.63000	38095
0.63067	38020
0.63133	37943
0.63200	37863
0.63267	37781
0.63333	37696
0.63400	37609
0.63467	37519
0.63533	37426
0.63600	37331
0.63667	37233
0.63733	37133
0.63800	37030
0.63867	36924
0.63933	36816
0.64000	36705
0.64067	36592
0.64133	36477
0.64200	36360
0.64267	36240
0.64333	36119
0.64400	35995
0.64467	35870
0.64533	35742
0.64600	35613
0.64667	35483
0.64733	35350
0.64800	35216
0.64867	35081
0.64933	34945
0.65000	34807
0.65067	34668
0.65133	34528
0.65200	34386
0.65267	34244
0.65333	34101
0.65400	33957
0.65467	33812
0.65533	33667
0.65600	33521
0.65667	33374
0.65733	33227
0.65800	33080
0.65867	32932
0.65933	32784
0.66000	32636
0.66067	32488
0.66133	32339
0.66200	32190
0.66267	32041
0.66333	31893
0.66400	31744
0.66467	31595
0.66533	31446
0.66600	31298
0.66667	31150
0.66733	31002
0.66800	30854
0.66867	30707
0.66933	30561
0.67000	30414
0.67067	30268
0.67133	30123
0.67200	29978
0.67267	29834
0.67333	29691
0.67400	29548
0.67467	29406
0.67533	29265
0.67600	29124
0.67667	28985
0.67733	28846
0.67800	28709
0.67867	28572
0.67933	28437
0.68000	28302
0.68067	28169
0.68133	28037
0.68200	27907
0.68267	27778
0.68333	27651
0.68400	27525
0.68467	27400
0.68533	27278
0.68600	27157
0.68667	27039
0.68733	26923
0.68800	26809
0.68867	26697
0.68933	26588
0.69000	26482
0.69067	26379
0.69133	26279
0.69200	26182
0.69267	26088
0.69333	25998
0.69400	25911
0.69467	25828
0.69533	25748
0.69600	25673
0.69667	25601
0.69733	25532
0.69800	25468
0.69867	25407
0.69933	25349
0.70000	25294
0.70067	25243
0.70133	25195
0.70200	25150
0.70267	25107
0.70333	25067
0.70400	25028
0.70467	24992
0.70533	24957
0.70600	24922
0.70667	24889
0.70733	24856
0.70800	24822
0.70867	24789
0.70933	24755
0.71000	24720
0.71067	24684
0.71133	24647
0.71200	24608
0.71267	24568
0.71333	24525
0.71400	24481
0.71467	24435
0.71533	24386
0.71600	24336
0.71667	24283
0.71733	24228
0.71800	24171
0.71867	24111
0.71933	24050
0.72000	23986
0.72067	23920
0.72133	23852
0.72200	23783
0.72267	23711
0.72333	23638
0.72400	23564
0.72467	23487
0.72533	23410
0.72600	23330
0.72667	23250
0.72733	23169
0.72800	23086
0.72867	23002
0.72933	22918
0.73000	22832
0.73067	22746
0.73133	22659
0.73200	22572
0.73267	22484
0.73333	22396
0.73400	22307
0.73467	22218
0.73533	22129
0.73600	22039
0.73667	21950
0.73733	21860
0.73800	21770
0.73867	21681
0.73933	21591
0.74000	21502
0.74067	21413
0.74133	21324
0.74200	21236
0.74267	21147
0.74333	21060
0.74400	20972
0.74467	20885
0.74533	20798
0.74600	20712
0.74667	20626
0.74733	20541
0.74800	20457
0.74867	20373
0.74933	20289
0.75000	20207
0.75067	20124
0.75133	20043
0.75200	19962
0.75267	19882
0.75333	19802
0.75400	19723
0.75467	19645
0.75533	19568
0.75600	19491
0.75667	19415
0.75733	19340
0.75800	19266
0.75867	19192
0.75933	19119
0.76000	19046
0.76067	18974
0.76133	18903
0.76200	18833
0.76267	18763
0.76333	18694
0.76400	18626
0.76467	18558
0.76533	18491
0.76600	18424
0.76667	18358
0.76733	18293
0.76800	18229
0.76867	18165
0.76933	18102
0.77000	18040
0.77067	17978
0.77133	17916
0.77200	17856
0.77267	17796
0.77333	17737
0.77400	17678
0.77467	17620
0.77533	17562
0.77600	17506
0.77667	17449
0.77733	17394
0.77800	17339
0.77867	17284
0.77933	17230
0.78000	17177
0.78067	17124
0.78133	17072
0.78200	17020
0.78267	16969
0.78333	16918
0.78400	16868
0.78467	16818
0.78533	16769
0.78600	16720
0.78667	16672
0.78733	16625
0.78800	16577
0.78867	16530
0.78933	16484
0.79000	16438
0.79067	16393
0.79133	16348
0.79200	16303
0.79267	16259
0.79333	16215
0.79400	16172
0.79467	16129
0.79533	16086
0.79600	16044
0.79667	16002
0.79733	15960
0.79800	15919
0.79867	15878
0.79933	15838
0.80000	15798
0.80067	15758
0.80133	15718
0.80200	15679
0.80267	15640
0.80333	15602
0.80400	15563
0.80467	15525
0.80533	15488
0.80600	15450
0.80667	15413
0.80733	15376
0.80800	15340
0.80867	15304
0.80933	15268
0.81000	15232
0.81067	15197
0.81133	15162
0.81200	15127
0.81267	15092
0.81333	15058
0.81400	15024
0.81467	14991
0.81533	14958
0.81600	14925
0.81667	14893
0.81733	14861
0.81800	14829
0.81867	14798
0.81933	14767
0.82000	14736
0.82067	14705
0.82133	14675
0.82200	14645
0.82267	14615
0.82333	14586
0.82400	14557
0.82467	14528
0.82533	14499
0.82600	14470
0.82667	14442
0.82733	14414
0.82800	14386
0.82867	14358
0.82933	14331
0.83000	14304
0.83067	14277
0.83133	14250
0.83200	14223
0.83267	14196
0.83333	14170
0.83400	14143
0.83467	14117
0.83533	14091
0.83600	14065
0.83667	14039
0.83733	14013
0.83800	13988
0.83867	13962
0.83933	13937
0.84000	13912
0.84067	13887
0.84133	13862
0.84200	13837
0.84267	13812
0.84333	13788
0.84400	13763
0.84467	13739
0.84533	13715
0.84600	13691
0.84667	13667
0.84733	13643
0.84800	13619
0.84867	13595
0.84933	13572
0.85000	13548
0.85067	13525
0.85133	13501
0.85200	13478
0.85267	13455
0.85333	13432
0.85400	13409
0.85467	13386
0.85533	13363
0.85600	13340
0.85667	13318
0.85733	13295
0.85800	13273
0.85867	13250
0.85933	13228
0.86000	13206
0.86067	13184
0.86133	13162
0.86200	13140
0.86267	13118
0.86333	13096
0.86400	13074
0.86467	13053
0.86533	13031
0.86600	13010
0.86667	12988
0.86733	12967
0.86800	12946
0.86867	12925
0.86933	12904
0.87000	12883
0.87067	12862
0.87133	12841
0.87200	12821
0.87267	12800
0.87333	12780
0.87400	12759
0.87467	12739
0.87533	12718
0.87600	12698
0.87667	12678
0.87733	12658
0.87800	12638
0.87867	12618
0.87933	12598
0.88000	12578
0.88067	12559
0.88133	12539
0.88200	12519
0.88267	12500
0.88333	12481
0.88400	12461
0.88467	12442
0.88533	12423
0.88600	12404
0.88667	12386
0.88733	12367
0.88800	12348
0.88867	12330
0.88933	12312
0.89000	12294
0.89067	12276
0.89133	12258
0.89200	12240
0.89267	12222
0.89333	12204
0.89400	12187
0.89467	12170
0.89533	12152
0.89600	12135
0.89667	12119
0.89733	12102
0.89800	12085
0.89867	12069
0.89933	12053
0.90000	12037
0.90067	12021
0.90133	12005
0.90200	11990
0.90267	11974
0.90333	11959
0.90400	11945
0.90467	11930
0.90533	11916
0.90600	11901
0.90667	11887
0.90733	11873
0.90800	11860
0.90867	11846
0.90933	11833
0.91000	11820
0.91067	11807
0.91133	11794
0.91200	11781
0.91267	11768
0.91333	11755
0.91400	11743
0.91467	11730
0.91533	11718
0.91600	11705
0.91667	11692
0.91733	11680
0.91800	11667
0.91867	11655
0.91933	11642
0.92000	11629
0.92067	11617
0.92133	11604
0.92200	11591
0.92267	11578
0.92333	11566
0.92400	11553
0.92467	11540
0.92533	11527
0.92600	11514
0.92667	11501
0.92733	11488
0.92800	11474
0.92867	11461
0.92933	11448
0.93000	11434
0.93067	11421
0.93133	11407
0.93200	11393
0.93267	11380
0.93333	11366
0.93400	11352
0.93467	11338
0.93533	11324
0.93600	11310
0.93667	11296
0.93733	11282
0.93800	11268
0.93867	11254
0.93933	11240
0.94000	11226
0.94067	11212
0.94133	11197
0.94200	11183
0.94267	11169
0.94333	11154
0.94400	11140
0.94467	11126
0.94533	11111
0.94600	11097
0.94667	11082
0.94733	11068
0.94800	11053
0.94867	11039
0.94933	11024
0.95000	11010
0.95067	10995
0.95133	10981
0.95200	10966
0.95267	10952
0.95333	10937
0.95400	10923
0.95467	10909
0.95533	10895
0.95600	10881
0.95667	10867
0.95733	10853
0.95800	10839
0.95867	10825
0.95933	10812
0.96000	10798
0.96067	10785
0.96133	10772
0.96200	10759
0.96267	10746
0.96333	10733
0.96400	10720
0.96467	10707
0.96533	10695
0.96600	10682
0.96667	10670
0.96733	10658
0.96800	10645
0.96867	10633
0.96933	10621
0.97000	10609
0.97067	10597
0.97133	10585
0.97200	10573
0.97267	10561
0.97333	10550
0.97400	10538
0.97467	10526
0.97533	10514
0.97600	10502
0.97667	10490
0.97733	10478
0.97800	10467
0.97867	10455
0.97933	10443
0.98000	10431
0.98067	10419
0.98133	10407
0.98200	10395
0.98267	10383
0.98333	10371
0.98400	10359
0.98467	10347
0.98533	10335
0.98600	10323
0.98667	10311
0.98733	10299
0.98800	10287
0.98867	10275
0.98933	10263
0.99000	10251
0.99067	10239
0.99133	10227
0.99200	10215
0.99267	10203
0.99333	10191
0.99400	10179
0.99467	10167
0.99533	10154
0.99600	10142
0.99667	10130
0.99733	10118
0.99800	10106
0.99867	10094
0.99933	10082
1.00000	10070
1.00067	10058
1.00133	10046
1.00200	10034
1.00267	10022
1.00333	10010
1.00400	9998
1.00467	9986
1.00533	9974
1.00600	9962
1.00667	9950
1.00733	9938
1.00800	9927
1.00867	9915
1.00933	9903
1.01000	9891
1.01067	9880
1.01133	9868
1.01200	9857
1.01267	9846
1.01333	9834
1.01400	9823
1.01467	9812
1.01533	9801
1.01600	9790
1.01667	9779
1.01733	9769
1.01800	9758
1.01867	9748
1.01933	9737
1.02000	9727
1.02067	9717
1.02133	9707
1.02200	9697
1.02267	9688
1.02333	9678
1.02400	9669
1.02467	9659
1.02533	9650
1.02600	9641
1.02667	9632
1.02733	9623
1.02800	9614
1.02867	9605
1.02933	9596
1.03000	9588
1.03067	9579
1.03133	9571
1.03200	9562
1.03267	9554
1.03333	9545
1.03400	9537
1.03467	9528
1.03533	9520
1.03600	9512
1.03667	9503
1.03733	9495
1.03800	9486
1.03867	9478
1.03933	9469
1.04000	9461
1.04067	9452
1.04133	9444
1.04200	9435
1.04267	9427
1.04333	9418
1.04400	9409
1.04467	9401
1.04533	9392
1.04600	9383
1.04667	9374
1.04733	9366
1.04800	9357
1.04867	9348
1.04933	9339
1.05000	9330
1.05067	9321
1.05133	9312
1.05200	9303
1.05267	9294
1.05333	9285
1.05400	9276
1.05467	9267
1.05533	9258
1.05600	9249
1.05667	9240
1.05733	9232
1.05800	9223
1.05867	9214
1.05933	9205
1.06000	9196
1.06067	9188
1.06133	9179
1.06200	9170
1.06267	9161
1.06333	9153
1.06400	9144
1.06467	9135
1.06533	9127
1.06600	9118
1.06667	9109
1.06733	9101
1.06800	9092
1.06867	9083
1.06933	9075
1.07000	9066
1.07067	9057
1.07133	9049
1.07200	9040
1.07267	9031
1.07333	9023
1.07400	9014
1.07467	9005
1.07533	8997
1.07600	8988
1.07667	8979
1.07733	8971
1.07800	8962
1.07867	8954
1.07933	8945
1.08000	8937
1.08067	8928
1.08133	8919
1.08200	8911
1.08267	8902
1.08333	8894
1.08400	8885
1.08467	8877
1.08533	8868
1.08600	8860
1.08667	8851
1.08733	8843
1.08800	8834
1.08867	8826
1.08933	8818
1.09000	8809
1.09067	8801
1.09133	8793
1.09200	8785
1.09267	8776
1.09333	8768
1.09400	8760
1.09467	8752
1.09533	8744
1.09600	8736
1.09667	8728
1.09733	8720
1.09800	8712
1.09867	8704
1.09933	8696
1.10000	8688
1.10067	8680
1.10133	8672
1.10200	8665
1.10267	8657
1.10333	8649
1.10400	8642
1.10467	8634
1.10533	8627
1.10600	8619
1.10667	8612
1.10733	8605
1.10800	8597
1.10867	8590
1.10933	8583
1.11000	8575
1.11067	8568
1.11133	8561
1.11200	8554
1.11267	8547
1.11333	8540
1.11400	8533
1.11467	8526
1.11533	8519
1.11600	8512
1.11667	8505
1.11733	8498
1.11800	8491
1.11867	8485
1.11933	8478
1.12000	8471
1.12067	8465
1.12133	8459
1.12200	8452
1.12267	8446
1.12333	8440
1.12400	8434
1.12467	8427
1.12533	8422
1.12600	8416
1.12667	8410
1.12733	8404
1.12800	8399
1.12867	8393
1.12933	8388
1.13000	8382
1.13067	8377
1.13133	8372
1.13200	8367
1.13267	8362
1.13333	8358
1.13400	8353
1.13467	8349
1.13533	8345
1.13600	8341
1.13667	8337
1.13733	8333
1.13800	8329
1.13867	8326
1.13933	8322
1.14000	8318
1.14067	8315
1.14133	8312
1.14200	8308
1.14267	8305
1.14333	8302
1.14400	8299
1.14467	8295
1.14533	8292
1.14600	8289
1.14667	8285
1.14733	8282
1.14800	8278
1.14867	8275
1.14933	8271
1.15000	8267
1.15067	8264
1.15133	8260
1.15200	8256
1.15267	8252
1.15333	8248
1.15400	8244
1.15467	8240
1.15533	8235
1.15600	8231
1.15667	8226
1.15733	8222
1.15800	8217
1.15867	8212
1.15933	8208
1.16000	8203
1.16067	8198
1.16133	8193
1.16200	8188
1.16267	8183
1.16333	8178
1.16400	8173
1.16467	8168
1.16533	8162
1.16600	8157
1.16667	8152
1.16733	8147
1.16800	8141
1.16867	8136
1.16933	8130
1.17000	8125
1.17067	8119
1.17133	8114
1.17200	8108
1.17267	8103
1.17333	8097
1.17400	8091
1.17467	8086
1.17533	8080
1.17600	8075
1.17667	8069
1.17733	8063
1.17800	8058
1.17867	8052
1.17933	8046
1.18000	8041
1.18067	8035
1.18133	8029
1.18200	8024
1.18267	8018
1.18333	8012
1.18400	8007
1.18467	8001
1.18533	7995
1.18600	7990
1.18667	7984
1.18733	7979
1.18800	7974
1.18867	7968
1.18933	7963
1.19000	7958
1.19067	7953
1.19133	7947
1.19200	7942
1.19267	7937
1.19333	7932
1.19400	7927
1.19467	7923
1.19533	7918
1.19600	7913
1.19667	7909
1.19733	7904
1.19800	7900
1.19867	7895
1.19933	7891
1.20000	7887
1.20067	7883
1.20133	7879
1.20200	7875
1.20267	7872
1.20333	7868
1.20400	7864
1.20467	7861
1.20533	7857
1.20600	7854
1.20667	7850
1.20733	7847
1.20800	7844
1.20867	7840
1.20933	7837
1.21000	7834
1.21067	7831
1.21133	7828
1.21200	7825
1.21267	7822
1.21333	7819
1.21400	7816
1.21467	7814
1.21533	7811
1.21600	7808
1.21667	7806
1.21733	7803
1.21800	7801
1.21867	7798
1.21933	7796
1.22000	7794
1.22067	7791
1.22133	7789
1.22200	7787
1.22267	7785
1.22333	7783
1.22400	7781
1.22467	7779
1.22533	7777
1.22600	7775
1.22667	7774
1.22733	7772
1.22800	7770
1.22867	7769
1.22933	7767
1.23000	7766
1.23067	7764
1.23133	7763
1.23200	7762
1.23267	7761
1.23333	7759
1.23400	7758
1.23467	7757
1.23533	7756
1.23600	7755
1.23667	7755
1.23733	7754
1.23800	7753
1.23867	7752
1.23933	7752
1.24000	7751
1.24067	7750
1.24133	7750
1.24200	7749
1.24267	7748
1.24333	7748
1.24400	7747
1.24467	7747
1.24533	7746
1.24600	7746
1.24667	7745
1.24733	7745
1.24800	7744
1.24867	7744
1.24933	7744
1.25000	7743
1.25067	7743
1.25133	7743
1.25200	7743
1.25267	7743
1.25333	7743
1.25400	7743
1.25467	7743
1.25533	7743
1.25600	7743
1.25667	7743
1.25733	7744
1.25800	7744
1.25867	7744
1.25933	7744
1.26000	7745
1.26067	7745
1.26133	7746
1.26200	7747
1.26267	7747
1.26333	7748
1.26400	7749
1.26467	7750
1.26533	7751
1.26600	7752
1.26667	7753
1.26733	7754
1.26800	7756
1.26867	7758
1.26933	7760
1.27000	7762
1.27067	7764
1.27133	7767
1.27200	7770
1.27267	7773
1.27333	7776
1.27400	7780
1.27467	7784
1.27533	7788
1.27600	7793
1.27667	7797
1.27733	7803
1.27800	7808
1.27867	7814
1.27933	7820
1.28000	7826
1.28067	7833
1.28133	7840
1.28200	7847
1.28267	7854
1.28333	7861
1.28400	7869
1.28467	7876
1.28533	7884
1.28600	7891
1.28667	7899
1.28733	7906
1.28800	7913
1.28867	7920
1.28933	7927
1.29000	7933
1.29067	7940
1.29133	7946
1.29200	7952
1.29267	7957
1.29333	7962
1.29400	7967
1.29467	7971
1.29533	7975
1.29600	7979
1.29667	7982
1.29733	7985
1.29800	7987
1.29867	7989
1.29933	7991
1.30000	7992
1.30067	7993
1.30133	7993
1.30200	7993
1.30267	7993
1.30333	7992
1.30400	7991
1.30467	7990
1.30533	7988
1.30600	7986
1.30667	7983
1.30733	7981
1.30800	7978
1.30867	7974
1.30933	7971
1.31000	7967
1.31067	7963
1.31133	7959
1.31200	7954
1.31267	7949
1.31333	7944
1.31400	7939
1.31467	7934
1.31533	7928
1.31600	7923
1.31667	7917
1.31733	7911
1.31800	7905
1.31867	7899
1.31933	7892
1.32000	7886
1.32067	7880
1.32133	7873
1.32200	7867
1.32267	7860
1.32333	7853
1.32400	7846
1.32467	7840
1.32533	7833
1.32600	7826
1.32667	7819
1.32733	7812
1.32800	7805
1.32867	7798
1.32933	7791
1.33000	7783
1.33067	7776
1.33133	7769
1.33200	7762
1.33267	7754
1.33333	7747
1.33400	7740
1.33467	7732
1.33533	7725
1.33600	7717
1.33667	7710
1.33733	7702
1.33800	7695
1.33867	7688
1.33933	7680
1.34000	7673
1.34067	7665
1.34133	7658
1.34200	7650
1.34267	7643
1.34333	7636
1.34400	7628
1.34467	7621
1.34533	7614
1.34600	7606
1.34667	7599
1.34733	7592
1.34800	7584
1.34867	7577
1.34933	7570
1.35000	7563
1.35067	7556
1.35133	7549
1.35200	7543
1.35267	7536
1.35333	7529
1.35400	7523
1.35467	7516
1.35533	7510
1.35600	7503
1.35667	7497
1.35733	7491
1.35800	7484
1.35867	7478
1.35933	7472
1.36000	7466
1.36067	7460
1.36133	7454
1.36200	7448
1.36267	7442
1.36333	7437
1.36400	7431
1.36467	7425
1.36533	7420
1.36600	7414
1.36667	7409
1.36733	7403
1.36800	7398
1.36867	7392
1.36933	7387
1.37000	7382
1.37067	7377
1.37133	7372
1.37200	7366
1.37267	7361
1.37333	7357
1.37400	7352
1.37467	7347
1.37533	7342
1.37600	7338
1.37667	7333
1.37733	7328
1.37800	7324
1.37867	7320
1.37933	7315
1.38000	7311
1.38067	7307
1.38133	7302
1.38200	7298
1.38267	7294
1.38333	7290
1.38400	7286
1.38467	7282
1.38533	7278
1.38600	7274
1.38667	7270
1.38733	7266
1.38800	7262
1.38867	7258
1.38933	7255
1.39000	7251
1.39067	7247
1.39133	7244
1.39200	7240
1.39267	7236
1.39333	7233
1.39400	7229
1.39467	7225
1.39533	7222
1.39600	7218
1.39667	7215
1.39733	7211
1.39800	7208
1.39867	7204
1.39933	7201
1.40000	7197
1.40067	7194
1.40133	7190
1.40200	7187
1.40267	7183
1.40333	7179
1.40400	7176
1.40467	7172
1.40533	7169
1.40600	7165
1.40667	7162
1.40733	7158
1.40800	7155
1.40867	7151
1.40933	7148
1.41000	7144
1.41067	7141
1.41133	7138
1.41200	7134
1.41267	7131
1.41333	7127
1.41400	7124
1.41467	7121
1.41533	7117
1.41600	7114
1.41667	7110
1.41733	7107
1.41800	7104
1.41867	7101
1.41933	7097
1.42000	7094
1.42067	7091
1.42133	7088
1.42200	7085
1.42267	7082
1.42333	7079
1.42400	7076
1.42467	7073
1.42533	7070
1.42600	7067
1.42667	7064
1.42733	7061
1.42800	7058
1.42867	7055
1.42933	7052
1.43000	7049
1.43067	7047
1.43133	7044
1.43200	7041
1.43267	7038
1.43333	7035
1.43400	7033
1.43467	7030
1.43533	7027
1.43600	7025
1.43667	7022
1.43733	7019
1.43800	7017
1.43867	7014
1.43933	7012
1.44000	7009
1.44067	7007
1.44133	7004
1.44200	7002
1.44267	6999
1.44333	6997
1.44400	6994
1.44467	6992
1.44533	6989
1.44600	6987
1.44667	6984
1.44733	6981
1.44800	6979
1.44867	6976
1.44933	6974
1.45000	6971
1.45067	6968
1.45133	6966
1.45200	6963
1.45267	6960
1.45333	6958
1.45400	6955
1.45467	6953
1.45533	6950
1.45600	6948
1.45667	6945
1.45733	6943
1.45800	6940
1.45867	6938
1.45933	6935
1.46000	6933
1.46067	6930
1.46133	6928
1.46200	6925
1.46267	6923
1.46333	6920
1.46400	6918
1.46467	6916
1.46533	6914
1.46600	6911
1.46667	6909
1.46733	6907
1.46800	6905
1.46867	6902
1.46933	6900
1.47000	6898
1.47067	6896
1.47133	6893
1.47200	6891
1.47267	6889
1.47333	6887
1.47400	6885
1.47467	6883
1.47533	6881
1.47600	6879
1.47667	6877
1.47733	6875
1.47800	6873
1.47867	6872
1.47933	6870
1.48000	6868
1.48067	6866
1.48133	6864
1.48200	6862
1.48267	6861
1.48333	6859
1.48400	6857
1.48467	6855
1.48533	6853
1.48600	6851
1.48667	6849
1.48733	6848
1.48800	6846
1.48867	6844
1.48933	6842
1.49000	6840
1.49067	6838
1.49133	6835
1.49200	6833
1.49267	6831
1.49333	6829
1.49400	6827
1.49467	6824
1.49533	6822
1.49600	6820
1.49667	6817
1.49733	6815
1.49800	6812
1.49867	6810
1.49933	6807
1.50000	6805
1.50067	6802
1.50133	6800
1.50200	6797
1.50267	6795
1.50333	6792
1.50400	6789
1.50467	6787
1.50533	6784
1.50600	6781
1.50667	6779
1.50733	6776
1.50800	6773
1.50867	6770
1.50933	6768
1.51000	6765
1.51067	6762
1.51133	6759
1.51200	6756
1.51267	6754
1.51333	6751
1.51400	6748
1.51467	6745
1.51533	6743
1.51600	6740
1.51667	6737
1.51733	6734
1.51800	6732
1.51867	6729
1.51933	6727
1.52000	6724
1.52067	6722
1.52133	6719
1.52200	6717
1.52267	6714
1.52333	6712
1.52400	6710
1.52467	6708
1.52533	6706
1.52600	6704
1.52667	6702
1.52733	6700
1.52800	6698
1.52867	6696
1.52933	6694
1.53000	6693
1.53067	6691
1.53133	6689
1.53200	6688
1.53267	6686
1.53333	6685
1.53400	6683
1.53467	6682
1.53533	6680
1.53600	6679
1.53667	6677
1.53733	6676
1.53800	6674
1.53867	6673
1.53933	6671
1.54000	6670
1.54067	6668
1.54133	6667
1.54200	6665
1.54267	6664
1.54333	6663
1.54400	6661
1.54467	6660
1.54533	6658
1.54600	6657
1.54667	6655
1.54733	6654
1.54800	6652
1.54867	6651
1.54933	6649
1.55000	6647
1.55067	6646
1.55133	6644
1.55200	6643
1.55267	6641
1.55333	6640
1.55400	6638
1.55467	6637
1.55533	6635
1.55600	6634
1.55667	6632
1.55733	6631
1.55800	6629
1.55867	6628
1.55933	6627
1.56000	6625
1.56067	6624
1.56133	6623
1.56200	6622
1.56267	6621
1.56333	6619
1.56400	6618
1.56467	6617
1.56533	6616
1.56600	6615
1.56667	6614
1.56733	6613
1.56800	6612
1.56867	6610
1.56933	6609
1.57000	6608
1.57067	6607
1.57133	6606
1.57200	6605
1.57267	6604
1.57333	6603
1.57400	6602
1.57467	6601
1.57533	6599
1.57600	6598
1.57667	6597
1.57733	6596
1.57800	6595
1.57867	6594
1.57933	6593
1.58000	6592
1.58067	6591
1.58133	6590
1.58200	6589
1.58267	6588
1.58333	6587
1.58400	6586
1.58467	6585
1.58533	6584
1.58600	6583
1.58667	6582
1.58733	6580
1.58800	6579
1.58867	6578
1.58933	6577
1.59000	6576
1.59067	6575
1.59133	6574
1.59200	6573
1.59267	6571
1.59333	6570
1.59400	6569
1.59467	6568
1.59533	6567
1.59600	6566
1.59667	6565
1.59733	6564
1.59800	6563
1.59867	6562
1.59933	6561
1.60000	6560
1.60067	6559
1.60133	6558
1.60200	6557
1.60267	6556
1.60333	6555
1.60400	6554
1.60467	6553
1.60533	6552
1.60600	6551
1.60667	6550
1.60733	6549
1.60800	6548
1.60867	6547
1.60933	6546
1.61000	6545
1.61067	6544
1.61133	6543
1.61200	6542
1.61267	6541
1.61333	6540
1.61400	6539
1.61467	6538
1.61533	6537
1.61600	6537
1.61667	6536
1.61733	6535
1.61800	6534
1.61867	6533
1.61933	6532
1.62000	6531
1.62067	6529
1.62133	6528
1.62200	6527
1.62267	6526
1.62333	6525
1.62400	6524
1.62467	6523
1.62533	6521
1.62600	6520
1.62667	6519
1.62733	6518
1.62800	6517
1.62867	6516
1.62933	6514
1.63000	6513
1.63067	6512
1.63133	6511
1.63200	6510
1.63267	6508
1.63333	6507
1.63400	6506
1.63467	6505
1.63533	6504
1.63600	6504
1.63667	6503
1.63733	6502
1.63800	6501
1.63867	6500
1.63933	6500
1.64000	6499
1.64067	6499
1.64133	6498
1.64200	6498
1.64267	6497
1.64333	6497
1.64400	6496
1.64467	6496
1.64533	6496
1.64600	6496
1.64667	6495
1.64733	6495
1.64800	6495
1.64867	6495
1.64933	6495
1.65000	6494
1.65067	6494
1.65133	6494
1.65200	6494
1.65267	6494
1.65333	6494
1.65400	6494
1.65467	6493
1.65533	6493
1.65600	6493
1.65667	6493
1.65733	6493
1.65800	6493
1.65867	6492
1.65933	6492
1.66000	6492
1.66067	6492
1.66133	6491
1.66200	6491
1.66267	6491
1.66333	6491
1.66400	6490
1.66467	6490
1.66533	6489
1.66600	6489
1.66667	6489
1.66733	6488
1.66800	6488
1.66867	6487
1.66933	6487
1.67000	6486
1.67067	6486
1.67133	6485
1.67200	6484
1.67267	6484
1.67333	6483
1.67400	6482
1.67467	6482
1.67533	6481
1.67600	6480
1.67667	6480
1.67733	6479
1.67800	6478
1.67867	6477
1.67933	6476
1.68000	6475
1.68067	6474
1.68133	6473
1.68200	6472
1.68267	6471
1.68333	6470
1.68400	6469
1.68467	6468
1.68533	6467
1.68600	6466
1.68667	6465
1.68733	6464
1.68800	6462
1.68867	6461
1.68933	6460
1.69000	6459
1.69067	6457
1.69133	6456
1.69200	6455
1.69267	6454
1.69333	6452
1.69400	6451
1.69467	6449
1.69533	6448
1.69600	6446
1.69667	6445
1.69733	6443
1.69800	6442
1.69867	6440
1.69933	6438
1.70000	6437
1.70067	6435
1.70133	6433
1.70200	6431
1.70267	6429
1.70333	6428
1.70400	6426
1.70467	6424
1.70533	6422
1.70600	6420
1.70667	6419
1.70733	6417
1.70800	6415
1.70867	6414
1.70933	6412
1.71000	6410
1.71067	6409
1.71133	6407
1.71200	6406
1.71267	6405
1.71333	6404
1.71400	6403
1.71467	6402
1.71533	6401
1.71600	6401
1.71667	6401
1.71733	6401
1.71800	6402
1.71867	6404
1.71933	6407
1.72000	6411
1.72067	6416
1.72133	6422
1.72200	6431
1.72267	6442
1.72333	6456
1.72400	6473
1.72467	6495
1.72533	6521
1.72600	6554
1.72667	6593
1.72733	6641
1.72800	6699
1.72867	6768
1.72933	6851
1.73000	6950
1.73067	7067
1.73133	7205
1.73200	7368
1.73267	7560
1.73333	7784
1.73400	8044
1.73467	8347
1.73533	8696
1.73600	9099
1.73667	9561
1.73733	10090
1.73800	10693
1.73867	11377
1.73933	12152
1.74000	13027
1.74067	14010
1.74133	15111
1.74200	16340
1.74267	17707
1.74333	19221
1.74400	20892
1.74467	22731
1.74533	24746
1.74600	26947
1.74667	29342
1.74733	31938
1.74800	34742
1.74867	37760
1.74933	41001
1.75000	44469
1.75067	48170
1.75133	52110
1.75200	56289
1.75267	60707
1.75333	65366
1.75400	70265
1.75467	75398
1.75533	80759
1.75600	86341
1.75667	92133
1.75733	98122
1.75800	104296
1.75867	110636
1.75933	117128
1.76000	123752
1.76067	130485
1.76133	137306
1.76200	144189
1.76267	151111
1.76333	158045
1.76400	164962
1.76467	171833
1.76533	178630
1.76600	185322
1.76667	191882
1.76733	198283
1.76800	204502
1.76867	210515
1.76933	216299
1.77000	221835
1.77067	227101
1.77133	232079
1.77200	236752
1.77267	241107
1.77333	245134
1.77400	248825
1.77467	252174
1.77533	255177
1.77600	257835
1.77667	260148
1.77733	262119
1.77800	263754
1.77867	265057
1.77933	266038
1.78000	266704
1.78067	267066
1.78133	267133
1.78200	266919
1.78267	266434
1.78333	265692
1.78400	264704
1.78467	263484
1.78533	262044
1.78600	260398
1.78667	258559
1.78733	256539
1.78800	254351
1.78867	252006
1.78933	249518
1.79000	246897
1.79067	244154
1.79133	241301
1.79200	238347
1.79267	235303
1.79333	232178
1.79400	228981
1.79467	225719
1.79533	222403
1.79600	219038
1.79667	215633
1.79733	212195
1.79800	208729
1.79867	205242
1.79933	201739
1.80000	198226
1.80067	194709
1.80133	191191
1.80200	187678
1.80267	184173
1.80333	180681
1.80400	177204
1.80467	173747
1.80533	170312
1.80600	166902
1.80667	163520
1.80733	160169
1.80800	156850
1.80867	153566
1.80933	150319
1.81000	147109
1.81067	143939
1.81133	140811
1.81200	137725
1.81267	134682
1.81333	131683
1.81400	128730
1.81467	125822
1.81533	122961
1.81600	120147
1.81667	117381
1.81733	114662
1.81800	111991
1.81867	109368
1.81933	106794
1.82000	104268
1.82067	101790
1.82133	99360
1.82200	96977
1.82267	94643
1.82333	92356
1.82400	90116
1.82467	87923
1.82533	85776
1.82600	83675
1.82667	81620
1.82733	79609
1.82800	77643
1.82867	75721
1.82933	73842
1.83000	72007
1.83067	70213
1.83133	68461
1.83200	66750
1.83267	65079
1.83333	63448
1.83400	61856
1.83467	60303
1.83533	58788
1.83600	57309
1.83667	55868
1.83733	54462
1.83800	53091
1.83867	51755
1.83933	50452
1.84000	49183
1.84067	47946
1.84133	46741
1.84200	45567
1.84267	44424
1.84333	43311
1.84400	42227
1.84467	41171
1.84533	40144
1.84600	39144
1.84667	38171
1.84733	37224
1.84800	36302
1.84867	35406
1.84933	34534
1.85000	33686
1.85067	32861
1.85133	32059
1.85200	31279
1.85267	30521
1.85333	29784
1.85400	29067
1.85467	28371
1.85533	27694
1.85600	27036
1.85667	26397
1.85733	25776
1.85800	25173
1.85867	24586
1.85933	24017
1.86000	23464
1.86067	22926
1.86133	22404
1.86200	21898
1.86267	21405
1.86333	20927
1.86400	20463
1.86467	20013
1.86533	19575
1.86600	19150
1.86667	18738
1.86733	18338
1.86800	17949
1.86867	17572
1.86933	17206
1.87000	16851
1.87067	16506
1.87133	16172
1.87200	15847
1.87267	15532
1.87333	15226
1.87400	14930
1.87467	14642
1.87533	14363
1.87600	14092
1.87667	13830
1.87733	13575
1.87800	13328
1.87867	13089
1.87933	12856
1.88000	12631
1.88067	12412
1.88133	12200
1.88200	11995
1.88267	11795
1.88333	11602
1.88400	11415
1.88467	11233
1.88533	11057
1.88600	10886
1.88667	10720
1.88733	10560
1.88800	10404
1.88867	10253
1.88933	10107
1.89000	9965
1.89067	9828
1.89133	9695
1.89200	9565
1.89267	9440
1.89333	9319
1.89400	9201
1.89467	9087
1.89533	8977
1.89600	8870
1.89667	8766
1.89733	8665
1.89800	8568
1.89867	8473
1.89933	8382
1.90000	8293
1.90067	8207
1.90133	8124
1.90200	8043
1.90267	7965
1.90333	7890
1.90400	7816
1.90467	7745
1.90533	7676
1.90600	7609
1.90667	7545
1.90733	7482
1.90800	7421
1.90867	7362
1.90933	7305
1.91000	7250
1.91067	7196
1.91133	7144
1.91200	7094
1.91267	7045
1.91333	6998
1.91400	6952
1.91467	6907
1.91533	6864
1.91600	6822
1.91667	6782
1.91733	6743
1.91800	6705
1.91867	6668
1.91933	6632
1.92000	6597
1.92067	6563
1.92133	6530
1.92200	6499
1.92267	6468
1.92333	6438
1.92400	6408
1.92467	6380
1.92533	6353
1.92600	6326
1.92667	6300
1.92733	6275
1.92800	6250
1.92867	6227
1.92933	6203
1.93000	6181
1.93067	6159
1.93133	6138
1.93200	6117
1.93267	6097
1.93333	6077
1.93400	6058
1.93467	6040
1.93533	6022
1.93600	6004
1.93667	5987
1.93733	5971
1.93800	5954
1.93867	5938
1.93933	5923
1.94000	5908
1.94067	5893
1.94133	5878
1.94200	5864
1.94267	5851
1.94333	5837
1.94400	5824
1.94467	5811
1.94533	5799
1.94600	5787
1.94667	5775
1.94733	5763
1.94800	5752
1.94867	5741
1.94933	5730
1.95000	5719
1.95067	5709
1.95133	5699
1.95200	5689
1.95267	5679
1.95333	5669
1.95400	5660
1.95467	5651
1.95533	5642
1.95600	5633
1.95667	5625
1.95733	5616
1.95800	5608
1.95867	5600
1.95933	5592
1.96000	5584
1.96067	5576
1.96133	5569
1.96200	5562
1.96267	5554
1.96333	5547
1.96400	5540
1.96467	5534
1.96533	5527
1.96600	5520
1.96667	5514
1.96733	5507
1.96800	5501
1.96867	5495
1.96933	5489
1.97000	5483
1.97067	5477
1.97133	5472
1.97200	5466
1.97267	5461
1.97333	5455
1.97400	5450
1.97467	5445
1.97533	5440
1.97600	5435
1.97667	5430
1.97733	5425
1.97800	5420
1.97867	5416
1.97933	5411
1.98000	5406
1.98067	5402
1.98133	5398
1.98200	5393
1.98267	5389
1.98333	5385
1.98400	5381
1.98467	5377
1.98533	5373
1.98600	5369
1.98667	5365
1.98733	5361
1.98800	5358
1.98867	5354
1.98933	5351
1.99000	5347
1.99067	5344
1.99133	5340
1.99200	5337
1.99267	5334
1.99333	5330
1.99400	5327
1.99467	5324
1.99533	5321
1.99600	5318
1.99667	5315
1.99733	5312
1.99800	5309
1.99867	5306
1.99933	5303
2.00000	5301
2.00067	5298
2.00133	5295
2.00200	5292
2.00267	5290
2.00333	5287
2.00400	5284
2.00467	5282
2.00533	5279
2.00600	5277
2.00667	5274
2.00733	5271
2.00800	5269
2.00867	5266
2.00933	5264
2.01000	5261
2.01067	5259
2.01133	5256
2.01200	5254
2.01267	5251
2.01333	5249
2.01400	5246
2.01467	5244
2.01533	5241
2.01600	5239
2.01667	5236
2.01733	5234
2.01800	5231
2.01867	5229
2.01933	5226
2.02000	5224
2.02067	5221
2.02133	5219
2.02200	5217
2.02267	5214
2.02333	5212
2.02400	5210
2.02467	5208
2.02533	5206
2.02600	5203
2.02667	5201
2.02733	5199
2.02800	5197
2.02867	5195
2.02933	5193
2.03000	5191
2.03067	5189
2.03133	5187
2.03200	5185
2.03267	5183
2.03333	5181
2.03400	5179
2.03467	5177
2.03533	5175
2.03600	5173
2.03667	5172
2.03733	5170
2.03800	5168
2.03867	5166
2.03933	5164
2.04000	5162
2.04067	5161
2.04133	5159
2.04200	5157
2.04267	5155
2.04333	5154
2.04400	5152
2.04467	5150
2.04533	5148
2.04600	5146
2.04667	5145
2.04733	5143
2.04800	5141
2.04867	5139
2.04933	5137
2.05000	5136
2.05067	5134
2.05133	5132
2.05200	5131
2.05267	5129
2.05333	5127
2.05400	5126
2.05467	5124
2.05533	5122
2.05600	5121
2.05667	5119
2.05733	5118
2.05800	5116
2.05867	5114
2.05933	5113
2.06000	5111
2.06067	5110
2.06133	5108
2.06200	5107
2.06267	5105
2.06333	5103
2.06400	5102
2.06467	5100
2.06533	5099
2.06600	5097
2.06667	5095
2.06733	5094
2.06800	5092
2.06867	5091
2.06933	5089
2.07000	5087
2.07067	5086
2.07133	5084
2.07200	5083
2.07267	5081
2.07333	5080
2.07400	5079
2.07467	5077
2.07533	5076
2.07600	5074
2.07667	5073
2.07733	5072
2.07800	5070
2.07867	5069
2.07933	5068
2.08000	5066
2.08067	5065
2.08133	5064
2.08200	5063
2.08267	5061
2.08333	5060
2.08400	5059
2.08467	5058
2.08533	5057
2.08600	5055
2.08667	5054
2.08733	5053
2.08800	5052
2.08867	5051
2.08933	5049
2.09000	5048
2.09067	5047
2.09133	5046
2.09200	5045
2.09267	5044
2.09333	5043
2.09400	5041
2.09467	5040
2.09533	5039
2.09600	5038
2.09667	5037
2.09733	5035
2.09800	5034
2.09867	5033
2.09933	5032
2.10000	5030
2.10067	5029
2.10133	5028
2.10200	5027
2.10267	5026
2.10333	5024
2.10400	5023
2.10467	5022
2.10533	5021
2.10600	5019
2.10667	5018
2.10733	5017
2.10800	5016
2.10867	5015
2.10933	5013
2.11000	5012
2.11067	5011
2.11133	5009
2.11200	5008
2.11267	5007
2.11333	5006
2.11400	5004
2.11467	5003
2.11533	5002
2.11600	5000
2.11667	4999
2.11733	4998
2.11800	4997
2.11867	4995
2.11933	4994
2.12000	4993
2.12067	4991
2.12133	4990
2.12200	4989
2.12267	4987
2.12333	4986
2.12400	4985
2.12467	4983
2.12533	4982
2.12600	4981
2.12667	4979
2.12733	4978
2.12800	4976
2.12867	4975
2.12933	4973
2.13000	4972
2.13067	4970
2.13133	4969
2.13200	4968
2.13267	4966
2.13333	4965
2.13400	4963
2.13467	4962
2.13533	4960
2.13600	4959
2.13667	4958
2.13733	4956
2.13800	4955
2.13867	4953
2.13933	4952
2.14000	4950
2.14067	4949
2.14133	4947
2.14200	4946
2.14267	4945
2.14333	4944
2.14400	4942
2.14467	4941
2.14533	4940
2.14600	4939
2.14667	4938
2.14733	4937
2.14800	4936
2.14867	4934
2.14933	4933
2.15000	4932
2.15067	4931
2.15133	4930
2.15200	4930
2.15267	4929
2.15333	4928
2.15400	4927
2.15467	4927
2.15533	4926
2.15600	4925
2.15667	4925
2.15733	4925
2.15800	4924
2.15867	4924
2.15933	4924
2.16000	4923
2.16067	4923
2.16133	4923
2.16200	4923
2.16267	4923
2.16333	4923
2.16400	4923
2.16467	4923
2.16533	4923
2.16600	4924
2.16667	4924
2.16733	4924
2.16800	4924
2.16867	4925
2.16933	4925
2.17000	4925
2.17067	4926
2.17133	4926
2.17200	4926
2.17267	4926
2.17333	4926
2.17400	4926
2.17467	4926
2.17533	4926
2.17600	4926
2.17667	4926
2.17733	4926
2.17800	4926
2.17867	4926
2.17933	4925
2.18000	4925
2.18067	4924
2.18133	4924
2.18200	4923
2.18267	4923
2.18333	4922
2.18400	4921
2.18467	4920
2.18533	4919
2.18600	4919
2.18667	4918
2.18733	4917
2.18800	4916
2.18867	4915
2.18933	4914
2.19000	4912
2.19067	4911
2.19133	4910
2.19200	4909
2.19267	4908
2.19333	4907
2.19400	4905
2.19467	4904
2.19533	4903
2.19600	4901
2.19667	4900
2.19733	4898
2.19800	4897
2.19867	4895
2.19933	4893
2.20000	4892
2.20067	4890
2.20133	4889
2.20200	4887
2.20267	4885
2.20333	4884
2.20400	4882
2.20467	4880
2.20533	4879
2.20600	4877
2.20667	4876
2.20733	4874
2.20800	4873
2.20867	4871
2.20933	4870
2.21000	4869
2.21067	4867
2.21133	4866
2.21200	4865
2.21267	4863
2.21333	4862
2.21400	4861
2.21467	4859
2.21533	4858
2.21600	4857
2.21667	4856
2.21733	4855
2.21800	4853
2.21867	4852
2.21933	4851
2.22000	4850
2.22067	4849
2.22133	4848
2.22200	4848
2.22267	4847
2.22333	4846
2.22400	4845
2.22467	4844
2.22533	4843
2.22600	4842
2.22667	4841
2.22733	4840
2.22800	4840
2.22867	4839
2.22933	4838
2.23000	4837
2.23067	4837
2.23133	4836
2.23200	4835
2.23267	4834
2.23333	4834
2.23400	4833
2.23467	4832
2.23533	4832
2.23600	4831
2.23667	4830
2.23733	4830
2.23800	4829
2.23867	4829
2.23933	4828
2.24000	4828
2.24067	4827
2.24133	4827
2.24200	4827
2.24267	4827
2.24333	4826
2.24400	4826
2.24467	4826
2.24533	4826
2.24600	4826
2.24667	4826
2.24733	4826
2.24800	4826
2.24867	4826
2.24933	4827
2.25000	4827
2.25067	4827
2.25133	4827
2.25200	4827
2.25267	4828
2.25333	4828
2.25400	4828
2.25467	4828
2.25533	4829
2.25600	4829
2.25667	4829
2.25733	4829
2.25800	4829
2.25867	4829
2.25933	4829
2.26000	4829
2.26067	4829
2.26133	4829
2.26200	4829
2.26267	4829
2.26333	4829
2.26400	4829
2.26467	4828
2.26533	4828
2.26600	4828
2.26667	4827
2.26733	4827
2.26800	4826
2.26867	4825
2.26933	4825
2.27000	4824
2.27067	4823
2.27133	4822
2.27200	4821
2.27267	4820
2.27333	4820
2.27400	4819
2.27467	4818
2.27533	4817
2.27600	4815
2.27667	4814
2.27733	4813
2.27800	4812
2.27867	4811
2.27933	4810
2.28000	4808
2.28067	4807
2.28133	4806
2.28200	4804
2.28267	4803
2.28333	4802
2.28400	4800
2.28467	4799
2.28533	4798
2.28600	4796
2.28667	4795
2.28733	4794
2.28800	4793
2.28867	4791
2.28933	4790
2.29000	4789
2.29067	4787
2.29133	4786
2.29200	4785
2.29267	4783
2.29333	4782
2.29400	4781
2.29467	4779
2.29533	4778
2.29600	4777
2.29667	4775
2.29733	4774
2.29800	4773
2.29867	4772
2.29933	4771
2.30000	4770
2.30067	4769
2.30133	4768
2.30200	4767
2.30267	4766
2.30333	4765
2.30400	4764
2.30467	4764
2.30533	4763
2.30600	4762
2.30667	4761
2.30733	4760
2.30800	4760
2.30867	4759
2.30933	4758
2.31000	4758
2.31067	4757
2.31133	4756
2.31200	4756
2.31267	4755
2.31333	4754
2.31400	4754
2.31467	4753
2.31533	4753
2.31600	4752
2.31667	4752
2.31733	4751
2.31800	4751
2.31867	4751
2.31933	4750
2.32000	4750
2.32067	4750
2.32133	4749
2.32200	4749
2.32267	4749
2.32333	4748
2.32400	4748
2.32467	4748
2.32533	4748
2.32600	4747
2.32667	4747
2.32733	4747
2.32800	4747
2.32867	4747
2.32933	4747
2.33000	4746
2.33067	4746
2.33133	4746
2.33200	4746
2.33267	4746
2.33333	4746
2.33400	4746
2.33467	4746
2.33533	4746
2.33600	4746
2.33667	4746
2.33733	4746
2.33800	4746
2.33867	4746
2.33933	4746
2.34000	4746
2.34067	4746
2.34133	4746
2.34200	4747
2.34267	4747
2.34333	4747
2.34400	4747
2.34467	4748
2.34533	4748
2.34600	4749
2.34667	4749
2.34733	4749
2.34800	4750
2.34867	4750
2.34933	4751
2.35000	4751
2.35067	4752
2.35133	4752
2.35200	4753
2.35267	4753
2.35333	4754
2.35400	4754
2.35467	4755
2.35533	4756
2.35600	4756
2.35667	4757
2.35733	4758
2.35800	4758
2.35867	4759
2.35933	4760
2.36000	4760
2.36067	4761
2.36133	4762
2.36200	4762
2.36267	4763
2.36333	4764
2.36400	4764
2.36467	4765
2.36533	4766
2.36600	4766
2.36667	4767
2.36733	4768
2.36800	4768
2.36867	4769
2.36933	4769
2.37000	4770
2.37067	4770
2.37133	4771
2.37200	4771
2.37267	4772
2.37333	4772
2.37400	4773
2.37467	4773
2.37533	4773
2.37600	4773
2.37667	4773
2.37733	4774
2.37800	4774
2.37867	4774
2.37933	4774
2.38000	4773
2.38067	4773
2.38133	4773
2.38200	4773
2.38267	4773
2.38333	4773
2.38400	4772
2.38467	4772
2.38533	4772
2.38600	4771
2.38667	4771
2.38733	4770
2.38800	4770
2.38867	4769
2.38933	4769
2.39000	4768
2.39067	4767
2.39133	4767
2.39200	4766
2.39267	4765
2.39333	4764
2.39400	4763
2.39467	4763
2.39533	4762
2.39600	4761
2.39667	4760
2.39733	4759
2.39800	4758
2.39867	4757
2.39933	4756
2.40000	4755
2.40067	4754
2.40133	4753
2.40200	4753
2.40267	4752
2.40333	4751
2.40400	4750
2.40467	4749
2.40533	4748
2.40600	4747
2.40667	4747
2.40733	4746
2.40800	4745
2.40867	4744
2.40933	4743
2.41000	4743
2.41067	4742
2.41133	4741
2.41200	4740
2.41267	4740
2.41333	4739
2.41400	4738
2.41467	4737
2.41533	4736
2.41600	4736
2.41667	4735
2.41733	4734
2.41800	4734
2.41867	4733
2.41933	4732
2.42000	4732
2.42067	4731
2.42133	4730
2.42200	4730
2.42267	4729
2.42333	4728
2.42400	4727
2.42467	4727
2.42533	4726
2.42600	4725
2.42667	4724
2.42733	4724
2.42800	4723
2.42867	4722
2.42933	4721
2.43000	4720
2.43067	4719
2.43133	4718
2.43200	4717
2.43267	4716
2.43333	4715
2.43400	4714
2.43467	4713
2.43533	4711
2.43600	4710
2.43667	4709
2.43733	4708
2.43800	4706
2.43867	4705
2.43933	4703
2.44000	4702
2.44067	4700
2.44133	4698
2.44200	4697
2.44267	4695
2.44333	4693
2.44400	4691
2.44467	4690
2.44533	4688
2.44600	4686
2.44667	4684
2.44733	4682
2.44800	4680
2.44867	4678
2.44933	4676
2.45000	4674
2.45067	4672
2.45133	4670
2.45200	4668
2.45267	4666
2.45333	4664
2.45400	4662
2.45467	4660
2.45533	4658
2.45600	4656
2.45667	4654
2.45733	4651
2.45800	4649
2.45867	4647
2.45933	4645
2.46000	4643
2.46067	4641
2.46133	4639
2.46200	4636
2.46267	4634
2.46333	4632
2.46400	4630
2.46467	4628
2.46533	4626
2.46600	4624
2.46667	4623
2.46733	4621
2.46800	4619
2.46867	4617
2.46933	4615
2.47000	4613
2.47067	4611
2.47133	4609
2.47200	4607
2.47267	4605
2.47333	4603
2.47400	4601
2.47467	4600
2.47533	4598
2.47600	4596
2.47667	4594
2.47733	4592
2.47800	4590
2.47867	4588
2.47933	4586
2.48000	4585
2.48067	4583
2.48133	4581
2.48200	4579
2.48267	4577
2.48333	4576
2.48400	4574
2.48467	4572
2.48533	4570
2.48600	4568
2.48667	4567
2.48733	4565
2.48800	4563
2.48867	4561
2.48933	4560
2.49000	4558
2.49067	4556
2.49133	4554
2.49200	4553
2.49267	4551
2.49333	4549
2.49400	4548
2.49467	4546
2.49533	4544
2.49600	4542
2.49667	4541
2.49733	4539
2.49800	4538
2.49867	4536
2.49933	4534
2.50000	4533
2.50067	4531
2.50133	4530
2.50200	4528
2.50267	4526
2.50333	4525
2.50400	4523
2.50467	4522
2.50533	4520
2.50600	4519
2.50667	4517
2.50733	4516
2.50800	4514
2.50867	4513
2.50933	4511
2.51000	4510
2.51067	4508
2.51133	4507
2.51200	4505
2.51267	4504
2.51333	4503
2.51400	4501
2.51467	4500
2.51533	4498
2.51600	4497
2.51667	4496
2.51733	4494
2.51800	4493
2.51867	4492
2.51933	4490
2.52000	4489
2.52067	4487
2.52133	4486
2.52200	4485
2.52267	4483
2.52333	4482
2.52400	4480
2.52467	4479
2.52533	4477
2.52600	4476
2.52667	4474
2.52733	4473
2.52800	4471
2.52867	4470
2.52933	4469
2.53000	4467
2.53067	4466
2.53133	4464
2.53200	4463
2.53267	4461
2.53333	4460
2.53400	4458
2.53467	4457
2.53533	4455
2.53600	4454
2.53667	4452
2.53733	4451
2.53800	4450
2.53867	4448
2.53933	4447
2.54000	4445
2.54067	4444
2.54133	4442
2.54200	4440
2.54267	4439
2.54333	4437
2.54400	4436
2.54467	4434
2.54533	4433
2.54600	4431
2.54667	4430
2.54733	4429
2.54800	4427
2.54867	4426
2.54933	4424
2.55000	4423
2.55067	4422
2.55133	4420
2.55200	4419
2.55267	4417
2.55333	4416
2.55400	4415
2.55467	4413
2.55533	4412
2.55600	4411
2.55667	4409
2.55733	4408
2.55800	4407
2.55867	4405
2.55933	4404
2.56000	4403
2.56067	4401
2.56133	4400
2.56200	4398
2.56267	4397
2.56333	4396
2.56400	4395
2.56467	4393
2.56533	4392
2.56600	4391
2.56667	4389
2.56733	4388
2.56800	4387
2.56867	4386
2.56933	4384
2.57000	4383
2.57067	4382
2.57133	4380
2.57200	4379
2.57267	4378
2.57333	4377
2.57400	4375
2.57467	4374
2.57533	4373
2.57600	4372
2.57667	4370
2.57733	4369
2.57800	4368
2.57867	4367
2.57933	4366
2.58000	4365
2.58067	4363
2.58133	4362
2.58200	4361
2.58267	4360
2.58333	4359
2.58400	4358
2.58467	4357
2.58533	4356
2.58600	4355
2.58667	4354
2.58733	4353
2.58800	4352
2.58867	4351
2.58933	4350
2.59000	4349
2.59067	4348
2.59133	4347
2.59200	4346
2.59267	4345
2.59333	4344
2.59400	4343
2.59467	4342
2.59533	4341
2.59600	4340
2.59667	4339
2.59733	4338
2.59800	4337
2.59867	4336
2.59933	4335
2.60000	4334
2.60067	4333
2.60133	4332
2.60200	4331
2.60267	4330
2.60333	4329
2.60400	4328
2.60467	4327
2.60533	4326
2.60600	4325
2.60667	4324
2.60733	4323
2.60800	4322
2.60867	4321
2.60933	4320
2.61000	4319
2.61067	4318
2.61133	4317
2.61200	4316
2.61267	4315
2.61333	4314
2.61400	4313
2.61467	4312
2.61533	4310
2.61600	4309
2.61667	4308
2.61733	4307
2.61800	4306
2.61867	4305
2.61933	4303
2.62000	4302
2.62067	4301
2.62133	4300
2.62200	4298
2.62267	4297
2.62333	4296
2.62400	4295
2.62467	4293
2.62533	4292
2.62600	4291
2.62667	4290
2.62733	4289
2.62800	4287
2.62867	4286
2.62933	4285
2.63000	4284
2.63067	4283
2.63133	4281
2.63200	4280
2.63267	4279
2.63333	4278
2.63400	4277
2.63467	4276
2.63533	4275
2.63600	4274
2.63667	4273
2.63733	4271
2.63800	4270
2.63867	4269
2.63933	4268
2.64000	4267
2.64067	4266
2.64133	4265
2.64200	4264
2.64267	4262
2.64333	4261
2.64400	4260
2.64467	4259
2.64533	4258
2.64600	4257
2.64667	4256
2.64733	4254
2.64800	4253
2.64867	4252
2.64933	4251
2.65000	4250
2.65067	4249
2.65133	4248
2.65200	4247
2.65267	4245
2.65333	4244
2.65400	4243
2.65467	4242
2.65533	4241
2.65600	4240
2.65667	4239
2.65733	4237
2.65800	4236
2.65867	4235
2.65933	4234
2.66000	4233
2.66067	4232
2.66133	4231
2.66200	4229
2.66267	4228
2.66333	4227
2.66400	4226
2.66467	4225
2.66533	4223
2.66600	4222
2.66667	4221
2.66733	4220
2.66800	4219
2.66867	4217
2.66933	4216
2.67000	4215
2.67067	4214
2.67133	4212
2.67200	4211
2.67267	4210
2.67333	4209
2.67400	4207
2.67467	4206
2.67533	4205
2.67600	4204
2.67667	4203
2.67733	4201
2.67800	4200
2.67867	4199
2.67933	4198
2.68000	4197
2.68067	4195
2.68133	4194
2.68200	4193
2.68267	4192
2.68333	4191
2.68400	4190
2.68467	4189
2.68533	4187
2.68600	4186
2.68667	4185
2.68733	4184
2.68800	4183
2.68867	4182
2.68933	4181
2.69000	4180
2.69067	4179
2.69133	4178
2.69200	4177
2.69267	4176
2.69333	4175
2.69400	4174
2.69467	4173
2.69533	4172
2.69600	4172
2.69667	4171
2.69733	4170
2.69800	4169
2.69867	4168
2.69933	4167
2.70000	4166
2.70067	4165
2.70133	4165
2.70200	4164
2.70267	4163
2.70333	4162
2.70400	4161
2.70467	4161
2.70533	4160
2.70600	4159
2.70667	4158
2.70733	4157
2.70800	4157
2.70867	4156
2.70933	4155
2.71000	4154
2.71067	4154
2.71133	4153
2.71200	4152
2.71267	4151
2.71333	4151
2.71400	4150
2.71467	4149
2.71533	4148
2.71600	4148
2.71667	4147
2.71733	4146
2.71800	4145
2.71867	4145
2.71933	4144
2.72000	4143
2.72067	4143
2.72133	4142
2.72200	4141
2.72267	4141
2.72333	4140
2.72400	4139
2.72467	4139
2.72533	4138
2.72600	4137
2.72667	4136
2.72733	4136
2.72800	4135
2.72867	4134
2.72933	4133
2.73000	4133
2.73067	4132
2.73133	4131
2.73200	4130
2.73267	4129
2.73333	4129
2.73400	4128
2.73467	4127
2.73533	4126
2.73600	4126
2.73667	4125
2.73733	4124
2.73800	4124
2.73867	4123
2.73933	4122
2.74000	4122
2.74067	4121
2.74133	4120
2.74200	4120
2.74267	4119
2.74333	4119
2.74400	4118
2.74467	4118
2.74533	4117
2.74600	4117
2.74667	4117
2.74733	4116
2.74800	4116
2.74867	4116
2.74933	4116
2.75000	4115
2.75067	4115
2.75133	4115
2.75200	4114
2.75267	4114
2.75333	4114
2.75400	4114
2.75467	4114
2.75533	4113
2.75600	4113
2.75667	4113
2.75733	4113
2.75800	4113
2.75867	4113
2.75933	4113
2.76000	4113
2.76067	4113
2.76133	4113
2.76200	4113
2.76267	4113
2.76333	4113
2.76400	4113
2.76467	4113
2.76533	4113
2.76600	4113
2.76667	4113
2.76733	4113
2.76800	4114
2.76867	4114
2.76933	4114
2.77000	4114
2.77067	4114
2.77133	4115
2.77200	4115
2.77267	4115
2.77333	4116
2.77400	4116
2.77467	4117
2.77533	4117
2.77600	4118
2.77667	4118
2.77733	4119
2.77800	4119
2.77867	4120
2.77933	4121
2.78000	4121
2.78067	4122
2.78133	4123
2.78200	4124
2.78267	4124
2.78333	4125
2.78400	4126
2.78467	4127
2.78533	4127
2.78600	4128
2.78667	4129
2.78733	4130
2.78800	4131
2.78867	4131
2.78933	4132
2.79000	4133
2.79067	4134
2.79133	4135
2.79200	4136
2.79267	4137
2.79333	4138
2.79400	4139
2.79467	4140
2.79533	4141
2.79600	4143
2.79667	4144
2.79733	4145
2.79800	4146
2.79867	4147
2.79933	4148
2.80000	4149
2.80067	4150
2.80133	4152
2.80200	4153
2.80267	4154
2.80333	4155
2.80400	4156
2.80467	4157
2.80533	4158
2.80600	4160
2.80667	4161
2.80733	4162
2.80800	4163
2.80867	4164
2.80933	4165
2.81000	4166
2.81067	4167
2.81133	4167
2.81200	4168
2.81267	4169
2.81333	4170
2.81400	4171
2.81467	4171
2.81533	4172
2.81600	4173
2.81667	4173
2.81733	4174
2.81800	4174
2.81867	4175
2.81933	4175
2.82000	4176
2.82067	4176
2.82133	4176
2.82200	4176
2.82267	4176
2.82333	4177
2.82400	4177
2.82467	4177
2.82533	4177
2.82600	4177
2.82667	4177
2.82733	4177
2.82800	4176
2.82867	4176
2.82933	4176
2.83000	4176
2.83067	4176
2.83133	4176
2.83200	4176
2.83267	4176
2.83333	4176
2.83400	4176
2.83467	4176
2.83533	4176
2.83600	4176
2.83667	4176
2.83733	4175
2.83800	4175
2.83867	4175
2.83933	4175
2.84000	4175
2.84067	4175
2.84133	4175
2.84200	4175
2.84267	4175
2.84333	4175
2.84400	4175
2.84467	4175
2.84533	4175
2.84600	4175
2.84667	4175
2.84733	4175
2.84800	4175
2.84867	4175
2.84933	4175
2.85000	4175
2.85067	4175
2.85133	4175
2.85200	4176
2.85267	4176
2.85333	4176
2.85400	4176
2.85467	4177
2.85533	4177
2.85600	4177
2.85667	4178
2.85733	4178
2.85800	4179
2.85867	4179
2.85933	4179
2.86000	4180
2.86067	4180
2.86133	4181
2.86200	4181
2.86267	4181
2.86333	4182
2.86400	4182
2.86467	4183
2.86533	4183
2.86600	4184
2.86667	4184
2.86733	4184
2.86800	4185
2.86867	4185
2.86933	4185
2.87000	4186
2.87067	4186
2.87133	4186
2.87200	4187
2.87267	4187
2.87333	4187
2.87400	4187
2.87467	4188
2.87533	4188
2.87600	4188
2.87667	4188
2.87733	4188
2.87800	4188
2.87867	4188
2.87933	4188
2.88000	4188
2.88067	4188
2.88133	4188
2.88200	4188
2.88267	4188
2.88333	4188
2.88400	4188
2.88467	4188
2.88533	4188
2.88600	4188
2.88667	4187
2.88733	4187
2.88800	4187
2.88867	4187
2.88933	4186
2.89000	4186
2.89067	4186
2.89133	4185
2.89200	4185
2.89267	4185
2.89333	4184
2.89400	4184
2.89467	4184
2.89533	4183
2.89600	4183
2.89667	4183
2.89733	4182
2.89800	4182
2.89867	4181
2.89933	4181
2.90000	4181
2.90067	4180
2.90133	4180
2.90200	4179
2.90267	4179
2.90333	4178
2.90400	4178
2.90467	4177
2.90533	4177
2.90600	4176
2.90667	4175
2.90733	4174
2.90800	4174
2.90867	4173
2.90933	4172
2.91000	4171
2.91067	4170
2.91133	4169
2.91200	4168
2.91267	4167
2.91333	4165
2.91400	4164
2.91467	4163
2.91533	4161
2.91600	4160
2.91667	4158
2.91733	4157
2.91800	4155
2.91867	4153
2.91933	4152
2.92000	4150
2.92067	4148
2.92133	4146
2.92200	4144
2.92267	4142
2.92333	4139
2.92400	4137
2.92467	4134
2.92533	4132
2.92600	4129
2.92667	4127
2.92733	4124
2.92800	4121
2.92867	4118
2.92933	4115
2.93000	4112
2.93067	4109
2.93133	4106
2.93200	4103
2.93267	4100
2.93333	4096
2.93400	4093
2.93467	4090
2.93533	4086
2.93600	4082
2.93667	4079
2.93733	4075
2.93800	4072
2.93867	4068
2.93933	4064
2.94000	4060
2.94067	4057
2.94133	4053
2.94200	4049
2.94267	4045
2.94333	4041
2.94400	4037
2.94467	4034
2.94533	4030
2.94600	4026
2.94667	4022
2.94733	4018
2.94800	4014
2.94867	4010
2.94933	4006
2.95000	4002
2.95067	3998
2.95133	3994
2.95200	3990
2.95267	3986
2.95333	3982
2.95400	3978
2.95467	3975
2.95533	3971
2.95600	3967
2.95667	3963
2.95733	3960
2.95800	3956
2.95867	3952
2.95933	3949
2.96000	3945
2.96067	3942
2.96133	3938
2.96200	3935
2.96267	3931
2.96333	3928
2.96400	3925
2.96467	3921
2.96533	3918
2.96600	3915
2.96667	3911
2.96733	3908
2.96800	3905
2.96867	3902
2.96933	3899
2.97000	3895
2.97067	3892
2.97133	3889
2.97200	3886
2.97267	3883
2.97333	3880
2.97400	3877
2.97467	3874
2.97533	3872
2.97600	3869
2.97667	3866
2.97733	3863
2.97800	3861
2.97867	3858
2.97933	3855
2.98000	3853
2.98067	3850
2.98133	3848
2.98200	3845
2.98267	3843
2.98333	3840
2.98400	3838
2.98467	3835
2.98533	3833
2.98600	3831
2.98667	3828
2.98733	3826
2.98800	3824
2.98867	3822
2.98933	3819
2.99000	3817
2.99067	3815
2.99133	3812
2.99200	3810
2.99267	3808
2.99333	3806
2.99400	3803
2.99467	3801
2.99533	3799
2.99600	3797
2.99667	3795
2.99733	3793
2.99800	3790
2.99867	3788
2.99933	3786
3.00000	3784
3.00067	3782
3.00133	3780
3.00200	3778
3.00267	3777
3.00333	3775
3.00400	3773
3.00467	3771
3.00533	3769
3.00600	3767
3.00667	3765
3.00733	3764
3.00800	3762
3.00867	3760
3.00933	3758
3.01000	3756
3.01067	3755
3.01133	3753
3.01200	3751
3.01267	3749
3.01333	3747
3.01400	3746
3.01467	3744
3.01533	3742
3.01600	3740
3.01667	3739
3.01733	3737
3.01800	3735
3.01867	3734
3.01933	3732
3.02000	3730
3.02067	3729
3.02133	3727
3.02200	3725
3.02267	3724
3.02333	3722
3.02400	3720
3.02467	3719
3.02533	3717
3.02600	3715
3.02667	3713
3.02733	3712
3.02800	3710
3.02867	3709
3.02933	3707
3.03000	3706
3.03067	3704
3.03133	3703
3.03200	3701
3.03267	3700
3.03333	3698
3.03400	3697
3.03467	3695
3.03533	3694
3.03600	3692
3.03667	3691
3.03733	3690
3.03800	3688
3.03867	3687
3.03933	3686
3.04000	3684
3.04067	3683
3.04133	3682
3.04200	3680
3.04267	3679
3.04333	3678
3.04400	3677
3.04467	3676
3.04533	3674
3.04600	3673
3.04667	3672
3.04733	3671
3.04800	3670
3.04867	3669
3.04933	3668
3.05000	3667
3.05067	3666
3.05133	3665
3.05200	3664
3.05267	3664
3.05333	3663
3.05400	3662
3.05467	3661
3.05533	3660
3.05600	3659
3.05667	3658
3.05733	3657
3.05800	3656
3.05867	3655
3.05933	3654
3.06000	3654
3.06067	3653
3.06133	3652
3.06200	3651
3.06267	3651
3.06333	3650
3.06400	3649
3.06467	3649
3.06533	3648
3.06600	3647
3.06667	3647
3.06733	3646
3.06800	3645
3.06867	3645
3.06933	3644
3.07000	3643
3.07067	3643
3.07133	3642
3.07200	3642
3.07267	3641
3.07333	3641
3.07400	3640
3.07467	3639
3.07533	3639
3.07600	3638
3.07667	3638
3.07733	3637
3.07800	3637
3.07867	3636
3.07933	3636
3.08000	3635
3.08067	3635
3.08133	3634
3.08200	3634
3.08267	3633
3.08333	3633
3.08400	3632
3.08467	3631
3.08533	3631
3.08600	3631
3.08667	3630
3.08733	3630
3.08800	3629
3.08867	3629
3.08933	3628
3.09000	3628
3.09067	3627
3.09133	3626
3.09200	3626
3.09267	3625
3.09333	3625
3.09400	3624
3.09467	3624
3.09533	3623
3.09600	3622
3.09667	3622
3.09733	3621
3.09800	3620
3.09867	3620
3.09933	3619
3.10000	3618
3.10067	3618
3.10133	3617
3.10200	3616
3.10267	3616
3.10333	3615
3.10400	3614
3.10467	3613
3.10533	3613
3.10600	3612
3.10667	3611
3.10733	3610
3.10800	3609
3.10867	3609
3.10933	3608
3.11000	3607
3.11067	3606
3.11133	3605
3.11200	3604
3.11267	3603
3.11333	3602
3.11400	3601
3.11467	3600
3.11533	3599
3.11600	3598
3.11667	3597
3.11733	3596
3.11800	3595
3.11867	3594
3.11933	3593
3.12000	3592
3.12067	3591
3.12133	3590
3.12200	3589
3.12267	3588
3.12333	3587
3.12400	3586
3.12467	3585
3.12533	3584
3.12600	3583
3.12667	3582
3.12733	3581
3.12800	3580
3.12867	3579
3.12933	3578
3.13000	3577
3.13067	3576
3.13133	3575
3.13200	3574
3.13267	3573
3.13333	3571
3.13400	3570
3.13467	3569
3.13533	3568
3.13600	3567
3.13667	3566
3.13733	3565
3.13800	3564
3.13867	3563
3.13933	3562
3.14000	3560
3.14067	3559
3.14133	3558
3.14200	3557
3.14267	3556
3.14333	3555
3.14400	3554
3.14467	3553
3.14533	3552
3.14600	3551
3.14667	3550
3.14733	3549
3.14800	3547
3.14867	3546
3.14933	3545
3.15000	3544
3.15067	3543
3.15133	3542
3.15200	3541
3.15267	3540
3.15333	3539
3.15400	3538
3.15467	3537
3.15533	3535
3.15600	3534
3.15667	3533
3.15733	3532
3.15800	3531
3.15867	3530
3.15933	3529
3.16000	3528
3.16067	3527
3.16133	3526
3.16200	3525
3.16267	3524
3.16333	3523
3.16400	3522
3.16467	3521
3.16533	3520
3.16600	3519
3.16667	3519
3.16733	3518
3.16800	3517
3.16867	3516
3.16933	3515
3.17000	3514
3.17067	3513
3.17133	3512
3.17200	3511
3.17267	3510
3.17333	3509
3.17400	3508
3.17467	3507
3.17533	3506
3.17600	3505
3.17667	3504
3.17733	3503
3.17800	3502
3.17867	3501
3.17933	3500
3.18000	3499
3.18067	3497
3.18133	3496
3.18200	3495
3.18267	3494
3.18333	3493
3.18400	3492
3.18467	3491
3.18533	3490
3.18600	3489
3.18667	3488
3.18733	3487
3.18800	3486
3.18867	3485
3.18933	3484
3.19000	3483
3.19067	3482
3.19133	3481
3.19200	3480
3.19267	3479
3.19333	3477
3.19400	3476
3.19467	3475
3.19533	3474
3.19600	3473
3.19667	3472
3.19733	3471
3.19800	3470
3.19867	3469
3.19933	3468
3.20000	3467
3.20067	3466
3.20133	3465
3.20200	3464
3.20267	3463
3.20333	3462
3.20400	3461
3.20467	3460
3.20533	3459
3.20600	3458
3.20667	3458
3.20733	3457
3.20800	3456
3.20867	3455
3.20933	3454
3.21000	3454
3.21067	3453
3.21133	3452
3.21200	3451
3.21267	3451
3.21333	3450
3.21400	3449
3.21467	3448
3.21533	3448
3.21600	3447
3.21667	3446
3.21733	3446
3.21800	3445
3.21867	3444
3.21933	3444
3.22000	3443
3.22067	3443
3.22133	3442
3.22200	3441
3.22267	3441
3.22333	3440
3.22400	3440
3.22467	3439
3.22533	3439
3.22600	3438
3.22667	3438
3.22733	3437
3.22800	3437
3.22867	3436
3.22933	3436
3.23000	3435
3.23067	3435
3.23133	3435
3.23200	3434
3.23267	3434
3.23333	3433
3.23400	3433
3.23467	3433
3.23533	3432
3.23600	3432
3.23667	3431
3.23733	3431
3.23800	3430
3.23867	3430
3.23933	3430
3.24000	3429
3.24067	3429
3.24133	3428
3.24200	3428
3.24267	3427
3.24333	3427
3.24400	3427
3.24467	3426
3.24533	3426
3.24600	3425
3.24667	3425
3.24733	3425
3.24800	3424
3.24867	3424
3.24933	3423
3.25000	3423
3.25067	3423
3.25133	3422
3.25200	3422
3.25267	3421
3.25333	3421
3.25400	3420
3.25467	3420
3.25533	3420
3.25600	3419
3.25667	3419
3.25733	3419
3.25800	3418
3.25867	3418
3.25933	3418
3.26000	3417
3.26067	3417
3.26133	3416
3.26200	3416
3.26267	3416
3.26333	3415
3.26400	3415
3.26467	3414
3.26533	3414
3.26600	3414
3.26667	3413
3.26733	3413
3.26800	3412
3.26867	3412
3.26933	3412
3.27000	3411
3.27067	3411
3.27133	3411
3.27200	3410
3.27267	3410
3.27333	3410
3.27400	3409
3.27467	3409
3.27533	3408
3.27600	3408
3.27667	3408
3.27733	3407
3.27800	3407
3.27867	3407
3.27933	3406
3.28000	3406
3.28067	3405
3.28133	3405
3.28200	3405
3.28267	3404
3.28333	3404
3.28400	3403
3.28467	3403
3.28533	3402
3.28600	3402
3.28667	3401
3.28733	3401
3.28800	3400
3.28867	3400
3.28933	3399
3.29000	3399
3.29067	3398
3.29133	3398
3.29200	3397
3.29267	3397
3.29333	3396
3.29400	3396
3.29467	3395
3.29533	3395
3.29600	3394
3.29667	3394
3.29733	3393
3.29800	3393
3.29867	3392
3.29933	3392
3.30000	3391
3.30067	3391
3.30133	3390
3.30200	3390
3.30267	3389
3.30333	3389
3.30400	3388
3.30467	3387
3.30533	3387
3.30600	3386
3.30667	3386
3.30733	3385
3.30800	3385
3.30867	3384
3.30933	3384
3.31000	3383
3.31067	3382
3.31133	3382
3.31200	3381
3.31267	3381
3.31333	3380
3.31400	3379
3.31467	3379
3.31533	3378
3.31600	3378
3.31667	3377
3.31733	3376
3.31800	3376
3.31867	3375
3.31933	3375
3.32000	3374
3.32067	3373
3.32133	3373
3.32200	3372
3.32267	3372
3.32333	3371
3.32400	3371
3.32467	3370
3.32533	3369
3.32600	3369
3.32667	3368
3.32733	3368
3.32800	3367
3.32867	3367
3.32933	3366
3.33000	3366
3.33067	3365
3.33133	3365
3.33200	3364
3.33267	3364
3.33333	3363
3.33400	3363
3.33467	3362
3.33533	3362
3.33600	3361
3.33667	3361
3.33733	3360
3.33800	3360
3.33867	3359
3.33933	3359
3.34000	3358
3.34067	3358
3.34133	3358
3.34200	3357
3.34267	3357
3.34333	3356
3.34400	3356
3.34467	3355
3.34533	3355
3.34600	3355
3.34667	3354
3.34733	3354
3.34800	3353
3.34867	3353
3.34933	3353
3.35000	3352
3.35067	3352
3.35133	3351
3.35200	3351
3.35267	3351
3.35333	3350
3.35400	3350
3.35467	3350
3.35533	3350
3.35600	3349
3.35667	3349
3.35733	3349
3.35800	3349
3.35867	3349
3.35933	3348
3.36000	3348
3.36067	3348
3.36133	3348
3.36200	3348
3.36267	3347
3.36333	3347
3.36400	3347
3.36467	3347
3.36533	3347
3.36600	3347
3.36667	3347
3.36733	3347
3.36800	3347
3.36867	3347
3.36933	3347
3.37000	3347
3.37067	3347
3.37133	3347
3.37200	3347
3.37267	3348
3.37333	3348
3.37400	3348
3.37467	3349
3.37533	3349
3.37600	3349
3.37667	3350
3.37733	3350
3.37800	3350
3.37867	3351
3.37933	3351
3.38000	3352
3.38067	3352
3.38133	3353
3.38200	3353
3.38267	3354
3.38333	3355
3.38400	3355
3.38467	3356
3.38533	3357
3.38600	3357
3.38667	3358
3.38733	3359
3.38800	3360
3.38867	3360
3.38933	3361
3.39000	3362
3.39067	3363
3.39133	3364
3.39200	3365
3.39267	3366
3.39333	3367
3.39400	3368
3.39467	3369
3.39533	3370
3.39600	3372
3.39667	3373
3.39733	3374
3.39800	3375
3.39867	3376
3.39933	3378
3.40000	3379
3.40067	3380
3.40133	3382
3.40200	3383
3.40267	3384
3.40333	3386
3.40400	3387
3.40467	3388
3.40533	3390
3.40600	3391
3.40667	3393
3.40733	3394
3.40800	3396
3.40867	3398
3.40933	3399
3.41000	3401
3.41067	3402
3.41133	3404
3.41200	3406
3.41267	3407
3.41333	3409
3.41400	3410
3.41467	3412
3.41533	3414
3.41600	3416
3.41667	3417
3.41733	3419
3.41800	3421
3.41867	3423
3.41933	3425
3.42000	3426
3.42067	3428
3.42133	3430
3.42200	3432
3.42267	3434
3.42333	3437
3.42400	3439
3.42467	3441
3.42533	3443
3.42600	3445
3.42667	3448
3.42733	3450
3.42800	3452
3.42867	3455
3.42933	3457
3.43000	3460
3.43067	3462
3.43133	3465
3.43200	3468
3.43267	3471
3.43333	3474
3.43400	3477
3.43467	3480
3.43533	3483
3.43600	3486
3.43667	3489
3.43733	3493
3.43800	3496
3.43867	3500
3.43933	3503
3.44000	3507
3.44067	3511
3.44133	3515
3.44200	3519
3.44267	3523
3.44333	3527
3.44400	3531
3.44467	3535
3.44533	3540
3.44600	3544
3.44667	3549
3.44733	3554
3.44800	3558
3.44867	3563
3.44933	3568
3.45000	3573
3.45067	3579
3.45133	3584
3.45200	3589
3.45267	3595
3.45333	3600
3.45400	3606
3.45467	3612
3.45533	3618
3.45600	3624
3.45667	3630
3.45733	3636
3.45800	3642
3.45867	3648
3.45933	3655
3.46000	3661
3.46067	3668
3.46133	3675
3.46200	3681
3.46267	3688
3.46333	3695
3.46400	3702
3.46467	3709
3.46533	3716
3.46600	3723
3.46667	3730
3.46733	3737
3.46800	3744
3.46867	3752
3.46933	3759
3.47000	3766
3.47067	3774
3.47133	3781
3.47200	3788
3.47267	3796
3.47333	3803
3.47400	3811
3.47467	3818
3.47533	3826
3.47600	3834
3.47667	3841
3.47733	3849
3.47800	3856
3.47867	3864
3.47933	3872
3.48000	3879
3.48067	3887
3.48133	3895
3.48200	3902
3.48267	3910
3.48333	3918
3.48400	3926
3.48467	3934
3.48533	3941
3.48600	3949
3.48667	3957
3.48733	3965
3.48800	3974
3.48867	3982
3.48933	3990
3.49000	3999
3.49067	4007
3.49133	4016
3.49200	4025
3.49267	4033
3.49333	4042
3.49400	4052
3.49467	4061
3.49533	4071
3.49600	4080
3.49667	4090
3.49733	4101
3.49800	4111
3.49867	4122
3.49933	4134
3.50000	4145
3.50067	4157
3.50133	4170
3.50200	4183
3.50267	4196
3.50333	4210
3.50400	4224
3.50467	4239
3.50533	4255
3.50600	4271
3.50667	4288
3.50733	4306
3.50800	4325
3.50867	4344
3.50933	4364
3.51000	4385
3.51067	4408
3.51133	4431
3.51200	4455
3.51267	4481
3.51333	4507
3.51400	4535
3.51467	4565
3.51533	4595
3.51600	4628
3.51667	4662
3.51733	4697
3.51800	4734
3.51867	4773
3.51933	4814
3.52000	4857
3.52067	4901
3.52133	4948
3.52200	4996
3.52267	5047
3.52333	5100
3.52400	5155
3.52467	5213
3.52533	5273
3.52600	5335
3.52667	5400
3.52733	5467
3.52800	5537
3.52867	5610
3.52933	5685
3.53000	5763
3.53067	5844
3.53133	5927
3.53200	6014
3.53267	6104
3.53333	6196
3.53400	6292
3.53467	6390
3.53533	6491
3.53600	6596
3.53667	6703
3.53733	6814
3.53800	6927
3.53867	7043
3.53933	7163
3.54000	7285
3.54067	7411
3.54133	7539
3.54200	7670
3.54267	7804
3.54333	7941
3.54400	8080
3.54467	8222
3.54533	8366
3.54600	8513
3.54667	8662
3.54733	8814
3.54800	8968
3.54867	9124
3.54933	9282
3.55000	9442
3.55067	9604
3.55133	9768
3.55200	9933
3.55267	10100
3.55333	10268
3.55400	10437
3.55467	10608
3.55533	10780
3.55600	10952
3.55667	11126
3.55733	11300
3.55800	11475
3.55867	11650
3.55933	11825
3.56000	12001
3.56067	12176
3.56133	12351
3.56200	12526
3.56267	12700
3.56333	12873
3.56400	13045
3.56467	13217
3.56533	13387
3.56600	13556
3.56667	13723
3.56733	13888
3.56800	14052
3.56867	14214
3.56933	14374
3.57000	14531
3.57067	14686
3.57133	14839
3.57200	14989
3.57267	15136
3.57333	15281
3.57400	15422
3.57467	15560
3.57533	15695
3.57600	15827
3.57667	15956
3.57733	16082
3.57800	16204
3.57867	16323
3.57933	16438
3.58000	16550
3.58067	16659
3.58133	16765
3.58200	16867
3.58267	16965
3.58333	17061
3.58400	17152
3.58467	17241
3.58533	17326
3.58600	17408
3.58667	17486
3.58733	17561
3.58800	17632
3.58867	17700
3.58933	17765
3.59000	17827
3.59067	17885
3.59133	17940
3.59200	17992
3.59267	18040
3.59333	18086
3.59400	18129
3.59467	18168
3.59533	18205
3.59600	18239
3.59667	18270
3.59733	18298
3.59800	18323
3.59867	18346
3.59933	18365
3.60000	18382
3.60067	18396
3.60133	18407
3.60200	18416
3.60267	18422
3.60333	18426
3.60400	18428
3.60467	18427
3.60533	18423
3.60600	18418
3.60667	18410
3.60733	18401
3.60800	18389
3.60867	18375
3.60933	18359
3.61000	18341
3.61067	18322
3.61133	18300
3.61200	18276
3.61267	18250
3.61333	18223
3.61400	18193
3.61467	18162
3.61533	18128
3.61600	18093
3.61667	18056
3.61733	18016
3.61800	17975
3.61867	17932
3.61933	17887
3.62000	17840
3.62067	17791
3.62133	17740
3.62200	17687
3.62267	17633
3.62333	17576
3.62400	17517
3.62467	17457
3.62533	17395
3.62600	17331
3.62667	17265
3.62733	17197
3.62800	17128
3.62867	17057
3.62933	16983
3.63000	16909
3.63067	16832
3.63133	16754
3.63200	16674
3.63267	16593
3.63333	16509
3.63400	16425
3.63467	16338
3.63533	16250
3.63600	16160
3.63667	16069
3.63733	15976
3.63800	15882
3.63867	15786
3.63933	15689
3.64000	15591
3.64067	15490
3.64133	15389
3.64200	15286
3.64267	15183
3.64333	15078
3.64400	14971
3.64467	14864
3.64533	14756
3.64600	14647
3.64667	14536
3.64733	14425
3.64800	14314
3.64867	14201
3.64933	14088
3.65000	13974
3.65067	13859
3.65133	13744
3.65200	13629
3.65267	13513
3.65333	13397
3.65400	13281
3.65467	13164
3.65533	13047
3.65600	12930
3.65667	12813
3.65733	12696
3.65800	12579
3.65867	12462
3.65933	12345
3.66000	12228
3.66067	12112
3.66133	11996
3.66200	11880
3.66267	11764
3.66333	11650
3.66400	11535
3.66467	11421
3.66533	11308
3.66600	11195
3.66667	11083
3.66733	10972
3.66800	10861
3.66867	10751
3.66933	10642
3.67000	10534
3.67067	10426
3.67133	10320
3.67200	10214
3.67267	10110
3.67333	10006
3.67400	9903
3.67467	9801
3.67533	9701
3.67600	9601
3.67667	9502
3.67733	9405
3.67800	9309
3.67867	9213
3.67933	9119
3.68000	9026
3.68067	8934
3.68133	8843
3.68200	8754
3.68267	8665
3.68333	8578
3.68400	8492
3.68467	8407
3.68533	8323
3.68600	8240
3.68667	8158
3.68733	8078
3.68800	7999
3.68867	7921
3.68933	7844
3.69000	7768
3.69067	7694
3.69133	7621
3.69200	7548
3.69267	7477
3.69333	7408
3.69400	7339
3.69467	7272
3.69533	7205
3.69600	7140
3.69667	7076
3.69733	7013
3.69800	6950
3.69867	6890
3.69933	6830
3.70000	6771
3.70067	6713
3.70133	6656
3.70200	6600
3.70267	6545
3.70333	6492
3.70400	6439
3.70467	6387
3.70533	6336
3.70600	6285
3.70667	6236
3.70733	6188
3.70800	6140
3.70867	6094
3.70933	6048
3.71000	6003
3.71067	5959
3.71133	5916
3.71200	5874
3.71267	5832
3.71333	5791
3.71400	5751
3.71467	5712
3.71533	5674
3.71600	5636
3.71667	5599
3.71733	5563
3.71800	5527
3.71867	5492
3.71933	5458
3.72000	5425
3.72067	5392
3.72133	5360
3.72200	5329
3.72267	5298
3.72333	5268
3.72400	5238
3.72467	5209
3.72533	5181
3.72600	5153
3.72667	5126
3.72733	5100
3.72800	5074
3.72867	5048
3.72933	5023
3.73000	4999
3.73067	4975
3.73133	4951
3.73200	4928
3.73267	4905
3.73333	4883
3.73400	4862
3.73467	4840
3.73533	4820
3.73600	4799
3.73667	4779
3.73733	4760
3.73800	4740
3.73867	4721
3.73933	4703
3.74000	4685
3.74067	4667
3.74133	4650
3.74200	4633
3.74267	4616
3.74333	4599
3.74400	4583
3.74467	4568
3.74533	4552
3.74600	4537
3.74667	4522
3.74733	4507
3.74800	4493
3.74867	4479
3.74933	4465
3.75000	4451
3.75067	4438
3.75133	4424
3.75200	4411
3.75267	4399
3.75333	4386
3.75400	4374
3.75467	4362
3.75533	4350
3.75600	4338
3.75667	4327
3.75733	4315
3.75800	4304
3.75867	4293
3.75933	4283
3.76000	4272
3.76067	4262
3.76133	4252
3.76200	4242
3.76267	4232
3.76333	4222
3.76400	4213
3.76467	4203
3.76533	4194
3.76600	4185
3.76667	4175
3.76733	4167
3.76800	4158
3.76867	4149
3.76933	4141
3.77000	4132
3.77067	4124
3.77133	4116
3.77200	4108
3.77267	4100
3.77333	4093
3.77400	4085
3.77467	4078
3.77533	4071
3.77600	4064
3.77667	4057
3.77733	4050
3.77800	4043
3.77867	4037
3.77933	4031
3.78000	4025
3.78067	4018
3.78133	4013
3.78200	4007
3.78267	4001
3.78333	3996
3.78400	3990
3.78467	3985
3.78533	3979
3.78600	3974
3.78667	3969
3.78733	3964
3.78800	3959
3.78867	3954
3.78933	3949
3.79000	3945
3.79067	3940
3.79133	3935
3.79200	3931
3.79267	3926
3.79333	3922
3.79400	3918
3.79467	3913
3.79533	3909
3.79600	3905
3.79667	3901
3.79733	3897
3.79800	3893
3.79867	3889
3.79933	3885
3.80000	3881
3.80067	3877
3.80133	3873
3.80200	3869
3.80267	3866
3.80333	3862
3.80400	3858
3.80467	3855
3.80533	3851
3.80600	3848
3.80667	3844
3.80733	3841
3.80800	3837
3.80867	3834
3.80933	3830
3.81000	3827
3.81067	3823
3.81133	3820
3.81200	3816
3.81267	3813
3.81333	3809
3.81400	3806
3.81467	3803
3.81533	3799
3.81600	3796
3.81667	3793
3.81733	3790
3.81800	3786
3.81867	3783
3.81933	3780
3.82000	3777
3.82067	3773
3.82133	3770
3.82200	3767
3.82267	3764
3.82333	3761
3.82400	3758
3.82467	3754
3.82533	3751
3.82600	3748
3.82667	3745
3.82733	3742
3.82800	3739
3.82867	3736
3.82933	3733
3.83000	3730
3.83067	3727
3.83133	3724
3.83200	3721
3.83267	3718
3.83333	3715
3.83400	3712
3.83467	3709
3.83533	3706
3.83600	3703
3.83667	3700
3.83733	3697
3.83800	3694
3.83867	3691
3.83933	3688
3.84000	3685
3.84067	3683
3.84133	3680
3.84200	3677
3.84267	3674
3.84333	3671
3.84400	3668
3.84467	3666
3.84533	3663
3.84600	3660
3.84667	3657
3.84733	3654
3.84800	3652
3.84867	3649
3.84933	3646
3.85000	3643
3.85067	3640
3.85133	3638
3.85200	3635
3.85267	3632
3.85333	3630
3.85400	3627
3.85467	3624
3.85533	3622
3.85600	3619
3.85667	3616
3.85733	3614
3.85800	3611
3.85867	3609
3.85933	3606
3.86000	3604
3.86067	3601
3.86133	3599
3.86200	3596
3.86267	3594
3.86333	3592
3.86400	3589
3.86467	3587
3.86533	3585
3.86600	3583
3.86667	3580
3.86733	3578
3.86800	3576
3.86867	3574
3.86933	3571
3.87000	3569
3.87067	3567
3.87133	3565
3.87200	3563
3.87267	3560
3.87333	3558
3.87400	3556
3.87467	3554
3.87533	3552
3.87600	3550
3.87667	3547
3.87733	3545
3.87800	3543
3.87867	3541
3.87933	3539
3.88000	3537
3.88067	3535
3.88133	3533
3.88200	3532
3.88267	3530
3.88333	3528
3.88400	3526
3.88467	3524
3.88533	3522
3.88600	3520
3.88667	3518
3.88733	3516
3.88800	3514
3.88867	3513
3.88933	3511
3.89000	3509
3.89067	3507
3.89133	3505
3.89200	3503
3.89267	3502
3.89333	3500
3.89400	3498
3.89467	3496
3.89533	3495
3.89600	3493
3.89667	3491
3.89733	3490
3.89800	3488
3.89867	3486
3.89933	3485
3.90000	3483
3.90067	3481
3.90133	3480
3.90200	3478
3.90267	3477
3.90333	3475
3.90400	3473
3.90467	3472
3.90533	3470
3.90600	3469
3.90667	3467
3.90733	3466
3.90800	3464
3.90867	3463
3.90933	3461
3.91000	3460
3.91067	3458
3.91133	3456
3.91200	3455
3.91267	3453
3.91333	3452
3.91400	3451
3.91467	3449
3.91533	3448
3.91600	3446
3.91667	3445
3.91733	3443
3.91800	3442
3.91867	3441
3.91933	3439
3.92000	3438
3.92067	3437
3.92133	3435
3.92200	3434
3.92267	3433
3.92333	3431
3.92400	3430
3.92467	3429
3.92533	3427
3.92600	3426
3.92667	3424
3.92733	3423
3.92800	3421
3.92867	3420
3.92933	3418
3.93000	3417
3.93067	3416
3.93133	3414
3.93200	3413
3.93267	3411
3.93333	3410
3.93400	3408
3.93467	3407
3.93533	3405
3.93600	3404
3.93667	3402
3.93733	3401
3.93800	3399
3.93867	3398
3.93933	3396
3.94000	3395
3.94067	3393
3.94133	3392
3.94200	3390
3.94267	3389
3.94333	3387
3.94400	3386
3.94467	3384
3.94533	3383
3.94600	3381
3.94667	3380
3.94733	3378
3.94800	3377
3.94867	3375
3.94933	3374
3.95000	3373
3.95067	3371
3.95133	3370
3.95200	3369
3.95267	3368
3.95333	3366
3.95400	3365
3.95467	3364
3.95533	3363
3.95600	3362
3.95667	3360
3.95733	3359
3.95800	3358
3.95867	3357
3.95933	3356
3.96000	3355
3.96067	3354
3.96133	3353
3.96200	3352
3.96267	3351
3.96333	3350
3.96400	3349
3.96467	3348
3.96533	3347
3.96600	3346
3.96667	3345
3.96733	3345
3.96800	3344
3.96867	3343
3.96933	3342
3.97000	3341
3.97067	3340
3.97133	3339
3.97200	3338
3.97267	3337
3.97333	3336
3.97400	3335
3.97467	3334
3.97533	3333
3.97600	3332
3.97667	3331
3.97733	3330
3.97800	3330
3.97867	3329
3.97933	3328
3.98000	3327
3.98067	3326
3.98133	3326
3.98200	3325
3.98267	3324
3.98333	3323
3.98400	3323
3.98467	3322
3.98533	3321
3.98600	3321
3.98667	3320
3.98733	3319
3.98800	3319
3.98867	3318
3.98933	3318
3.99000	3317
3.99067	3316
3.99133	3316
3.99200	3315
3.99267	3315
3.99333	3314
3.99400	3314
3.99467	3313
3.99533	3313
3.99600	3312
3.99667	3312
3.99733	3311
3.99800	3311
3.99867	3310
3.99933	3310
4.00000	3309
4.00067	3309
4.00133	3309
4.00200	3308
4.00267	3308
4.00333	3308
4.00400	3308
4.00467	3307
4.00533	3307
4.00600	3307
4.00667	3307
4.00733	3307
4.00800	3307
4.00867	3307
4.00933	3307
4.01000	3307
4.01067	3307
4.01133	3307
4.01200	3307
4.01267	3307
4.01333	3307
4.01400	3307
4.01467	3307
4.01533	3307
4.01600	3307
4.01667	3307
4.01733	3307
4.01800	3307
4.01867	3307
4.01933	3307
4.02000	3307
4.02067	3308
4.02133	3308
4.02200	3308
4.02267	3308
4.02333	3308
4.02400	3308
4.02467	3308
4.02533	3309
4.02600	3309
4.02667	3309
4.02733	3309
4.02800	3310
4.02867	3310
4.02933	3310
4.03000	3311
4.03067	3311
4.03133	3312
4.03200	3313
4.03267	3313
4.03333	3314
4.03400	3315
4.03467	3315
4.03533	3316
4.03600	3317
4.03667	3318
4.03733	3319
4.03800	3320
4.03867	3321
4.03933	3322
4.04000	3323
4.04067	3324
4.04133	3325
4.04200	3327
4.04267	3328
4.04333	3330
4.04400	3331
4.04467	3333
4.04533	3334
4.04600	3336
4.04667	3338
4.04733	3340
4.04800	3342
4.04867	3344
4.04933	3346
4.05000	3348
4.05067	3351
4.05133	3353
4.05200	3356
4.05267	3359
4.05333	3362
4.05400	3365
4.05467	3368
4.05533	3371
4.05600	3375
4.05667	3378
4.05733	3382
4.05800	3386
4.05867	3390
4.05933	3394
4.06000	3399
4.06067	3403
4.06133	3408
4.06200	3413
4.06267	3418
4.06333	3423
4.06400	3429
4.06467	3434
4.06533	3440
4.06600	3446
4.06667	3453
4.06733	3459
4.06800	3466
4.06867	3473
4.06933	3480
4.07000	3488
4.07067	3495
4.07133	3504
4.07200	3512
4.07267	3521
4.07333	3530
4.07400	3539
4.07467	3548
4.07533	3558
4.07600	3568
4.07667	3579
4.07733	3589
4.07800	3600
4.07867	3612
4.07933	3623
4.08000	3635
4.08067	3647
4.08133	3660
4.08200	3673
4.08267	3686
4.08333	3700
4.08400	3714
4.08467	3728
4.08533	3743
4.08600	3758
4.08667	3773
4.08733	3789
4.08800	3805
4.08867	3822
4.08933	3839
4.09000	3856
4.09067	3873
4.09133	3891
4.09200	3909
4.09267	3928
4.09333	3947
4.09400	3966
4.09467	3985
4.09533	4005
4.09600	4025
4.09667	4046
4.09733	4066
4.09800	4087
4.09867	4108
4.09933	4129
4.10000	4151
4.10067	4172
4.10133	4194
4.10200	4216
4.10267	4239
4.10333	4261
4.10400	4283
4.10467	4306
4.10533	4329
4.10600	4352
4.10667	4375
4.10733	4397
4.10800	4421
4.10867	4444
4.10933	4467
4.11000	4490
4.11067	4513
4.11133	4536
4.11200	4559
4.11267	4581
4.11333	4604
4.11400	4627
4.11467	4649
4.11533	4671
4.11600	4693
4.11667	4715
4.11733	4737
4.11800	4758
4.11867	4779
4.11933	4800
4.12000	4821
4.12067	4841
4.12133	4861
4.12200	4881
4.12267	4900
4.12333	4919
4.12400	4938
4.12467	4956
4.12533	4974
4.12600	4991
4.12667	5008
4.12733	5025
4.12800	5041
4.12867	5056
4.12933	5071
4.13000	5086
4.13067	5100
4.13133	5113
4.13200	5126
4.13267	5138
4.13333	5150
4.13400	5161
4.13467	5172
4.13533	5182
4.13600	5192
4.13667	5200
4.13733	5209
4.13800	5217
4.13867	5224
4.13933	5230
4.14000	5236
4.14067	5242
4.14133	5247
4.14200	5251
4.14267	5255
4.14333	5258
4.14400	5261
4.14467	5263
4.14533	5264
4.14600	5265
4.14667	5266
4.14733	5265
4.14800	5265
4.14867	5264
4.14933	5262
4.15000	5260
4.15067	5257
4.15133	5254
4.15200	5250
4.15267	5245
4.15333	5241
4.15400	5236
4.15467	5230
4.15533	5224
4.15600	5217
4.15667	5210
4.15733	5203
4.15800	5195
4.15867	5187
4.15933	5179
4.16000	5170
4.16067	5160
4.16133	5151
4.16200	5141
4.16267	5130
4.16333	5120
4.16400	5109
4.16467	5098
4.16533	5086
4.16600	5075
4.16667	5063
4.16733	5051
4.16800	5038
4.16867	5026
4.16933	5013
4.17000	5000
4.17067	4987
4.17133	4974
4.17200	4961
4.17267	4947
4.17333	4933
4.17400	4920
4.17467	4906
4.17533	4892
4.17600	4878
4.17667	4864
4.17733	4851
4.17800	4837
4.17867	4823
4.17933	4809
4.18000	4795
4.18067	4781
4.18133	4768
4.18200	4754
4.18267	4740
4.18333	4727
4.18400	4713
4.18467	4700
4.18533	4687
4.18600	4674
4.18667	4661
4.18733	4649
4.18800	4636
4.18867	4624
4.18933	4612
4.19000	4600
4.19067	4588
4.19133	4577
4.19200	4566
4.19267	4555
4.19333	4545
4.19400	4535
4.19467	4525
4.19533	4515
4.19600	4506
4.19667	4497
4.19733	4489
4.19800	4481
4.19867	4474
4.19933	4466
4.20000	4460
4.20067	4453
4.20133	4447
4.20200	4442
4.20267	4437
4.20333	4433
4.20400	4429
4.20467	4426
4.20533	4423
4.20600	4421
4.20667	4420
4.20733	4419
4.20800	4419
4.20867	4419
4.20933	4421
4.21000	4422
4.21067	4425
4.21133	4428
4.21200	4433
4.21267	4437
4.21333	4443
4.21400	4450
4.21467	4457
4.21533	4466
4.21600	4475
4.21667	4485
4.21733	4496
4.21800	4508
4.21867	4521
4.21933	4535
4.22000	4551
4.22067	4567
4.22133	4584
4.22200	4603
4.22267	4623
4.22333	4644
4.22400	4666
4.22467	4689
4.22533	4714
4.22600	4740
4.22667	4768
4.22733	4796
4.22800	4826
4.22867	4858
4.22933	4891
4.23000	4925
4.23067	4961
4.23133	4998
4.23200	5036
4.23267	5076
4.23333	5118
4.23400	5161
4.23467	5206
4.23533	5252
4.23600	5300
4.23667	5349
4.23733	5399
4.23800	5452
4.23867	5505
4.23933	5561
4.24000	5618
4.24067	5676
4.24133	5736
4.24200	5798
4.24267	5861
4.24333	5926
4.24400	5992
4.24467	6060
4.24533	6130
4.24600	6201
4.24667	6273
4.24733	6347
4.24800	6423
4.24867	6499
4.24933	6578
4.25000	6658
4.25067	6739
4.25133	6822
4.25200	6907
4.25267	6993
4.25333	7080
4.25400	7169
4.25467	7259
4.25533	7351
4.25600	7444
4.25667	7538
4.25733	7633
4.25800	7730
4.25867	7828
4.25933	7927
4.26000	8027
4.26067	8128
4.26133	8230
4.26200	8333
4.26267	8437
4.26333	8541
4.26400	8647
4.26467	8752
4.26533	8859
4.26600	8966
4.26667	9073
4.26733	9181
4.26800	9290
4.26867	9398
4.26933	9508
4.27000	9617
4.27067	9727
4.27133	9837
4.27200	9947
4.27267	10057
4.27333	10168
4.27400	10278
4.27467	10388
4.27533	10498
4.27600	10608
4.27667	10717
4.27733	10826
4.27800	10934
4.27867	11042
4.27933	11150
4.28000	11257
4.28067	11364
4.28133	11470
4.28200	11575
4.28267	11680
4.28333	11784
4.28400	11888
4.28467	11991
4.28533	12093
4.28600	12195
4.28667	12295
4.28733	12395
4.28800	12494
4.28867	12592
4.28933	12690
4.29000	12786
4.29067	12881
4.29133	12975
4.29200	13068
4.29267	13159
4.29333	13250
4.29400	13339
4.29467	13427
4.29533	13514
4.29600	13599
4.29667	13684
4.29733	13766
4.29800	13848
4.29867	13928
4.29933	14007
4.30000	14084
4.30067	14160
4.30133	14235
4.30200	14308
4.30267	14380
4.30333	14449
4.30400	14518
4.30467	14585
4.30533	14650
4.30600	14713
4.30667	14775
4.30733	14835
4.30800	14893
4.30867	14950
4.30933	15005
4.31000	15059
4.31067	15110
4.31133	15160
4.31200	15209
4.31267	15256
4.31333	15301
4.31400	15345
4.31467	15387
4.31533	15427
4.31600	15465
4.31667	15502
4.31733	15537
4.31800	15571
4.31867	15602
4.31933	15632
4.32000	15660
4.32067	15687
4.32133	15711
4.32200	15734
4.32267	15755
4.32333	15774
4.32400	15791
4.32467	15807
4.32533	15821
4.32600	15833
4.32667	15843
4.32733	15852
4.32800	15858
4.32867	15863
4.32933	15866
4.33000	15868
4.33067	15868
4.33133	15866
4.33200	15862
4.33267	15857
4.33333	15850
4.33400	15842
4.33467	15831
4.33533	15820
4.33600	15806
4.33667	15791
4.33733	15774
4.33800	15756
4.33867	15736
4.33933	15715
4.34000	15692
4.34067	15667
4.34133	15642
4.34200	15615
4.34267	15586
4.34333	15556
4.34400	15525
4.34467	15492
4.34533	15458
4.34600	15423
4.34667	15386
4.34733	15348
4.34800	15309
4.34867	15268
4.34933	15226
4.35000	15183
4.35067	15139
4.35133	15093
4.35200	15046
4.35267	14998
4.35333	14948
4.35400	14898
4.35467	14846
4.35533	14793
4.35600	14739
4.35667	14684
4.35733	14627
4.35800	14570
4.35867	14512
4.35933	14453
4.36000	14393
4.36067	14332
4.36133	14270
4.36200	14208
4.36267	14144
4.36333	14080
4.36400	14015
4.36467	13950
4.36533	13883
4.36600	13816
4.36667	13748
4.36733	13680
4.36800	13611
4.36867	13541
4.36933	13471
4.37000	13400
4.37067	13328
4.37133	13257
4.37200	13184
4.37267	13112
4.37333	13039
4.37400	12965
4.37467	12892
4.37533	12818
4.37600	12743
4.37667	12669
4.37733	12594
4.37800	12519
4.37867	12444
4.37933	12369
4.38000	12293
4.38067	12218
4.38133	12143
4.38200	12067
4.38267	11992
4.38333	11917
4.38400	11841
4.38467	11766
4.38533	11691
4.38600	11616
4.38667	11542
4.38733	11467
4.38800	11393
4.38867	11319
4.38933	11246
4.39000	11173
4.39067	11100
4.39133	11027
4.39200	10955
4.39267	10884
4.39333	10812
4.39400	10741
4.39467	10671
4.39533	10601
4.39600	10532
4.39667	10463
4.39733	10395
4.39800	10327
4.39867	10260
4.39933	10194
4.40000	10128
4.40067	10063
4.40133	9998
4.40200	9934
4.40267	9871
4.40333	9808
4.40400	9746
4.40467	9685
4.40533	9625
4.40600	9565
4.40667	9506
4.40733	9447
4.40800	9389
4.40867	9332
4.40933	9276
4.41000	9221
4.41067	9166
4.41133	9112
4.41200	9058
4.41267	9006
4.41333	8954
4.41400	8902
4.41467	8852
4.41533	8802
4.41600	8753
4.41667	8705
4.41733	8658
4.41800	8611
4.41867	8566
4.41933	8521
4.42000	8477
4.42067	8434
4.42133	8392
4.42200	8350
4.42267	8310
4.42333	8270
4.42400	8231
4.42467	8193
4.42533	8155
4.42600	8119
4.42667	8083
4.42733	8048
4.42800	8014
4.42867	7981
4.42933	7948
4.43000	7917
4.43067	7886
4.43133	7856
4.43200	7827
4.43267	7798
4.43333	7771
4.43400	7744
4.43467	7719
4.43533	7694
4.43600	7670
4.43667	7647
4.43733	7625
4.43800	7604
4.43867	7584
4.43933	7565
4.44000	7546
4.44067	7529
4.44133	7512
4.44200	7497
4.44267	7482
4.44333	7468
4.44400	7456
4.44467	7444
4.44533	7433
4.44600	7423
4.44667	7414
4.44733	7405
4.44800	7398
4.44867	7392
4.44933	7387
4.45000	7382
4.45067	7379
4.45133	7377
4.45200	7375
4.45267	7375
4.45333	7375
4.45400	7377
4.45467	7379
4.45533	7382
4.45600	7387
4.45667	7392
4.45733	7398
4.45800	7405
4.45867	7414
4.45933	7423
4.46000	7433
4.46067	7444
4.46133	7456
4.46200	7469
4.46267	7483
4.46333	7498
4.46400	7513
4.46467	7530
4.46533	7548
4.46600	7566
4.46667	7586
4.46733	7606
4.46800	7627
4.46867	7649
4.46933	7672
4.47000	7696
4.47067	7720
4.47133	7745
4.47200	7771
4.47267	7798
4.47333	7826
4.47400	7854
4.47467	7883
4.47533	7912
4.47600	7943
4.47667	7974
4.47733	8005
4.47800	8038
4.47867	8071
4.47933	8104
4.48000	8138
4.48067	8173
4.48133	8208
4.48200	8244
4.48267	8281
4.48333	8317
4.48400	8355
4.48467	8393
4.48533	8431
4.48600	8469
4.48667	8508
4.48733	8547
4.48800	8586
4.48867	8626
4.48933	8666
4.49000	8705
4.49067	8745
4.49133	8785
4.49200	8825
4.49267	8865
4.49333	8905
4.49400	8945
4.49467	8985
4.49533	9024
4.49600	9064
4.49667	9103
4.49733	9142
4.49800	9181
4.49867	9220
4.49933	9258
4.50000	9296
4.50067	9333
4.50133	9370
4.50200	9407
4.50267	9443
4.50333	9478
4.50400	9513
4.50467	9547
4.50533	9581
4.50600	9614
4.50667	9646
4.50733	9677
4.50800	9708
4.50867	9738
4.50933	9767
4.51000	9796
4.51067	9823
4.51133	9850
4.51200	9876
4.51267	9901
4.51333	9926
4.51400	9949
4.51467	9972
4.51533	9994
4.51600	10015
4.51667	10035
4.51733	10054
4.51800	10073
4.51867	10090
4.51933	10107
4.52000	10123
4.52067	10137
4.52133	10151
4.52200	10164
4.52267	10175
4.52333	10186
4.52400	10196
4.52467	10205
4.52533	10213
4.52600	10220
4.52667	10226
4.52733	10232
4.52800	10236
4.52867	10240
4.52933	10242
4.53000	10244
4.53067	10245
4.53133	10245
4.53200	10244
4.53267	10242
4.53333	10239
4.53400	10236
4.53467	10231
4.53533	10226
4.53600	10220
4.53667	10213
4.53733	10205
4.53800	10196
4.53867	10187
4.53933	10177
4.54000	10166
4.54067	10155
4.54133	10143
4.54200	10131
4.54267	10118
4.54333	10104
4.54400	10090
4.54467	10076
4.54533	10061
4.54600	10046
4.54667	10030
4.54733	10013
4.54800	9997
4.54867	9979
4.54933	9962
4.55000	9944
4.55067	9925
4.55133	9907
4.55200	9888
4.55267	9869
4.55333	9849
4.55400	9829
4.55467	9810
4.55533	9789
4.55600	9769
4.55667	9748
4.55733	9728
4.55800	9707
4.55867	9686
4.55933	9664
4.56000	9643
4.56067	9621
4.56133	9600
4.56200	9578
4.56267	9556
4.56333	9534
4.56400	9512
4.56467	9490
4.56533	9467
4.56600	9445
4.56667	9423
4.56733	9400
4.56800	9377
4.56867	9355
4.56933	9332
4.57000	9310
4.57067	9287
4.57133	9264
4.57200	9242
4.57267	9219
4.57333	9197
4.57400	9174
4.57467	9151
4.57533	9129
4.57600	9106
4.57667	9084
4.57733	9061
4.57800	9039
4.57867	9016
4.57933	8994
4.58000	8972
4.58067	8949
4.58133	8927
4.58200	8905
4.58267	8883
4.58333	8861
4.58400	8839
4.58467	8817
4.58533	8795
4.58600	8773
4.58667	8751
4.58733	8729
4.58800	8707
4.58867	8685
4.58933	8663
4.59000	8641
4.59067	8620
4.59133	8598
4.59200	8576
4.59267	8554
4.59333	8532
4.59400	8510
4.59467	8488
4.59533	8467
4.59600	8445
4.59667	8423
4.59733	8401
4.59800	8379
4.59867	8358
4.59933	8336
4.60000	8314
4.60067	8292
4.60133	8271
4.60200	8249
4.60267	8227
4.60333	8205
4.60400	8184
4.60467	8162
4.60533	8140
4.60600	8119
4.60667	8097
4.60733	8075
4.60800	8054
4.60867	8032
4.60933	8010
4.61000	7989
4.61067	7967
4.61133	7945
4.61200	7924
4.61267	7902
4.61333	7880
4.61400	7859
4.61467	7837
4.61533	7816
4.61600	7794
4.61667	7772
4.61733	7751
4.61800	7729
4.61867	7708
4.61933	7686
4.62000	7665
4.62067	7643
4.62133	7622
4.62200	7600
4.62267	7579
4.62333	7557
4.62400	7536
4.62467	7515
4.62533	7493
4.62600	7472
4.62667	7451
4.62733	7430
4.62800	7409
4.62867	7388
4.62933	7367
4.63000	7346
4.63067	7325
4.63133	7304
4.63200	7283
4.63267	7263
4.63333	7242
4.63400	7221
4.63467	7201
4.63533	7180
4.63600	7160
4.63667	7140
4.63733	7120
4.63800	7100
4.63867	7080
4.63933	7060
4.64000	7041
4.64067	7021
4.64133	7002
4.64200	6982
4.64267	6963
4.64333	6944
4.64400	6925
4.64467	6906
4.64533	6887
4.64600	6868
4.64667	6850
4.64733	6831
4.64800	6813
4.64867	6795
4.64933	6777
4.65000	6759
4.65067	6741
4.65133	6723
4.65200	6706
4.65267	6688
4.65333	6671
4.65400	6654
4.65467	6637
4.65533	6620
4.65600	6603
4.65667	6587
4.65733	6570
4.65800	6554
4.65867	6538
4.65933	6522
4.66000	6506
4.66067	6490
4.66133	6474
4.66200	6458
4.66267	6443
4.66333	6428
4.66400	6413
4.66467	6398
4.66533	6383
4.66600	6368
4.66667	6354
4.66733	6339
4.66800	6325
4.66867	6310
4.66933	6296
4.67000	6282
4.67067	6269
4.67133	6255
4.67200	6241
4.67267	6228
4.67333	6215
4.67400	6201
4.67467	6188
4.67533	6176
4.67600	6163
4.67667	6150
4.67733	6138
4.67800	6126
4.67867	6114
4.67933	6102
4.68000	6090
4.68067	6078
4.68133	6066
4.68200	6055
4.68267	6044
4.68333	6032
4.68400	6021
4.68467	6010
4.68533	5999
4.68600	5988
4.68667	5977
4.68733	5966
4.68800	5956
4.68867	5945
4.68933	5935
4.69000	5925
4.69067	5914
4.69133	5904
4.69200	5894
4.69267	5884
4.69333	5874
4.69400	5864
4.69467	5855
4.69533	5845
4.69600	5835
4.69667	5826
4.69733	5817
4.69800	5807
4.69867	5798
4.69933	5789
4.70000	5780
4.70067	5771
4.70133	5763
4.70200	5754
4.70267	5745
4.70333	5737
4.70400	5728
4.70467	5720
4.70533	5712
4.70600	5704
4.70667	5695
4.70733	5687
4.70800	5679
4.70867	5671
4.70933	5664
4.71000	5656
4.71067	5648
4.71133	5640
4.71200	5633
4.71267	5625
4.71333	5618
4.71400	5611
4.71467	5603
4.71533	5596
4.71600	5589
4.71667	5582
4.71733	5575
4.71800	5568
4.71867	5562
4.71933	5555
4.72000	5548
4.72067	5542
4.72133	5535
4.72200	5529
4.72267	5523
4.72333	5517
4.72400	5511
4.72467	5504
4.72533	5499
4.72600	5493
4.72667	5487
4.72733	5481
4.72800	5475
4.72867	5470
4.72933	5464
4.73000	5459
4.73067	5453
4.73133	5448
4.73200	5443
4.73267	5438
4.73333	5433
4.73400	5428
4.73467	5423
4.73533	5418
4.73600	5413
4.73667	5408
4.73733	5403
4.73800	5399
4.73867	5394
4.73933	5389
4.74000	5385
4.74067	5380
4.74133	5376
4.74200	5371
4.74267	5367
4.74333	5362
4.74400	5358
4.74467	5353
4.74533	5349
4.74600	5344
4.74667	5340
4.74733	5336
4.74800	5331
4.74867	5327
4.74933	5323
4.75000	5319
4.75067	5315
4.75133	5311
4.75200	5307
4.75267	5304
4.75333	5300
4.75400	5296
4.75467	5292
4.75533	5289
4.75600	5285
4.75667	5282
4.75733	5278
4.75800	5275
4.75867	5272
4.75933	5268
4.76000	5265
4.76067	5262
4.76133	5259
4.76200	5255
4.76267	5252
4.76333	5249
4.76400	5246
4.76467	5243
4.76533	5240
4.76600	5237
4.76667	5234
4.76733	5232
4.76800	5229
4.76867	5226
4.76933	5223
4.77000	5221
4.77067	5218
4.77133	5215
4.77200	5213
4.77267	5210
4.77333	5208
4.77400	5205
4.77467	5203
4.77533	5200
4.77600	5198
4.77667	5196
4.77733	5193
4.77800	5191
4.77867	5189
4.77933	5186
4.78000	5184
4.78067	5182
4.78133	5179
4.78200	5177
4.78267	5175
4.78333	5172
4.78400	5170
4.78467	5168
4.78533	5165
4.78600	5163
4.78667	5161
4.78733	5159
4.78800	5156
4.78867	5154
4.78933	5152
4.79000	5149
4.79067	5147
4.79133	5145
4.79200	5143
4.79267	5140
4.79333	5138
4.79400	5136
4.79467	5133
4.79533	5131
4.79600	5129
4.79667	5127
4.79733	5124
4.79800	5122
4.79867	5120
4.79933	5118
4.80000	5115
4.80067	5113
4.80133	5111
4.80200	5109
4.80267	5106
4.80333	5104
4.80400	5102
4.80467	5100
4.80533	5098
4.80600	5096
4.80667	5094
4.80733	5092
4.80800	5090
4.80867	5088
4.80933	5086
4.81000	5084
4.81067	5082
4.81133	5080
4.81200	5078
4.81267	5076
4.81333	5074
4.81400	5073
4.81467	5071
4.81533	5069
4.81600	5067
4.81667	5065
4.81733	5064
4.81800	5062
4.81867	5060
4.81933	5058
4.82000	5057
4.82067	5055
4.82133	5054
4.82200	5052
4.82267	5050
4.82333	5049
4.82400	5047
4.82467	5045
4.82533	5044
4.82600	5042
4.82667	5040
4.82733	5039
4.82800	5037
4.82867	5035
4.82933	5033
4.83000	5032
4.83067	5030
4.83133	5028
4.83200	5026
4.83267	5024
4.83333	5022
4.83400	5020
4.83467	5018
4.83533	5016
4.83600	5014
4.83667	5012
4.83733	5010
4.83800	5007
4.83867	5005
4.83933	5003
4.84000	5001
4.84067	4998
4.84133	4996
4.84200	4994
4.84267	4992
4.84333	4989
4.84400	4987
4.84467	4984
4.84533	4982
4.84600	4980
4.84667	4977
4.84733	4975
4.84800	4972
4.84867	4970
4.84933	4967
4.85000	4965
4.85067	4962
4.85133	4959
4.85200	4957
4.85267	4954
4.85333	4952
4.85400	4949
4.85467	4946
4.85533	4944
4.85600	4941
4.85667	4938
4.85733	4935
4.85800	4933
4.85867	4930
4.85933	4927
4.86000	4925
4.86067	4922
4.86133	4919
4.86200	4916
4.86267	4913
4.86333	4910
4.86400	4908
4.86467	4905
4.86533	4902
4.86600	4899
4.86667	4896
4.86733	4893
4.86800	4890
4.86867	4887
4.86933	4884
4.87000	4881
4.87067	4878
4.87133	4875
4.87200	4872
4.87267	4869
4.87333	4866
4.87400	4863
4.87467	4860
4.87533	4856
4.87600	4853
4.87667	4850
4.87733	4847
4.87800	4844
4.87867	4841
4.87933	4838
4.88000	4835
4.88067	4831
4.88133	4828
4.88200	4825
4.88267	4822
4.88333	4819
4.88400	4816
4.88467	4813
4.88533	4810
4.88600	4807
4.88667	4804
4.88733	4801
4.88800	4798
4.88867	4796
4.88933	4793
4.89000	4790
4.89067	4787
4.89133	4784
4.89200	4781
4.89267	4779
4.89333	4776
4.89400	4773
4.89467	4771
4.89533	4768
4.89600	4766
4.89667	4763
4.89733	4761
4.89800	4758
4.89867	4756
4.89933	4753
4.90000	4751
4.90067	4749
4.90133	4746
4.90200	4744
4.90267	4742
4.90333	4740
4.90400	4738
4.90467	4735
4.90533	4733
4.90600	4731
4.90667	4729
4.90733	4727
4.90800	4725
4.90867	4723
4.90933	4721
4.91000	4719
4.91067	4717
4.91133	4715
4.91200	4714
4.91267	4712
4.91333	4710
4.91400	4708
4.91467	4706
4.91533	4705
4.91600	4703
4.91667	4702
4.91733	4700
4.91800	4699
4.91867	4697
4.91933	4696
4.92000	4695
4.92067	4693
4.92133	4692
4.92200	4691
4.92267	4690
4.92333	4689
4.92400	4688
4.92467	4687
4.92533	4686
4.92600	4686
4.92667	4685
4.92733	4684
4.92800	4684
4.92867	4683
4.92933	4683
4.93000	4682
4.93067	4682
4.93133	4682
4.93200	4681
4.93267	4681
4.93333	4681
4.93400	4681
4.93467	4681
4.93533	4682
4.93600	4682
4.93667	4682
4.93733	4683
4.93800	4683
4.93867	4684
4.93933	4684
4.94000	4685
4.94067	4686
4.94133	4687
4.94200	4688
4.94267	4689
4.94333	4690
4.94400	4692
4.94467	4693
4.94533	4694
4.94600	4696
4.94667	4698
4.94733	4699
4.94800	4701
4.94867	4703
4.94933	4705
4.95000	4707
4.95067	4709
4.95133	4712
4.95200	4714
4.95267	4716
4.95333	4719
4.95400	4721
4.95467	4724
4.95533	4727
4.95600	4729
4.95667	4732
4.95733	4735
4.95800	4738
4.95867	4742
4.95933	4745
4.96000	4748
4.96067	4752
4.96133	4755
4.96200	4759
4.96267	4762
4.96333	4766
4.96400	4770
4.96467	4774
4.96533	4778
4.96600	4782
4.96667	4786
4.96733	4790
4.96800	4794
4.96867	4798
4.96933	4803
4.97000	4807
4.97067	4811
4.97133	4816
4.97200	4820
4.97267	4824
4.97333	4829
4.97400	4833
4.97467	4838
4.97533	4843
4.97600	4847
4.97667	4852
4.97733	4857
4.97800	4862
4.97867	4866
4.97933	4871
4.98000	4876
4.98067	4881
4.98133	4886
4.98200	4891
4.98267	4896
4.98333	4901
4.98400	4906
4.98467	4911
4.98533	4916
4.98600	4921
4.98667	4926
4.98733	4931
4.98800	4936
4.98867	4940
4.98933	4945
4.99000	4950
4.99067	4955
4.99133	4960
4.99200	4965
4.99267	4969
4.99333	4974
4.99400	4978
4.99467	4983
4.99533	4987
4.99600	4992
4.99667	4996
4.99733	5000
4.99800	5004
4.99867	5008
4.99933	5013
5.00000	5016
5.00067	5020
5.00133	5024
5.00200	5028
5.00267	5031
5.00333	5035
5.00400	5038
5.00467	5041
5.00533	5045
5.00600	5048
5.00667	5050
5.00733	5053
5.00800	5056
5.00867	5058
5.00933	5060
5.01000	5063
5.01067	5065
5.01133	5067
5.01200	5069
5.01267	5070
5.01333	5072
5.01400	5073
5.01467	5075
5.01533	5076
5.01600	5077
5.01667	5078
5.01733	5079
5.01800	5080
5.01867	5081
5.01933	5081
5.02000	5082
5.02067	5082
5.02133	5082
5.02200	5082
5.02267	5081
5.02333	5081
5.02400	5080
5.02467	5079
5.02533	5078
5.02600	5077
5.02667	5076
5.02733	5075
5.02800	5073
5.02867	5071
5.02933	5070
5.03000	5068
5.03067	5065
5.03133	5063
5.03200	5061
5.03267	5059
5.03333	5056
5.03400	5053
5.03467	5051
5.03533	5048
5.03600	5045
5.03667	5042
5.03733	5039
5.03800	5036
5.03867	5032
5.03933	5029
5.04000	5025
5.04067	5022
5.04133	5018
5.04200	5014
5.04267	5011
5.04333	5007
5.04400	5003
5.04467	4999
5.04533	4995
5.04600	4991
5.04667	4986
5.04733	4982
5.04800	4978
5.04867	4973
5.04933	4969
5.05000	4964
5.05067	4960
5.05133	4955
5.05200	4951
5.05267	4946
5.05333	4941
5.05400	4936
5.05467	4932
5.05533	4927
5.05600	4922
5.05667	4917
5.05733	4912
5.05800	4907
5.05867	4903
5.05933	4898
5.06000	4893
5.06067	4888
5.06133	4883
5.06200	4878
5.06267	4873
5.06333	4868
5.06400	4863
5.06467	4858
5.06533	4853
5.06600	4848
5.06667	4843
5.06733	4838
5.06800	4833
5.06867	4828
5.06933	4824
5.07000	4819
5.07067	4814
5.07133	4809
5.07200	4805
5.07267	4800
5.07333	4795
5.07400	4790
5.07467	4786
5.07533	4781
5.07600	4777
5.07667	4772
5.07733	4767
5.07800	4763
5.07867	4759
5.07933	4754
5.08000	4750
5.08067	4746
5.08133	4741
5.08200	4737
5.08267	4733
5.08333	4729
5.08400	4725
5.08467	4721
5.08533	4717
5.08600	4713
5.08667	4709
5.08733	4706
5.08800	4702
5.08867	4698
5.08933	4695
5.09000	4692
5.09067	4688
5.09133	4685
5.09200	4682
5.09267	4679
5.09333	4676
5.09400	4673
5.09467	4670
5.09533	4667
5.09600	4665
5.09667	4662
5.09733	4660
5.09800	4657
5.09867	4655
5.09933	4653
5.10000	4651
5.10067	4649
5.10133	4647
5.10200	4645
5.10267	4643
5.10333	4641
5.10400	4639
5.10467	4638
5.10533	4636
5.10600	4635
5.10667	4633
5.10733	4632
5.10800	4631
5.10867	4630
5.10933	4629
5.11000	4628
5.11067	4627
5.11133	4627
5.11200	4626
5.11267	4625
5.11333	4625
5.11400	4624
5.11467	4624
5.11533	4624
5.11600	4624
5.11667	4624
5.11733	4624
5.11800	4624
5.11867	4624
5.11933	4625
5.12000	4625
5.12067	4626
5.12133	4626
5.12200	4627
5.12267	4628
5.12333	4629
5.12400	4630
5.12467	4631
5.12533	4632
5.12600	4634
5.12667	4636
5.12733	4637
5.12800	4639
5.12867	4641
5.12933	4643
5.13000	4645
5.13067	4648
5.13133	4650
5.13200	4653
5.13267	4656
5.13333	4658
5.13400	4661
5.13467	4664
5.13533	4667
5.13600	4671
5.13667	4674
5.13733	4678
5.13800	4681
5.13867	4685
5.13933	4689
5.14000	4693
5.14067	4697
5.14133	4702
5.14200	4706
5.14267	4711
5.14333	4715
5.14400	4720
5.14467	4725
5.14533	4730
5.14600	4735
5.14667	4740
5.14733	4745
5.14800	4751
5.14867	4756
5.14933	4762
5.15000	4768
5.15067	4774
5.15133	4780
5.15200	4786
5.15267	4792
5.15333	4799
5.15400	4805
5.15467	4812
5.15533	4819
5.15600	4825
5.15667	4832
5.15733	4839
5.15800	4846
5.15867	4853
5.15933	4861
5.16000	4868
5.16067	4875
5.16133	4883
5.16200	4890
5.16267	4898
5.16333	4905
5.16400	4913
5.16467	4921
5.16533	4929
5.16600	4937
5.16667	4945
5.16733	4954
5.16800	4962
5.16867	4970
5.16933	4979
5.17000	4987
5.17067	4996
5.17133	5004
5.17200	5013
5.17267	5022
5.17333	5030
5.17400	5039
5.17467	5048
5.17533	5057
5.17600	5066
5.17667	5075
5.17733	5084
5.17800	5093
5.17867	5102
5.17933	5111
5.18000	5120
5.18067	5129
5.18133	5138
5.18200	5147
5.18267	5156
5.18333	5165
5.18400	5174
5.18467	5183
5.18533	5192
5.18600	5201
5.18667	5209
5.18733	5218
5.18800	5227
5.18867	5236
5.18933	5244
5.19000	5253
5.19067	5261
5.19133	5270
5.19200	5278
5.19267	5286
5.19333	5294
5.19400	5303
5.19467	5310
5.19533	5318
5.19600	5326
5.19667	5334
5.19733	5341
5.19800	5348
5.19867	5355
5.19933	5362
5.20000	5369
5.20067	5376
5.20133	5382
5.20200	5389
5.20267	5395
5.20333	5401
5.20400	5407
5.20467	5413
5.20533	5418
5.20600	5423
5.20667	5429
5.20733	5433
5.20800	5438
5.20867	5443
5.20933	5447
5.21000	5452
5.21067	5456
5.21133	5460
5.21200	5463
5.21267	5467
5.21333	5470
5.21400	5473
5.21467	5476
5.21533	5479
5.21600	5481
5.21667	5483
5.21733	5485
5.21800	5487
5.21867	5489
5.21933	5490
5.22000	5491
5.22067	5492
5.22133	5493
5.22200	5493
5.22267	5494
5.22333	5494
5.22400	5494
5.22467	5493
5.22533	5493
5.22600	5492
5.22667	5491
5.22733	5490
5.22800	5488
5.22867	5487
5.22933	5485
5.23000	5483
5.23067	5481
5.23133	5478
5.23200	5475
5.23267	5473
5.23333	5469
5.23400	5466
5.23467	5463
5.23533	5459
5.23600	5455
5.23667	5451
5.23733	5446
5.23800	5442
5.23867	5437
5.23933	5432
5.24000	5427
5.24067	5422
5.24133	5416
5.24200	5411
5.24267	5405
5.24333	5399
5.24400	5393
5.24467	5387
5.24533	5380
5.24600	5374
5.24667	5367
5.24733	5360
5.24800	5353
5.24867	5346
5.24933	5339
5.25000	5332
5.25067	5324
5.25133	5317
5.25200	5309
5.25267	5301
5.25333	5294
5.25400	5286
5.25467	5278
5.25533	5270
5.25600	5262
5.25667	5254
5.25733	5246
5.25800	5237
5.25867	5229
5.25933	5221
5.26000	5212
5.26067	5204
5.26133	5196
5.26200	5187
5.26267	5179
5.26333	5170
5.26400	5162
5.26467	5153
5.26533	5144
5.26600	5136
5.26667	5127
5.26733	5118
5.26800	5110
5.26867	5101
5.26933	5092
5.27000	5084
5.27067	5075
5.27133	5066
5.27200	5058
5.27267	5049
5.27333	5041
5.27400	5032
5.27467	5024
5.27533	5015
5.27600	5007
5.27667	4998
5.27733	4990
5.27800	4982
5.27867	4973
5.27933	4965
5.28000	4957
5.28067	4948
5.28133	4940
5.28200	4932
5.28267	4924
5.28333	4916
5.28400	4908
5.28467	4900
5.28533	4892
5.28600	4884
5.28667	4877
5.28733	4869
5.28800	4861
5.28867	4854
5.28933	4846
5.29000	4838
5.29067	4831
5.29133	4823
5.29200	4816
5.29267	4809
5.29333	4802
5.29400	4794
5.29467	4787
5.29533	4780
5.29600	4773
5.29667	4766
5.29733	4759
5.29800	4752
5.29867	4746
5.29933	4739
5.30000	4732
5.30067	4726
5.30133	4720
5.30200	4713
5.30267	4707
5.30333	4701
5.30400	4694
5.30467	4688
5.30533	4682
5.30600	4677
5.30667	4671
5.30733	4665
5.30800	4659
5.30867	4654
5.30933	4648
5.31000	4642
5.31067	4637
5.31133	4632
5.31200	4626
5.31267	4621
5.31333	4616
5.31400	4611
5.31467	4606
5.31533	4601
5.31600	4597
5.31667	4592
5.31733	4587
5.31800	4583
5.31867	4578
5.31933	4574
5.32000	4570
5.32067	4565
5.32133	4561
5.32200	4557
5.32267	4553
5.32333	4549
5.32400	4545
5.32467	4541
5.32533	4537
5.32600	4534
5.32667	4530
5.32733	4526
5.32800	4523
5.32867	4519
5.32933	4516
5.33000	4513
5.33067	4510
5.33133	4506
5.33200	4503
5.33267	4500
5.33333	4497
5.33400	4494
5.33467	4491
5.33533	4488
5.33600	4486
5.33667	4483
5.33733	4480
5.33800	4478
5.33867	4475
5.33933	4472
5.34000	4470
5.34067	4467
5.34133	4465
5.34200	4463
5.34267	4461
5.34333	4458
5.34400	4456
5.34467	4454
5.34533	4452
5.34600	4450
5.34667	4448
5.34733	4446
5.34800	4444
5.34867	4442
5.34933	4440
5.35000	4439
5.35067	4437
5.35133	4435
5.35200	4434
5.35267	4432
5.35333	4431
5.35400	4429
5.35467	4428
5.35533	4426
5.35600	4425
5.35667	4424
5.35733	4422
5.35800	4421
5.35867	4420
5.35933	4419
5.36000	4418
5.36067	4417
5.36133	4416
5.36200	4415
5.36267	4414
5.36333	4413
5.36400	4412
5.36467	4411
5.36533	4411
5.36600	4410
5.36667	4409
5.36733	4408
5.36800	4408
5.36867	4407
5.36933	4407
5.37000	4406
5.37067	4406
5.37133	4406
5.37200	4405
5.37267	4405
5.37333	4405
5.37400	4404
5.37467	4404
5.37533	4404
5.37600	4404
5.37667	4404
5.37733	4403
5.37800	4403
5.37867	4403
5.37933	4403
5.38000	4403
5.38067	4403
5.38133	4403
5.38200	4403
5.38267	4403
5.38333	4403
5.38400	4403
5.38467	4403
5.38533	4403
5.38600	4403
5.38667	4403
5.38733	4403
5.38800	4403
5.38867	4403
5.38933	4403
5.39000	4403
5.39067	4403
5.39133	4403
5.39200	4403
5.39267	4403
5.39333	4403
5.39400	4402
5.39467	4402
5.39533	4402
5.39600	4402
5.39667	4401
5.39733	4401
5.39800	4401
5.39867	4400
5.39933	4400
5.40000	4399
5.40067	4399
5.40133	4398
5.40200	4398
5.40267	4397
5.40333	4397
5.40400	4396
5.40467	4395
5.40533	4394
5.40600	4394
5.40667	4393
5.40733	4392
5.40800	4391
5.40867	4390
5.40933	4389
5.41000	4388
5.41067	4387
5.41133	4386
5.41200	4385
5.41267	4385
5.41333	4383
5.41400	4382
5.41467	4381
5.41533	4380
5.41600	4379
5.41667	4378
5.41733	4377
5.41800	4376
5.41867	4375
5.41933	4373
5.42000	4372
5.42067	4371
5.42133	4369
5.42200	4368
5.42267	4367
5.42333	4365
5.42400	4364
5.42467	4363
5.42533	4361
5.42600	4360
5.42667	4359
5.42733	4357
5.42800	4356
5.42867	4354
5.42933	4353
5.43000	4351
5.43067	4350
5.43133	4348
5.43200	4347
5.43267	4345
5.43333	4343
5.43400	4342
5.43467	4340
5.43533	4338
5.43600	4337
5.43667	4335
5.43733	4333
5.43800	4331
5.43867	4330
5.43933	4328
5.44000	4326
5.44067	4324
5.44133	4322
5.44200	4321
5.44267	4319
5.44333	4317
5.44400	4315
5.44467	4313
5.44533	4311
5.44600	4309
5.44667	4307
5.44733	4306
5.44800	4304
5.44867	4302
5.44933	4300
5.45000	4298
5.45067	4296
5.45133	4294
5.45200	4292
5.45267	4290
5.45333	4288
5.45400	4286
5.45467	4284
5.45533	4282
5.45600	4280
5.45667	4279
5.45733	4277
5.45800	4275
5.45867	4273
5.45933	4271
5.46000	4269
5.46067	4268
5.46133	4266
5.46200	4264
5.46267	4262
5.46333	4260
5.46400	4259
5.46467	4257
5.46533	4255
5.46600	4254
5.46667	4252
5.46733	4250
5.46800	4249
5.46867	4247
5.46933	4245
5.47000	4244
5.47067	4242
5.47133	4241
5.47200	4239
5.47267	4237
5.47333	4236
5.47400	4234
5.47467	4233
5.47533	4231
5.47600	4230
5.47667	4229
5.47733	4227
5.47800	4226
5.47867	4225
5.47933	4223
5.48000	4222
5.48067	4221
5.48133	4220
5.48200	4219
5.48267	4218
5.48333	4217
5.48400	4216
5.48467	4215
5.48533	4214
5.48600	4214
5.48667	4213
5.48733	4212
5.48800	4212
5.48867	4211
5.48933	4211
5.49000	4211
5.49067	4210
5.49133	4210
5.49200	4210
5.49267	4210
5.49333	4210
5.49400	4210
5.49467	4211
5.49533	4211
5.49600	4211
5.49667	4212
5.49733	4212
5.49800	4213
5.49867	4213
5.49933	4214
5.50000	4215
5.50067	4216
5.50133	4217
5.50200	4218
5.50267	4220
5.50333	4221
5.50400	4223
5.50467	4224
5.50533	4226
5.50600	4228
5.50667	4230
5.50733	4232
5.50800	4234
5.50867	4236
5.50933	4239
5.51000	4241
5.51067	4244
5.51133	4247
5.51200	4250
5.51267	4254
5.51333	4257
5.51400	4261
5.51467	4264
5.51533	4268
5.51600	4272
5.51667	4277
5.51733	4281
5.51800	4286
5.51867	4290
5.51933	4295
5.52000	4300
5.52067	4306
5.52133	4311
5.52200	4317
5.52267	4323
5.52333	4329
5.52400	4335
5.52467	4342
5.52533	4349
5.52600	4356
5.52667	4363
5.52733	4370
5.52800	4378
5.52867	4386
5.52933	4394
5.53000	4402
5.53067	4410
5.53133	4419
5.53200	4428
5.53267	4437
5.53333	4447
5.53400	4456
5.53467	4466
5.53533	4476
5.53600	4486
5.53667	4497
5.53733	4508
5.53800	4519
5.53867	4530
5.53933	4541
5.54000	4553
5.54067	4565
5.54133	4577
5.54200	4590
5.54267	4603
5.54333	4616
5.54400	4629
5.54467	4642
5.54533	4656
5.54600	4670
5.54667	4684
5.54733	4698
5.54800	4713
5.54867	4728
5.54933	4743
5.55000	4758
5.55067	4774
5.55133	4789
5.55200	4805
5.55267	4822
5.55333	4838
5.55400	4855
5.55467	4872
5.55533	4889
5.55600	4906
5.55667	4923
5.55733	4941
5.55800	4959
5.55867	4977
5.55933	4995
5.56000	5013
5.56067	5032
5.56133	5051
5.56200	5069
5.56267	5088
5.56333	5108
5.56400	5127
5.56467	5147
5.56533	5166
5.56600	5186
5.56667	5206
5.56733	5226
5.56800	5246
5.56867	5267
5.56933	5287
5.57000	5307
5.57067	5328
5.57133	5349
5.57200	5370
5.57267	5391
5.57333	5412
5.57400	5433
5.57467	5454
5.57533	5475
5.57600	5496
5.57667	5517
5.57733	5539
5.57800	5560
5.57867	5581
5.57933	5602
5.58000	5624
5.58067	5645
5.58133	5666
5.58200	5687
5.58267	5708
5.58333	5729
5.58400	5750
5.58467	5770
5.58533	5791
5.58600	5811
5.58667	5832
5.58733	5852
5.58800	5872
5.58867	5893
5.58933	5913
5.59000	5932
5.59067	5952
5.59133	5972
5.59200	5991
5.59267	6011
5.59333	6030
5.59400	6049
5.59467	6067
5.59533	6086
5.59600	6104
5.59667	6123
5.59733	6141
5.59800	6158
5.59867	6176
5.59933	6193
5.60000	6210
5.60067	6227
5.60133	6243
5.60200	6259
5.60267	6275
5.60333	6291
5.60400	6306
5.60467	6321
5.60533	6336
5.60600	6351
5.60667	6365
5.60733	6378
5.60800	6392
5.60867	6405
5.60933	6418
5.61000	6430
5.61067	6442
5.61133	6454
5.61200	6465
5.61267	6476
5.61333	6486
5.61400	6496
5.61467	6506
5.61533	6516
5.61600	6525
5.61667	6534
5.61733	6542
5.61800	6550
5.61867	6558
5.61933	6565
5.62000	6572
5.62067	6578
5.62133	6585
5.62200	6591
5.62267	6596
5.62333	6601
5.62400	6606
5.62467	6611
5.62533	6615
5.62600	6619
5.62667	6623
5.62733	6626
5.62800	6629
5.62867	6631
5.62933	6634
5.63000	6636
5.63067	6637
5.63133	6639
5.63200	6640
5.63267	6640
5.63333	6641
5.63400	6641
5.63467	6640
5.63533	6640
5.63600	6639
5.63667	6638
5.63733	6636
5.63800	6635
5.63867	6633
5.63933	6630
5.64000	6628
5.64067	6625
5.64133	6622
5.64200	6618
5.64267	6615
5.64333	6611
5.64400	6606
5.64467	6602
5.64533	6597
5.64600	6592
5.64667	6587
5.64733	6582
5.64800	6577
5.64867	6571
5.64933	6565
5.65000	6559
5.65067	6552
5.65133	6546
5.65200	6539
5.65267	6532
5.65333	6525
5.65400	6518
5.65467	6510
5.65533	6503
5.65600	6495
5.65667	6487
5.65733	6479
5.65800	6471
5.65867	6462
5.65933	6454
5.66000	6445
5.66067	6436
5.66133	6427
5.66200	6418
5.66267	6408
5.66333	6399
5.66400	6389
5.66467	6380
5.66533	6370
5.66600	6360
5.66667	6350
5.66733	6340
5.66800	6330
5.66867	6320
5.66933	6310
5.67000	6300
5.67067	6289
5.67133	6279
5.67200	6269
5.67267	6258
5.67333	6248
5.67400	6237
5.67467	6227
5.67533	6216
5.67600	6205
5.67667	6195
5.67733	6184
5.67800	6174
5.67867	6163
5.67933	6152
5.68000	6141
5.68067	6131
5.68133	6120
5.68200	6109
5.68267	6098
5.68333	6087
5.68400	6077
5.68467	6066
5.68533	6055
5.68600	6044
5.68667	6033
5.68733	6023
5.68800	6012
5.68867	6001
5.68933	5990
5.69000	5979
5.69067	5969
5.69133	5958
5.69200	5947
5.69267	5937
5.69333	5926
5.69400	5916
5.69467	5905
5.69533	5895
5.69600	5884
5.69667	5874
5.69733	5864
5.69800	5854
5.69867	5844
5.69933	5833
5.70000	5823
5.70067	5813
5.70133	5803
5.70200	5793
5.70267	5783
5.70333	5773
5.70400	5763
5.70467	5753
5.70533	5743
5.70600	5734
5.70667	5724
5.70733	5714
5.70800	5704
5.70867	5695
5.70933	5685
5.71000	5676
5.71067	5666
5.71133	5657
5.71200	5648
5.71267	5638
5.71333	5629
5.71400	5620
5.71467	5611
5.71533	5602
5.71600	5593
5.71667	5584
5.71733	5575
5.71800	5566
5.71867	5557
5.71933	5549
5.72000	5540
5.72067	5531
5.72133	5523
5.72200	5514
5.72267	5506
5.72333	5497
5.72400	5489
5.72467	5481
5.72533	5473
5.72600	5464
5.72667	5456
5.72733	5448
5.72800	5440
5.72867	5432
5.72933	5424
5.73000	5416
5.73067	5409
5.73133	5401
5.73200	5393
5.73267	5386
5.73333	5378
5.73400	5370
5.73467	5363
5.73533	5356
5.73600	5348
5.73667	5341
5.73733	5333
5.73800	5326
5.73867	5319
5.73933	5312
5.74000	5304
5.74067	5297
5.74133	5290
5.74200	5283
5.74267	5276
5.74333	5269
5.74400	5263
5.74467	5256
5.74533	5249
5.74600	5242
5.74667	5236
5.74733	5229
5.74800	5222
5.74867	5216
5.74933	5210
5.75000	5203
5.75067	5197
5.75133	5191
5.75200	5184
5.75267	5178
5.75333	5172
5.75400	5166
5.75467	5160
5.75533	5154
5.75600	5148
5.75667	5142
5.75733	5137
5.75800	5131
5.75867	5125
5.75933	5119
5.76000	5114
5.76067	5108
5.76133	5103
5.76200	5097
5.76267	5092
5.76333	5087
5.76400	5081
5.76467	5076
5.76533	5071
5.76600	5066
5.76667	5061
5.76733	5056
5.76800	5051
5.76867	5046
5.76933	5041
5.77000	5036
5.77067	5032
5.77133	5027
5.77200	5022
5.77267	5018
5.77333	5014
5.77400	5009
5.77467	5005
5.77533	5001
5.77600	4997
5.77667	4993
5.77733	4989
5.77800	4985
5.77867	4981
5.77933	4977
5.78000	4973
5.78067	4969
5.78133	4966
5.78200	4962
5.78267	4958
5.78333	4955
5.78400	4951
5.78467	4948
5.78533	4944
5.78600	4941
5.78667	4938
5.78733	4935
5.78800	4931
5.78867	4928
5.78933	4925
5.79000	4922
5.79067	4919
5.79133	4916
5.79200	4913
5.79267	4910
5.79333	4907
5.79400	4904
5.79467	4901
5.79533	4898
5.79600	4896
5.79667	4893
5.79733	4890
5.79800	4888
5.79867	4885
5.79933	4883
5.80000	4880
5.80067	4878
5.80133	4875
5.80200	4873
5.80267	4870
5.80333	4868
5.80400	4866
5.80467	4864
5.80533	4862
5.80600	4859
5.80667	4857
5.80733	4855
5.80800	4853
5.80867	4851
5.80933	4849
5.81000	4847
5.81067	4845
5.81133	4844
5.81200	4842
5.81267	4840
5.81333	4838
5.81400	4836
5.81467	4835
5.81533	4833
5.81600	4831
5.81667	4830
5.81733	4828
5.81800	4826
5.81867	4825
5.81933	4823
5.82000	4822
5.82067	4820
5.82133	4819
5.82200	4817
5.82267	4816
5.82333	4814
5.82400	4813
5.82467	4812
5.82533	4811
5.82600	4809
5.82667	4808
5.82733	4807
5.82800	4806
5.82867	4805
5.82933	4804
5.83000	4803
5.83067	4802
5.83133	4800
5.83200	4799
5.83267	4798
5.83333	4797
5.83400	4796
5.83467	4795
5.83533	4794
5.83600	4794
5.83667	4793
5.83733	4792
5.83800	4791
5.83867	4790
5.83933	4789
5.84000	4788
5.84067	4788
5.84133	4787
5.84200	4786
5.84267	4785
5.84333	4785
5.84400	4784
5.84467	4783
5.84533	4782
5.84600	4782
5.84667	4781
5.84733	4780
5.84800	4780
5.84867	4779
5.84933	4778
5.85000	4778
5.85067	4777
5.85133	4776
5.85200	4775
5.85267	4775
5.85333	4774
5.85400	4773
5.85467	4773
5.85533	4772
5.85600	4771
5.85667	4771
5.85733	4770
5.85800	4770
5.85867	4769
5.85933	4769
5.86000	4768
5.86067	4767
5.86133	4767
5.86200	4766
5.86267	4766
5.86333	4765
5.86400	4764
5.86467	4764
5.86533	4763
5.86600	4763
5.86667	4762
5.86733	4761
5.86800	4761
5.86867	4760
5.86933	4759
5.87000	4759
5.87067	4758
5.87133	4757
5.87200	4756
5.87267	4756
5.87333	4755
5.87400	4754
5.87467	4753
5.87533	4752
5.87600	4751
5.87667	4751
5.87733	4750
5.87800	4749
5.87867	4748
5.87933	4747
5.88000	4746
5.88067	4746
5.88133	4745
5.88200	4744
5.88267	4743
5.88333	4742
5.88400	4741
5.88467	4740
5.88533	4739
5.88600	4738
5.88667	4737
5.88733	4736
5.88800	4735
5.88867	4734
5.88933	4733
5.89000	4732
5.89067	4731
5.89133	4730
5.89200	4729
5.89267	4728
5.89333	4726
5.89400	4725
5.89467	4724
5.89533	4723
5.89600	4722
5.89667	4720
5.89733	4719
5.89800	4718
5.89867	4716
5.89933	4715
5.90000	4714
5.90067	4712
5.90133	4711
5.90200	4710
5.90267	4708
5.90333	4707
5.90400	4705
5.90467	4704
5.90533	4702
5.90600	4701
5.90667	4699
5.90733	4698
5.90800	4696
5.90867	4695
5.90933	4693
5.91000	4692
5.91067	4690
5.91133	4689
5.91200	4687
5.91267	4686
5.91333	4685
5.91400	4683
5.91467	4682
5.91533	4680
5.91600	4679
5.91667	4677
5.91733	4676
5.91800	4675
5.91867	4673
5.91933	4672
5.92000	4670
5.92067	4669
5.92133	4667
5.92200	4666
5.92267	4665
5.92333	4663
5.92400	4662
5.92467	4660
5.92533	4659
5.92600	4657
5.92667	4656
5.92733	4654
5.92800	4653
5.92867	4652
5.92933	4650
5.93000	4649
5.93067	4648
5.93133	4646
5.93200	4645
5.93267	4644
5.93333	4642
5.93400	4641
5.93467	4640
5.93533	4638
5.93600	4637
5.93667	4636
5.93733	4634
5.93800	4633
5.93867	4632
5.93933	4630
5.94000	4629
5.94067	4628
5.94133	4626
5.94200	4625
5.94267	4624
5.94333	4622
5.94400	4621
5.94467	4620
5.94533	4618
5.94600	4617
5.94667	4615
5.94733	4614
5.94800	4613
5.94867	4611
5.94933	4610
5.95000	4609
5.95067	4607
5.95133	4606
5.95200	4604
5.95267	4603
5.95333	4602
5.95400	4600
5.95467	4599
5.95533	4598
5.95600	4596
5.95667	4595
5.95733	4594
5.95800	4593
5.95867	4591
5.95933	4590
5.96000	4589
5.96067	4588
5.96133	4586
5.96200	4585
5.96267	4584
5.96333	4583
5.96400	4581
5.96467	4580
5.96533	4579
5.96600	4578
5.96667	4576
5.96733	4575
5.96800	4574
5.96867	4573
5.96933	4572
5.97000	4571
5.97067	4570
5.97133	4569
5.97200	4568
5.97267	4567
5.97333	4566
5.97400	4565
5.97467	4564
5.97533	4563
5.97600	4562
5.97667	4561
5.97733	4561
5.97800	4560
5.97867	4559
5.97933	4558
5.98000	4557
5.98067	4557
5.98133	4556
5.98200	4555
5.98267	4554
5.98333	4553
5.98400	4552
5.98467	4552
5.98533	4551
5.98600	4550
5.98667	4549
5.98733	4548
5.98800	4547
5.98867	4547
5.98933	4546
5.99000	4545
5.99067	4544
5.99133	4543
5.99200	4543
5.99267	4542
5.99333	4541
5.99400	4540
5.99467	4539
5.99533	4539
5.99600	4538
5.99667	4537
5.99733	4536
5.99800	4535
5.99867	4535
5.99933	4534
6.00000	4533
6.00067	4532
6.00133	4532
6.00200	4531
6.00267	4530
6.00333	4530
6.00400	4529
6.00467	4528
6.00533	4528
6.00600	4527
6.00667	4526
6.00733	4526
6.00800	4525
6.00867	4525
6.00933	4524
6.01000	4523
6.01067	4523
6.01133	4522
6.01200	4522
6.01267	4521
6.01333	4521
6.01400	4520
6.01467	4520
6.01533	4519
6.01600	4518
6.01667	4518
6.01733	4517
6.01800	4517
6.01867	4516
6.01933	4516
6.02000	4515
6.02067	4515
6.02133	4515
6.02200	4514
6.02267	4514
6.02333	4513
6.02400	4513
6.02467	4512
6.02533	4512
6.02600	4511
6.02667	4511
6.02733	4511
6.02800	4510
6.02867	4510
6.02933	4510
6.03000	4509
6.03067	4509
6.03133	4508
6.03200	4508
6.03267	4508
6.03333	4508
6.03400	4507
6.03467	4507
6.03533	4507
6.03600	4507
6.03667	4507
6.03733	4506
6.03800	4506
6.03867	4506
6.03933	4506
6.04000	4506
6.04067	4506
6.04133	4506
6.04200	4506
6.04267	4506
6.04333	4506
6.04400	4506
6.04467	4505
6.04533	4505
6.04600	4505
6.04667	4505
6.04733	4505
6.04800	4505
6.04867	4505
6.04933	4505
6.05000	4505
6.05067	4505
6.05133	4505
6.05200	4505
6.05267	4505
6.05333	4505
6.05400	4505
6.05467	4505
6.05533	4505
6.05600	4505
6.05667	4505
6.05733	4505
6.05800	4505
6.05867	4505
6.05933	4505
6.06000	4506
6.06067	4506
6.06133	4506
6.06200	4506
6.06267	4506
6.06333	4506
6.06400	4506
6.06467	4506
6.06533	4506
6.06600	4506
6.06667	4506
6.06733	4506
6.06800	4506
6.06867	4506
6.06933	4506
6.07000	4506
6.07067	4506
6.07133	4506
6.07200	4505
6.07267	4505
6.07333	4505
6.07400	4505
6.07467	4505
6.07533	4505
6.07600	4505
6.07667	4505
6.07733	4505
6.07800	4505
6.07867	4504
6.07933	4504
6.08000	4504
6.08067	4504
6.08133	4504
6.08200	4504
6.08267	4504
6.08333	4504
6.08400	4504
6.08467	4504
6.08533	4504
6.08600	4505
6.08667	4505
6.08733	4505
6.08800	4505
6.08867	4505
6.08933	4505
6.09000	4505
6.09067	4505
6.09133	4505
6.09200	4505
6.09267	4505
6.09333	4505
6.09400	4505
6.09467	4505
6.09533	4505
6.09600	4505
6.09667	4505
6.09733	4504
6.09800	4504
6.09867	4504
6.09933	4504
6.10000	4503
6.10067	4503
6.10133	4503
6.10200	4503
6.10267	4502
6.10333	4502
6.10400	4502
6.10467	4501
6.10533	4501
6.10600	4500
6.10667	4500
6.10733	4500
6.10800	4499
6.10867	4499
6.10933	4498
6.11000	4498
6.11067	4497
6.11133	4497
6.11200	4496
6.11267	4496
6.11333	4495
6.11400	4495
6.11467	4494
6.11533	4494
6.11600	4493
6.11667	4492
6.11733	4491
6.11800	4491
6.11867	4490
6.11933	4489
6.12000	4489
6.12067	4488
6.12133	4487
6.12200	4486
6.12267	4485
6.12333	4485
6.12400	4484
6.12467	4483
6.12533	4482
6.12600	4481
6.12667	4480
6.12733	4479
6.12800	4478
6.12867	4477
6.12933	4476
6.13000	4475
6.13067	4474
6.13133	4473
6.13200	4471
6.13267	4470
6.13333	4469
6.13400	4468
6.13467	4466
6.13533	4465
6.13600	4464
6.13667	4463
6.13733	4461
6.13800	4460
6.13867	4459
6.13933	4458
6.14000	4457
6.14067	4455
6.14133	4454
6.14200	4453
6.14267	4452
6.14333	4451
6.14400	4450
6.14467	4448
6.14533	4447
6.14600	4446
6.14667	4445
6.14733	4443
6.14800	4442
6.14867	4441
6.14933	4439
6.15000	4438
6.15067	4436
6.15133	4435
6.15200	4434
6.15267	4432
6.15333	4431
6.15400	4429
6.15467	4427
6.15533	4426
6.15600	4424
6.15667	4423
6.15733	4421
6.15800	4420
6.15867	4418
6.15933	4417
6.16000	4415
6.16067	4414
6.16133	4412
6.16200	4410
6.16267	4409
6.16333	4407
6.16400	4406
6.16467	4404
6.16533	4403
6.16600	4401
6.16667	4399
6.16733	4398
6.16800	4396
6.16867	4395
6.16933	4393
6.17000	4392
6.17067	4390
6.17133	4388
6.17200	4387
6.17267	4385
6.17333	4384
6.17400	4382
6.17467	4381
6.17533	4379
6.17600	4377
6.17667	4376
6.17733	4374
6.17800	4373
6.17867	4371
6.17933	4370
6.18000	4368
6.18067	4366
6.18133	4365
6.18200	4363
6.18267	4362
6.18333	4360
6.18400	4359
6.18467	4357
6.18533	4356
6.18600	4355
6.18667	4353
6.18733	4352
6.18800	4350
6.18867	4349
6.18933	4348
6.19000	4346
6.19067	4345
6.19133	4344
6.19200	4343
6.19267	4341
6.19333	4340
6.19400	4339
6.19467	4338
6.19533	4336
6.19600	4335
6.19667	4334
6.19733	4333
6.19800	4331
6.19867	4330
6.19933	4329
6.20000	4328
6.20067	4326
6.20133	4325
6.20200	4324
6.20267	4323
6.20333	4322
6.20400	4320
6.20467	4319
6.20533	4318
6.20600	4317
6.20667	4316
6.20733	4314
6.20800	4313
6.20867	4312
6.20933	4311
6.21000	4310
6.21067	4309
6.21133	4308
6.21200	4307
6.21267	4306
6.21333	4305
6.21400	4304
6.21467	4303
6.21533	4302
6.21600	4301
6.21667	4300
6.21733	4299
6.21800	4298
6.21867	4297
6.21933	4296
6.22000	4295
6.22067	4294
6.22133	4293
6.22200	4292
6.22267	4291
6.22333	4290
6.22400	4289
6.22467	4288
6.22533	4288
6.22600	4287
6.22667	4286
6.22733	4285
6.22800	4285
6.22867	4284
6.22933	4283
6.23000	4282
6.23067	4282
6.23133	4281
6.23200	4281
6.23267	4280
6.23333	4279
6.23400	4279
6.23467	4278
6.23533	4278
6.23600	4278
6.23667	4277
6.23733	4277
6.23800	4276
6.23867	4276
6.23933	4275
6.24000	4275
6.24067	4274
6.24133	4274
6.24200	4273
6.24267	4273
6.24333	4272
6.24400	4272
6.24467	4271
6.24533	4271
6.24600	4270
6.24667	4270
6.24733	4270
6.24800	4269
6.24867	4269
6.24933	4268
6.25000	4268
6.25067	4267
6.25133	4267
6.25200	4266
6.25267	4266
6.25333	4266
6.25400	4265
6.25467	4265
6.25533	4264
6.25600	4264
6.25667	4263
6.25733	4263
6.25800	4263
6.25867	4262
6.25933	4262
6.26000	4262
6.26067	4261
6.26133	4261
6.26200	4261
6.26267	4261
6.26333	4260
6.26400	4260
6.26467	4260
6.26533	4260
6.26600	4259
6.26667	4259
6.26733	4259
6.26800	4258
6.26867	4258
6.26933	4258
6.27000	4257
6.27067	4257
6.27133	4257
6.27200	4256
6.27267	4256
6.27333	4256
6.27400	4255
6.27467	4255
6.27533	4255
6.27600	4254
6.27667	4254
6.27733	4254
6.27800	4254
6.27867	4254
6.27933	4253
6.28000	4253
6.28067	4253
6.28133	4253
6.28200	4253
6.28267	4252
6.28333	4252
6.28400	4252
6.28467	4252
6.28533	4252
6.28600	4251
6.28667	4251
6.28733	4251
6.28800	4251
6.28867	4250
6.28933	4250
6.29000	4250
6.29067	4250
6.29133	4250
6.29200	4249
6.29267	4249
6.29333	4249
6.29400	4249
6.29467	4248
6.29533	4248
6.29600	4248
6.29667	4248
6.29733	4247
6.29800	4247
6.29867	4247
6.29933	4247
6.30000	4246
6.30067	4246
6.30133	4246
6.30200	4245
6.30267	4245
6.30333	4245
6.30400	4244
6.30467	4244
6.30533	4244
6.30600	4243
6.30667	4243
6.30733	4242
6.30800	4242
6.30867	4242
6.30933	4241
6.31000	4241
6.31067	4240
6.31133	4240
6.31200	4239
6.31267	4239
6.31333	4238
6.31400	4237
6.31467	4237
6.31533	4236
6.31600	4236
6.31667	4235
6.31733	4235
6.31800	4234
6.31867	4233
6.31933	4233
6.32000	4232
6.32067	4232
6.32133	4231
6.32200	4231
6.32267	4230
6.32333	4230
6.32400	4229
6.32467	4229
6.32533	4228
6.32600	4228
6.32667	4227
6.32733	4227
6.32800	4226
6.32867	4226
6.32933	4225
6.33000	4225
6.33067	4224
6.33133	4224
6.33200	4223
6.33267	4223
6.33333	4223
6.33400	4222
6.33467	4222
6.33533	4221
6.33600	4221
6.33667	4221
6.33733	4220
6.33800	4220
6.33867	4219
6.33933	4219
6.34000	4219
6.34067	4218
6.34133	4218
6.34200	4217
6.34267	4217
6.34333	4216
6.34400	4216
6.34467	4215
6.34533	4215
6.34600	4215
6.34667	4214
6.34733	4214
6.34800	4213
6.34867	4213
6.34933	4212
6.35000	4212
6.35067	4211
6.35133	4210
6.35200	4210
6.35267	4209
6.35333	4209
6.35400	4208
6.35467	4208
6.35533	4207
6.35600	4207
6.35667	4206
6.35733	4206
6.35800	4205
6.35867	4205
6.35933	4204
6.36000	4204
6.36067	4204
6.36133	4203
6.36200	4203
6.36267	4203
6.36333	4202
6.36400	4202
6.36467	4202
6.36533	4202
6.36600	4201
6.36667	4201
6.36733	4201
6.36800	4200
6.36867	4200
6.36933	4200
6.37000	4199
6.37067	4199
6.37133	4199
6.37200	4198
6.37267	4198
6.37333	4197
6.37400	4197
6.37467	4196
6.37533	4196
6.37600	4195
6.37667	4195
6.37733	4194
6.37800	4194
6.37867	4193
6.37933	4193
6.38000	4192
6.38067	4192
6.38133	4191
6.38200	4191
6.38267	4190
6.38333	4190
6.38400	4189
6.38467	4189
6.38533	4188
6.38600	4188
6.38667	4187
6.38733	4187
6.38800	4187
6.38867	4186
6.38933	4186
6.39000	4185
6.39067	4185
6.39133	4185
6.39200	4184
6.39267	4184
6.39333	4184
6.39400	4183
6.39467	4183
6.39533	4183
6.39600	4183
6.39667	4182
6.39733	4182
6.39800	4181
6.39867	4181
6.39933	4181

