[Header]
Application Name	LabSolutions
Version	5.73
Data File Name	C:\LabSolutions\Data\Project1\stephen\2016-01-06\83.gcd
Output Date	1/11/2016
Output Time	1:19:56 PM

[Configuration]
Instrument Name	WEISSTA-PC-Instrument1
Instrument #	1
Line #	1
# of Detectors	1
Detector ID	DET#2
Detector Name	DFID1
# of Channels	1

[Chromatogram (Ch1)]
Interval(msec)	40
# of Points	9599
Start Time(min)	0.001
End Time(min)	6.399
R.Time (min)	Intensity
0.00067	34
0.00133	34
0.00200	34
0.00267	34
0.00333	33
0.00400	33
0.00467	33
0.00533	33
0.00600	33
0.00667	33
0.00733	33
0.00800	33
0.00867	33
0.00933	33
0.01000	32
0.01067	32
0.01133	31
0.01200	30
0.01267	30
0.01333	29
0.01400	27
0.01467	26
0.01533	25
0.01600	23
0.01667	21
0.01733	19
0.01800	17
0.01867	15
0.01933	13
0.02000	10
0.02067	8
0.02133	5
0.02200	3
0.02267	-0
0.02333	-3
0.02400	-6
0.02467	-9
0.02533	-12
0.02600	-16
0.02667	-19
0.02733	-22
0.02800	-26
0.02867	-29
0.02933	-33
0.03000	-36
0.03067	-39
0.03133	-43
0.03200	-46
0.03267	-50
0.03333	-53
0.03400	-56
0.03467	-59
0.03533	-63
0.03600	-66
0.03667	-69
0.03733	-71
0.03800	-74
0.03867	-77
0.03933	-79
0.04000	-82
0.04067	-84
0.04133	-87
0.04200	-89
0.04267	-91
0.04333	-93
0.04400	-95
0.04467	-97
0.04533	-99
0.04600	-101
0.04667	-102
0.04733	-104
0.04800	-105
0.04867	-107
0.04933	-108
0.05000	-110
0.05067	-111
0.05133	-112
0.05200	-113
0.05267	-115
0.05333	-116
0.05400	-117
0.05467	-118
0.05533	-119
0.05600	-120
0.05667	-121
0.05733	-122
0.05800	-123
0.05867	-124
0.05933	-125
0.06000	-126
0.06067	-126
0.06133	-127
0.06200	-128
0.06267	-129
0.06333	-130
0.06400	-130
0.06467	-131
0.06533	-132
0.06600	-132
0.06667	-133
0.06733	-134
0.06800	-134
0.06867	-135
0.06933	-136
0.07000	-136
0.07067	-137
0.07133	-137
0.07200	-138
0.07267	-138
0.07333	-139
0.07400	-139
0.07467	-140
0.07533	-140
0.07600	-141
0.07667	-141
0.07733	-142
0.07800	-142
0.07867	-143
0.07933	-143
0.08000	-144
0.08067	-144
0.08133	-145
0.08200	-145
0.08267	-146
0.08333	-146
0.08400	-146
0.08467	-147
0.08533	-147
0.08600	-148
0.08667	-148
0.08733	-149
0.08800	-149
0.08867	-150
0.08933	-150
0.09000	-150
0.09067	-151
0.09133	-151
0.09200	-151
0.09267	-151
0.09333	-149
0.09400	-146
0.09467	-143
0.09533	-136
0.09600	-120
0.09667	-99
0.09733	-76
0.09800	-53
0.09867	-31
0.09933	-9
0.10000	13
0.10067	37
0.10133	75
0.10200	150
0.10267	235
0.10333	315
0.10400	391
0.10467	461
0.10533	525
0.10600	586
0.10667	647
0.10733	706
0.10800	764
0.10867	834
0.10933	936
0.11000	1037
0.11067	1132
0.11133	1226
0.11200	1313
0.11267	1393
0.11333	1466
0.11400	1531
0.11467	1590
0.11533	1645
0.11600	1695
0.11667	1739
0.11733	1777
0.11800	1812
0.11867	1855
0.11933	1904
0.12000	1948
0.12067	1988
0.12133	2027
0.12200	2073
0.12267	2115
0.12333	2171
0.12400	2239
0.12467	2301
0.12533	2358
0.12600	2417
0.12667	2477
0.12733	2562
0.12800	2652
0.12867	2762
0.12933	2870
0.13000	2968
0.13067	3054
0.13133	3131
0.13200	3206
0.13267	3352
0.13333	3765
0.13400	5084
0.13467	8845
0.13533	18229
0.13600	38615
0.13667	78664
0.13733	150433
0.13800	270309
0.13867	457019
0.13933	731135
0.14000	1111794
0.14067	1617072
0.14133	2262279
0.14200	3060919
0.14267	4023600
0.14333	5159312
0.14400	6474699
0.14467	7975061
0.14533	9663847
0.14600	11543065
0.14667	13612947
0.14733	15872153
0.14800	18317681
0.14867	20945183
0.14933	23749071
0.15000	26722705
0.15067	29858549
0.15133	33147716
0.15200	36580160
0.15267	40144817
0.15333	43829428
0.15400	47620324
0.15467	51502802
0.15533	55461455
0.15600	59480426
0.15667	63543687
0.15733	67634587
0.15800	71736355
0.15867	75831773
0.15933	79903652
0.16000	83934885
0.16067	87908964
0.16133	91810086
0.16200	95623650
0.16267	99336351
0.16333	102936580
0.16400	106414272
0.16467	109760796
0.16533	112968990
0.16600	116032899
0.16667	118948087
0.16733	121711133
0.16800	124319907
0.16867	126773041
0.16933	129070133
0.17000	131211371
0.17067	133197846
0.17133	135031128
0.17200	136713553
0.17267	138247784
0.17333	139636994
0.17400	140884602
0.17467	141994506
0.17533	142970804
0.17600	143817886
0.17667	144540316
0.17733	145142793
0.17800	145630033
0.17867	146006809
0.17933	146277901
0.18000	146448118
0.18067	146522280
0.18133	146505124
0.18200	146401324
0.18267	146215395
0.18333	145951768
0.18400	145614785
0.18467	145208729
0.18533	144737649
0.18600	144205466
0.18667	143615912
0.18733	142972633
0.18800	142279144
0.18867	141538790
0.18933	140754697
0.19000	139929946
0.19067	139067514
0.19133	138170262
0.19200	137240889
0.19267	136281963
0.19333	135295901
0.19400	134284967
0.19467	133251308
0.19533	132196925
0.19600	131123715
0.19667	130033467
0.19733	128927877
0.19800	127808529
0.19867	126676920
0.19933	125534457
0.20000	124382469
0.20067	123222177
0.20133	122054779
0.20200	120881397
0.20267	119703111
0.20333	118520861
0.20400	117335540
0.20467	116148019
0.20533	114959113
0.20600	113769557
0.20667	112580057
0.20733	111391286
0.20800	110203915
0.20867	109018552
0.20933	107835783
0.21000	106656157
0.21067	105480180
0.21133	104308317
0.21200	103140999
0.21267	101978674
0.21333	100821761
0.21400	99670614
0.21467	98525520
0.21533	97386773
0.21600	96254651
0.21667	95129443
0.21733	94011403
0.21800	92900777
0.21867	91797754
0.21933	90702508
0.22000	89615193
0.22067	88535966
0.22133	87464967
0.22200	86402328
0.22267	85348185
0.22333	84302671
0.22400	83265918
0.22467	82238058
0.22533	81219219
0.22600	80209507
0.22667	79208986
0.22733	78217716
0.22800	77235790
0.22867	76263278
0.22933	75300258
0.23000	74346792
0.23067	73402946
0.23133	72468784
0.23200	71544373
0.23267	70629756
0.23333	69725000
0.23400	68830134
0.23467	67945195
0.23533	67070221
0.23600	66205248
0.23667	65350303
0.23733	64505374
0.23800	63670436
0.23867	62845478
0.23933	62030491
0.24000	61225439
0.24067	60430293
0.24133	59645027
0.24200	58869615
0.24267	58104021
0.24333	57348206
0.24400	56602052
0.24467	55865514
0.24533	55138535
0.24600	54421068
0.24667	53713063
0.24733	53014471
0.24800	52325230
0.24867	51645283
0.24933	50974553
0.25000	50312941
0.25067	49660326
0.25133	49016600
0.25200	48381659
0.25267	47755409
0.25333	47137760
0.25400	46528634
0.25467	45927955
0.25533	45335643
0.25600	44751611
0.25667	44175748
0.25733	43607957
0.25800	43048145
0.25867	42496240
0.25933	41952154
0.26000	41415801
0.26067	40887099
0.26133	40365976
0.26200	39852339
0.26267	39346082
0.26333	38847093
0.26400	38355281
0.26467	37870554
0.26533	37392834
0.26600	36922034
0.26667	36458070
0.26733	36000853
0.26800	35550295
0.26867	35106301
0.26933	34668790
0.27000	34237678
0.27067	33812882
0.27133	33394313
0.27200	32981880
0.27267	32575497
0.27333	32175062
0.27400	31780472
0.27467	31391625
0.27533	31008431
0.27600	30630806
0.27667	30258660
0.27733	29891886
0.27800	29530370
0.27867	29174002
0.27933	28822679
0.28000	28476306
0.28067	28134794
0.28133	27798054
0.28200	27465998
0.28267	27138531
0.28333	26815572
0.28400	26497041
0.28467	26182866
0.28533	25872975
0.28600	25567299
0.28667	25265768
0.28733	24968308
0.28800	24674858
0.28867	24385355
0.28933	24099731
0.29000	23817920
0.29067	23539856
0.29133	23265476
0.29200	22994722
0.29267	22727531
0.29333	22463844
0.29400	22203585
0.29467	21946682
0.29533	21693076
0.29600	21442734
0.29667	21195544
0.29733	20951427
0.29800	20710309
0.29867	20472117
0.29933	20236777
0.30000	20004212
0.30067	19774339
0.30133	19547076
0.30200	19322346
0.30267	19100068
0.30333	18880159
0.30400	18662534
0.30467	18447108
0.30533	18233795
0.30600	18022513
0.30667	17813190
0.30733	17605772
0.30800	17400146
0.30867	17196233
0.30933	16993951
0.31000	16793221
0.31067	16593961
0.31133	16396094
0.31200	16199545
0.31267	16004252
0.31333	15810145
0.31400	15617157
0.31467	15425223
0.31533	15234284
0.31600	15044288
0.31667	14855189
0.31733	14666932
0.31800	14479470
0.31867	14292764
0.31933	14106781
0.32000	13921493
0.32067	13736867
0.32133	13552878
0.32200	13369500
0.32267	13186718
0.32333	13004516
0.32400	12822884
0.32467	12641810
0.32533	12461289
0.32600	12281318
0.32667	12101900
0.32733	11923034
0.32800	11744728
0.32867	11566991
0.32933	11389841
0.33000	11213297
0.33067	11037382
0.33133	10862123
0.33200	10687549
0.33267	10513693
0.33333	10340589
0.33400	10168274
0.33467	9996788
0.33533	9826176
0.33600	9656483
0.33667	9487755
0.33733	9320040
0.33800	9153388
0.33867	8987850
0.33933	8823478
0.34000	8660322
0.34067	8498434
0.34133	8337868
0.34200	8178673
0.34267	8020903
0.34333	7864608
0.34400	7709838
0.34467	7556642
0.34533	7405067
0.34600	7255160
0.34667	7106964
0.34733	6960521
0.34800	6815873
0.34867	6673055
0.34933	6532106
0.35000	6393057
0.35067	6255941
0.35133	6120786
0.35200	5987618
0.35267	5856460
0.35333	5727334
0.35400	5600255
0.35467	5475241
0.35533	5352304
0.35600	5231456
0.35667	5112704
0.35733	4996054
0.35800	4881511
0.35867	4769075
0.35933	4658748
0.36000	4550526
0.36067	4444408
0.36133	4340387
0.36200	4238456
0.36267	4138606
0.36333	4040828
0.36400	3945109
0.36467	3851436
0.36533	3759792
0.36600	3670163
0.36667	3582528
0.36733	3496869
0.36800	3413165
0.36867	3331393
0.36933	3251527
0.37000	3173541
0.37067	3097406
0.37133	3023090
0.37200	2950560
0.37267	2879780
0.37333	2810715
0.37400	2743326
0.37467	2677573
0.37533	2613416
0.37600	2550816
0.37667	2489731
0.37733	2430122
0.37800	2371947
0.37867	2315170
0.37933	2259750
0.38000	2205651
0.38067	2152837
0.38133	2101272
0.38200	2050924
0.38267	2001761
0.38333	1953752
0.38400	1906866
0.38467	1861076
0.38533	1816352
0.38600	1772669
0.38667	1730000
0.38733	1688320
0.38800	1647604
0.38867	1607829
0.38933	1568972
0.39000	1531011
0.39067	1493925
0.39133	1457693
0.39200	1422296
0.39267	1387715
0.39333	1353931
0.39400	1320927
0.39467	1288686
0.39533	1257192
0.39600	1226428
0.39667	1196380
0.39733	1167033
0.39800	1138373
0.39867	1110386
0.39933	1083059
0.40000	1056378
0.40067	1030332
0.40133	1004907
0.40200	980092
0.40267	955875
0.40333	932243
0.40400	909186
0.40467	886692
0.40533	864750
0.40600	843348
0.40667	822477
0.40733	802124
0.40800	782280
0.40867	762933
0.40933	744073
0.41000	725691
0.41067	707775
0.41133	690316
0.41200	673303
0.41267	656728
0.41333	640581
0.41400	624851
0.41467	609529
0.41533	594607
0.41600	580074
0.41667	565923
0.41733	552144
0.41800	538729
0.41867	525669
0.41933	512956
0.42000	500581
0.42067	488537
0.42133	476815
0.42200	465407
0.42267	454307
0.42333	443506
0.42400	432996
0.42467	422772
0.42533	412825
0.42600	403148
0.42667	393735
0.42733	384579
0.42800	375674
0.42867	367012
0.42933	358588
0.43000	350395
0.43067	342428
0.43133	334680
0.43200	327145
0.43267	319818
0.43333	312693
0.43400	305766
0.43467	299029
0.43533	292480
0.43600	286112
0.43667	279920
0.43733	273901
0.43800	268049
0.43867	262359
0.43933	256828
0.44000	251451
0.44067	246224
0.44133	241142
0.44200	236202
0.44267	231399
0.44333	226729
0.44400	222189
0.44467	217776
0.44533	213485
0.44600	209314
0.44667	205260
0.44733	201319
0.44800	197490
0.44867	193769
0.44933	190154
0.45000	186643
0.45067	183232
0.45133	179920
0.45200	176705
0.45267	173582
0.45333	170551
0.45400	167609
0.45467	164755
0.45533	161985
0.45600	159298
0.45667	156693
0.45733	154168
0.45800	151721
0.45867	149351
0.45933	147056
0.46000	144837
0.46067	142692
0.46133	140620
0.46200	138621
0.46267	136694
0.46333	134839
0.46400	133056
0.46467	131344
0.46533	129704
0.46600	128133
0.46667	126631
0.46733	125194
0.46800	123820
0.46867	122506
0.46933	121249
0.47000	120048
0.47067	118899
0.47133	117802
0.47200	116751
0.47267	115747
0.47333	114785
0.47400	113864
0.47467	112981
0.47533	112136
0.47600	111324
0.47667	110545
0.47733	109797
0.47800	109078
0.47867	108386
0.47933	107720
0.48000	107079
0.48067	106460
0.48133	105862
0.48200	105284
0.48267	104726
0.48333	104185
0.48400	103660
0.48467	103151
0.48533	102656
0.48600	102174
0.48667	101705
0.48733	101247
0.48800	100800
0.48867	100363
0.48933	99934
0.49000	99514
0.49067	99102
0.49133	98696
0.49200	98297
0.49267	97904
0.49333	97515
0.49400	97132
0.49467	96753
0.49533	96378
0.49600	96005
0.49667	95636
0.49733	95269
0.49800	94905
0.49867	94542
0.49933	94181
0.50000	93821
0.50067	93463
0.50133	93105
0.50200	92748
0.50267	92391
0.50333	92034
0.50400	91677
0.50467	91321
0.50533	90964
0.50600	90606
0.50667	90248
0.50733	89889
0.50800	89530
0.50867	89170
0.50933	88808
0.51000	88446
0.51067	88083
0.51133	87719
0.51200	87354
0.51267	86988
0.51333	86620
0.51400	86252
0.51467	85882
0.51533	85512
0.51600	85140
0.51667	84767
0.51733	84393
0.51800	84019
0.51867	83643
0.51933	83266
0.52000	82888
0.52067	82510
0.52133	82130
0.52200	81750
0.52267	81369
0.52333	80986
0.52400	80604
0.52467	80220
0.52533	79836
0.52600	79451
0.52667	79066
0.52733	78680
0.52800	78294
0.52867	77908
0.52933	77521
0.53000	77134
0.53067	76748
0.53133	76361
0.53200	75974
0.53267	75588
0.53333	75201
0.53400	74815
0.53467	74429
0.53533	74043
0.53600	73658
0.53667	73274
0.53733	72890
0.53800	72507
0.53867	72125
0.53933	71743
0.54000	71362
0.54067	70983
0.54133	70604
0.54200	70227
0.54267	69850
0.54333	69476
0.54400	69102
0.54467	68730
0.54533	68359
0.54600	67990
0.54667	67623
0.54733	67257
0.54800	66893
0.54867	66531
0.54933	66171
0.55000	65813
0.55067	65457
0.55133	65102
0.55200	64751
0.55267	64401
0.55333	64054
0.55400	63709
0.55467	63366
0.55533	63025
0.55600	62687
0.55667	62351
0.55733	62018
0.55800	61686
0.55867	61357
0.55933	61030
0.56000	60705
0.56067	60382
0.56133	60061
0.56200	59741
0.56267	59423
0.56333	59107
0.56400	58793
0.56467	58479
0.56533	58168
0.56600	57858
0.56667	57549
0.56733	57241
0.56800	56935
0.56867	56630
0.56933	56327
0.57000	56025
0.57067	55724
0.57133	55424
0.57200	55126
0.57267	54829
0.57333	54534
0.57400	54240
0.57467	53947
0.57533	53656
0.57600	53366
0.57667	53078
0.57733	52791
0.57800	52505
0.57867	52221
0.57933	51939
0.58000	51658
0.58067	51378
0.58133	51100
0.58200	50824
0.58267	50549
0.58333	50275
0.58400	50004
0.58467	49733
0.58533	49465
0.58600	49198
0.58667	48932
0.58733	48668
0.58800	48406
0.58867	48146
0.58933	47887
0.59000	47630
0.59067	47374
0.59133	47120
0.59200	46868
0.59267	46617
0.59333	46369
0.59400	46122
0.59467	45877
0.59533	45633
0.59600	45392
0.59667	45152
0.59733	44913
0.59800	44677
0.59867	44442
0.59933	44209
0.60000	43977
0.60067	43747
0.60133	43519
0.60200	43292
0.60267	43067
0.60333	42844
0.60400	42622
0.60467	42402
0.60533	42183
0.60600	41966
0.60667	41751
0.60733	41537
0.60800	41325
0.60867	41115
0.60933	40906
0.61000	40699
0.61067	40493
0.61133	40289
0.61200	40087
0.61267	39886
0.61333	39687
0.61400	39489
0.61467	39293
0.61533	39098
0.61600	38904
0.61667	38713
0.61733	38522
0.61800	38333
0.61867	38146
0.61933	37960
0.62000	37775
0.62067	37591
0.62133	37409
0.62200	37229
0.62267	37049
0.62333	36871
0.62400	36694
0.62467	36519
0.62533	36344
0.62600	36171
0.62667	35999
0.62733	35828
0.62800	35659
0.62867	35490
0.62933	35323
0.63000	35157
0.63067	34992
0.63133	34828
0.63200	34665
0.63267	34503
0.63333	34342
0.63400	34183
0.63467	34024
0.63533	33867
0.63600	33710
0.63667	33555
0.63733	33401
0.63800	33247
0.63867	33095
0.63933	32944
0.64000	32794
0.64067	32645
0.64133	32497
0.64200	32350
0.64267	32204
0.64333	32059
0.64400	31915
0.64467	31773
0.64533	31631
0.64600	31490
0.64667	31350
0.64733	31212
0.64800	31074
0.64867	30937
0.64933	30802
0.65000	30667
0.65067	30533
0.65133	30400
0.65200	30268
0.65267	30137
0.65333	30007
0.65400	29878
0.65467	29749
0.65533	29622
0.65600	29495
0.65667	29369
0.65733	29244
0.65800	29120
0.65867	28996
0.65933	28873
0.66000	28751
0.66067	28630
0.66133	28510
0.66200	28390
0.66267	28271
0.66333	28153
0.66400	28035
0.66467	27919
0.66533	27803
0.66600	27687
0.66667	27573
0.66733	27459
0.66800	27346
0.66867	27234
0.66933	27123
0.67000	27012
0.67067	26902
0.67133	26793
0.67200	26684
0.67267	26576
0.67333	26470
0.67400	26364
0.67467	26258
0.67533	26154
0.67600	26051
0.67667	25949
0.67733	25848
0.67800	25748
0.67867	25650
0.67933	25552
0.68000	25457
0.68067	25363
0.68133	25271
0.68200	25181
0.68267	25093
0.68333	25007
0.68400	24924
0.68467	24844
0.68533	24767
0.68600	24693
0.68667	24623
0.68733	24556
0.68800	24494
0.68867	24436
0.68933	24383
0.69000	24334
0.69067	24291
0.69133	24254
0.69200	24221
0.69267	24195
0.69333	24175
0.69400	24160
0.69467	24151
0.69533	24148
0.69600	24151
0.69667	24160
0.69733	24174
0.69800	24193
0.69867	24217
0.69933	24245
0.70000	24277
0.70067	24313
0.70133	24351
0.70200	24392
0.70267	24435
0.70333	24480
0.70400	24525
0.70467	24570
0.70533	24615
0.70600	24659
0.70667	24701
0.70733	24741
0.70800	24778
0.70867	24813
0.70933	24843
0.71000	24870
0.71067	24893
0.71133	24911
0.71200	24925
0.71267	24934
0.71333	24939
0.71400	24938
0.71467	24933
0.71533	24923
0.71600	24908
0.71667	24889
0.71733	24865
0.71800	24836
0.71867	24803
0.71933	24766
0.72000	24724
0.72067	24679
0.72133	24630
0.72200	24577
0.72267	24521
0.72333	24461
0.72400	24399
0.72467	24334
0.72533	24266
0.72600	24196
0.72667	24123
0.72733	24049
0.72800	23972
0.72867	23894
0.72933	23814
0.73000	23732
0.73067	23649
0.73133	23565
0.73200	23480
0.73267	23393
0.73333	23306
0.73400	23217
0.73467	23128
0.73533	23039
0.73600	22948
0.73667	22858
0.73733	22767
0.73800	22675
0.73867	22583
0.73933	22491
0.74000	22399
0.74067	22307
0.74133	22215
0.74200	22122
0.74267	22030
0.74333	21938
0.74400	21846
0.74467	21754
0.74533	21662
0.74600	21570
0.74667	21479
0.74733	21388
0.74800	21297
0.74867	21207
0.74933	21117
0.75000	21027
0.75067	20938
0.75133	20850
0.75200	20762
0.75267	20674
0.75333	20587
0.75400	20500
0.75467	20414
0.75533	20329
0.75600	20244
0.75667	20160
0.75733	20076
0.75800	19993
0.75867	19911
0.75933	19829
0.76000	19748
0.76067	19668
0.76133	19588
0.76200	19509
0.76267	19430
0.76333	19353
0.76400	19276
0.76467	19199
0.76533	19124
0.76600	19049
0.76667	18974
0.76733	18900
0.76800	18827
0.76867	18755
0.76933	18683
0.77000	18612
0.77067	18541
0.77133	18471
0.77200	18402
0.77267	18334
0.77333	18266
0.77400	18198
0.77467	18131
0.77533	18065
0.77600	18000
0.77667	17935
0.77733	17871
0.77800	17807
0.77867	17744
0.77933	17682
0.78000	17620
0.78067	17559
0.78133	17498
0.78200	17438
0.78267	17379
0.78333	17320
0.78400	17261
0.78467	17203
0.78533	17146
0.78600	17089
0.78667	17033
0.78733	16977
0.78800	16922
0.78867	16867
0.78933	16812
0.79000	16758
0.79067	16704
0.79133	16651
0.79200	16598
0.79267	16546
0.79333	16494
0.79400	16442
0.79467	16391
0.79533	16340
0.79600	16290
0.79667	16239
0.79733	16189
0.79800	16140
0.79867	16090
0.79933	16041
0.80000	15992
0.80067	15944
0.80133	15896
0.80200	15848
0.80267	15800
0.80333	15753
0.80400	15706
0.80467	15659
0.80533	15612
0.80600	15566
0.80667	15519
0.80733	15473
0.80800	15428
0.80867	15382
0.80933	15337
0.81000	15292
0.81067	15247
0.81133	15202
0.81200	15158
0.81267	15114
0.81333	15070
0.81400	15027
0.81467	14983
0.81533	14941
0.81600	14898
0.81667	14856
0.81733	14813
0.81800	14772
0.81867	14730
0.81933	14688
0.82000	14647
0.82067	14606
0.82133	14565
0.82200	14525
0.82267	14485
0.82333	14445
0.82400	14405
0.82467	14365
0.82533	14326
0.82600	14287
0.82667	14248
0.82733	14210
0.82800	14171
0.82867	14133
0.82933	14095
0.83000	14057
0.83067	14020
0.83133	13983
0.83200	13946
0.83267	13909
0.83333	13872
0.83400	13836
0.83467	13799
0.83533	13763
0.83600	13728
0.83667	13692
0.83733	13657
0.83800	13622
0.83867	13587
0.83933	13552
0.84000	13517
0.84067	13483
0.84133	13449
0.84200	13415
0.84267	13382
0.84333	13348
0.84400	13315
0.84467	13282
0.84533	13250
0.84600	13217
0.84667	13185
0.84733	13153
0.84800	13122
0.84867	13090
0.84933	13059
0.85000	13028
0.85067	12998
0.85133	12967
0.85200	12937
0.85267	12907
0.85333	12878
0.85400	12848
0.85467	12819
0.85533	12790
0.85600	12761
0.85667	12733
0.85733	12704
0.85800	12676
0.85867	12649
0.85933	12621
0.86000	12593
0.86067	12566
0.86133	12539
0.86200	12512
0.86267	12486
0.86333	12459
0.86400	12433
0.86467	12407
0.86533	12381
0.86600	12356
0.86667	12330
0.86733	12305
0.86800	12280
0.86867	12255
0.86933	12230
0.87000	12206
0.87067	12181
0.87133	12157
0.87200	12133
0.87267	12109
0.87333	12085
0.87400	12062
0.87467	12039
0.87533	12015
0.87600	11992
0.87667	11970
0.87733	11947
0.87800	11925
0.87867	11902
0.87933	11880
0.88000	11858
0.88067	11837
0.88133	11815
0.88200	11794
0.88267	11772
0.88333	11751
0.88400	11730
0.88467	11710
0.88533	11689
0.88600	11669
0.88667	11648
0.88733	11628
0.88800	11608
0.88867	11588
0.88933	11569
0.89000	11549
0.89067	11530
0.89133	11511
0.89200	11491
0.89267	11472
0.89333	11453
0.89400	11435
0.89467	11416
0.89533	11397
0.89600	11379
0.89667	11361
0.89733	11342
0.89800	11324
0.89867	11306
0.89933	11288
0.90000	11270
0.90067	11252
0.90133	11235
0.90200	11217
0.90267	11200
0.90333	11182
0.90400	11165
0.90467	11148
0.90533	11131
0.90600	11114
0.90667	11097
0.90733	11080
0.90800	11063
0.90867	11046
0.90933	11030
0.91000	11013
0.91067	10996
0.91133	10980
0.91200	10964
0.91267	10948
0.91333	10932
0.91400	10916
0.91467	10900
0.91533	10884
0.91600	10868
0.91667	10853
0.91733	10837
0.91800	10822
0.91867	10806
0.91933	10791
0.92000	10776
0.92067	10761
0.92133	10746
0.92200	10731
0.92267	10716
0.92333	10702
0.92400	10687
0.92467	10673
0.92533	10658
0.92600	10644
0.92667	10629
0.92733	10615
0.92800	10601
0.92867	10587
0.92933	10573
0.93000	10559
0.93067	10545
0.93133	10531
0.93200	10517
0.93267	10504
0.93333	10490
0.93400	10477
0.93467	10463
0.93533	10450
0.93600	10437
0.93667	10424
0.93733	10410
0.93800	10397
0.93867	10385
0.93933	10372
0.94000	10359
0.94067	10346
0.94133	10333
0.94200	10321
0.94267	10308
0.94333	10296
0.94400	10283
0.94467	10270
0.94533	10258
0.94600	10246
0.94667	10233
0.94733	10221
0.94800	10208
0.94867	10196
0.94933	10184
0.95000	10172
0.95067	10160
0.95133	10147
0.95200	10135
0.95267	10123
0.95333	10111
0.95400	10099
0.95467	10088
0.95533	10076
0.95600	10064
0.95667	10052
0.95733	10041
0.95800	10029
0.95867	10018
0.95933	10007
0.96000	9995
0.96067	9984
0.96133	9973
0.96200	9962
0.96267	9951
0.96333	9940
0.96400	9930
0.96467	9919
0.96533	9908
0.96600	9898
0.96667	9887
0.96733	9877
0.96800	9867
0.96867	9856
0.96933	9846
0.97000	9836
0.97067	9825
0.97133	9815
0.97200	9805
0.97267	9795
0.97333	9784
0.97400	9774
0.97467	9764
0.97533	9754
0.97600	9743
0.97667	9733
0.97733	9722
0.97800	9712
0.97867	9701
0.97933	9690
0.98000	9679
0.98067	9669
0.98133	9658
0.98200	9647
0.98267	9636
0.98333	9625
0.98400	9614
0.98467	9603
0.98533	9592
0.98600	9580
0.98667	9569
0.98733	9558
0.98800	9547
0.98867	9536
0.98933	9524
0.99000	9513
0.99067	9502
0.99133	9490
0.99200	9479
0.99267	9468
0.99333	9456
0.99400	9445
0.99467	9434
0.99533	9423
0.99600	9411
0.99667	9400
0.99733	9389
0.99800	9377
0.99867	9366
0.99933	9355
1.00000	9344
1.00067	9332
1.00133	9321
1.00200	9310
1.00267	9299
1.00333	9288
1.00400	9277
1.00467	9266
1.00533	9255
1.00600	9244
1.00667	9233
1.00733	9222
1.00800	9212
1.00867	9201
1.00933	9191
1.01000	9181
1.01067	9171
1.01133	9161
1.01200	9151
1.01267	9141
1.01333	9131
1.01400	9122
1.01467	9113
1.01533	9104
1.01600	9095
1.01667	9086
1.01733	9078
1.01800	9070
1.01867	9063
1.01933	9055
1.02000	9048
1.02067	9042
1.02133	9035
1.02200	9029
1.02267	9024
1.02333	9018
1.02400	9013
1.02467	9008
1.02533	9003
1.02600	8999
1.02667	8995
1.02733	8991
1.02800	8987
1.02867	8983
1.02933	8980
1.03000	8976
1.03067	8973
1.03133	8970
1.03200	8967
1.03267	8964
1.03333	8961
1.03400	8958
1.03467	8954
1.03533	8951
1.03600	8948
1.03667	8945
1.03733	8941
1.03800	8938
1.03867	8934
1.03933	8930
1.04000	8926
1.04067	8922
1.04133	8917
1.04200	8913
1.04267	8908
1.04333	8903
1.04400	8898
1.04467	8893
1.04533	8887
1.04600	8881
1.04667	8876
1.04733	8870
1.04800	8863
1.04867	8857
1.04933	8851
1.05000	8844
1.05067	8837
1.05133	8830
1.05200	8823
1.05267	8816
1.05333	8808
1.05400	8801
1.05467	8793
1.05533	8786
1.05600	8778
1.05667	8770
1.05733	8762
1.05800	8754
1.05867	8746
1.05933	8738
1.06000	8730
1.06067	8722
1.06133	8713
1.06200	8705
1.06267	8697
1.06333	8688
1.06400	8680
1.06467	8671
1.06533	8663
1.06600	8654
1.06667	8646
1.06733	8637
1.06800	8628
1.06867	8619
1.06933	8611
1.07000	8602
1.07067	8593
1.07133	8584
1.07200	8575
1.07267	8566
1.07333	8557
1.07400	8548
1.07467	8539
1.07533	8530
1.07600	8522
1.07667	8513
1.07733	8504
1.07800	8495
1.07867	8486
1.07933	8477
1.08000	8468
1.08067	8459
1.08133	8450
1.08200	8441
1.08267	8432
1.08333	8423
1.08400	8414
1.08467	8406
1.08533	8397
1.08600	8388
1.08667	8379
1.08733	8370
1.08800	8361
1.08867	8353
1.08933	8344
1.09000	8335
1.09067	8326
1.09133	8318
1.09200	8309
1.09267	8300
1.09333	8292
1.09400	8283
1.09467	8274
1.09533	8266
1.09600	8257
1.09667	8249
1.09733	8240
1.09800	8232
1.09867	8223
1.09933	8215
1.10000	8207
1.10067	8198
1.10133	8190
1.10200	8182
1.10267	8174
1.10333	8166
1.10400	8158
1.10467	8150
1.10533	8142
1.10600	8134
1.10667	8126
1.10733	8118
1.10800	8110
1.10867	8102
1.10933	8094
1.11000	8087
1.11067	8079
1.11133	8071
1.11200	8063
1.11267	8056
1.11333	8048
1.11400	8041
1.11467	8033
1.11533	8026
1.11600	8018
1.11667	8011
1.11733	8004
1.11800	7996
1.11867	7989
1.11933	7982
1.12000	7975
1.12067	7967
1.12133	7960
1.12200	7953
1.12267	7946
1.12333	7939
1.12400	7932
1.12467	7925
1.12533	7919
1.12600	7912
1.12667	7905
1.12733	7899
1.12800	7892
1.12867	7885
1.12933	7879
1.13000	7872
1.13067	7866
1.13133	7860
1.13200	7853
1.13267	7847
1.13333	7841
1.13400	7834
1.13467	7828
1.13533	7822
1.13600	7816
1.13667	7810
1.13733	7804
1.13800	7798
1.13867	7793
1.13933	7787
1.14000	7781
1.14067	7776
1.14133	7770
1.14200	7765
1.14267	7759
1.14333	7754
1.14400	7748
1.14467	7743
1.14533	7737
1.14600	7732
1.14667	7727
1.14733	7722
1.14800	7716
1.14867	7711
1.14933	7706
1.15000	7701
1.15067	7696
1.15133	7691
1.15200	7686
1.15267	7681
1.15333	7676
1.15400	7671
1.15467	7666
1.15533	7661
1.15600	7656
1.15667	7651
1.15733	7646
1.15800	7641
1.15867	7637
1.15933	7632
1.16000	7627
1.16067	7622
1.16133	7617
1.16200	7612
1.16267	7607
1.16333	7602
1.16400	7597
1.16467	7592
1.16533	7587
1.16600	7582
1.16667	7578
1.16733	7573
1.16800	7568
1.16867	7563
1.16933	7558
1.17000	7553
1.17067	7548
1.17133	7543
1.17200	7538
1.17267	7533
1.17333	7528
1.17400	7523
1.17467	7518
1.17533	7513
1.17600	7508
1.17667	7504
1.17733	7499
1.17800	7494
1.17867	7489
1.17933	7484
1.18000	7479
1.18067	7475
1.18133	7470
1.18200	7465
1.18267	7460
1.18333	7456
1.18400	7451
1.18467	7446
1.18533	7442
1.18600	7437
1.18667	7433
1.18733	7428
1.18800	7424
1.18867	7420
1.18933	7415
1.19000	7411
1.19067	7407
1.19133	7403
1.19200	7399
1.19267	7395
1.19333	7391
1.19400	7387
1.19467	7383
1.19533	7379
1.19600	7376
1.19667	7372
1.19733	7368
1.19800	7365
1.19867	7362
1.19933	7358
1.20000	7355
1.20067	7352
1.20133	7349
1.20200	7346
1.20267	7343
1.20333	7340
1.20400	7337
1.20467	7335
1.20533	7332
1.20600	7330
1.20667	7327
1.20733	7325
1.20800	7323
1.20867	7320
1.20933	7318
1.21000	7316
1.21067	7314
1.21133	7312
1.21200	7310
1.21267	7308
1.21333	7306
1.21400	7304
1.21467	7303
1.21533	7301
1.21600	7299
1.21667	7297
1.21733	7296
1.21800	7294
1.21867	7293
1.21933	7291
1.22000	7289
1.22067	7288
1.22133	7286
1.22200	7285
1.22267	7283
1.22333	7282
1.22400	7280
1.22467	7278
1.22533	7277
1.22600	7275
1.22667	7274
1.22733	7272
1.22800	7270
1.22867	7269
1.22933	7267
1.23000	7266
1.23067	7264
1.23133	7263
1.23200	7261
1.23267	7260
1.23333	7258
1.23400	7257
1.23467	7256
1.23533	7254
1.23600	7253
1.23667	7251
1.23733	7250
1.23800	7249
1.23867	7248
1.23933	7246
1.24000	7245
1.24067	7244
1.24133	7243
1.24200	7241
1.24267	7240
1.24333	7239
1.24400	7238
1.24467	7237
1.24533	7235
1.24600	7234
1.24667	7233
1.24733	7232
1.24800	7230
1.24867	7229
1.24933	7228
1.25000	7227
1.25067	7226
1.25133	7224
1.25200	7223
1.25267	7222
1.25333	7221
1.25400	7220
1.25467	7218
1.25533	7217
1.25600	7216
1.25667	7215
1.25733	7213
1.25800	7212
1.25867	7211
1.25933	7210
1.26000	7209
1.26067	7208
1.26133	7207
1.26200	7206
1.26267	7205
1.26333	7204
1.26400	7203
1.26467	7202
1.26533	7201
1.26600	7201
1.26667	7200
1.26733	7199
1.26800	7199
1.26867	7198
1.26933	7197
1.27000	7197
1.27067	7196
1.27133	7196
1.27200	7196
1.27267	7196
1.27333	7195
1.27400	7195
1.27467	7195
1.27533	7195
1.27600	7196
1.27667	7196
1.27733	7197
1.27800	7197
1.27867	7198
1.27933	7199
1.28000	7200
1.28067	7201
1.28133	7202
1.28200	7203
1.28267	7204
1.28333	7206
1.28400	7207
1.28467	7209
1.28533	7211
1.28600	7213
1.28667	7215
1.28733	7217
1.28800	7219
1.28867	7221
1.28933	7223
1.29000	7225
1.29067	7227
1.29133	7229
1.29200	7231
1.29267	7233
1.29333	7235
1.29400	7237
1.29467	7239
1.29533	7241
1.29600	7242
1.29667	7244
1.29733	7245
1.29800	7246
1.29867	7247
1.29933	7248
1.30000	7249
1.30067	7250
1.30133	7250
1.30200	7250
1.30267	7251
1.30333	7251
1.30400	7251
1.30467	7250
1.30533	7250
1.30600	7249
1.30667	7249
1.30733	7248
1.30800	7247
1.30867	7246
1.30933	7244
1.31000	7243
1.31067	7241
1.31133	7239
1.31200	7237
1.31267	7235
1.31333	7233
1.31400	7230
1.31467	7228
1.31533	7225
1.31600	7223
1.31667	7220
1.31733	7217
1.31800	7214
1.31867	7211
1.31933	7208
1.32000	7205
1.32067	7201
1.32133	7198
1.32200	7194
1.32267	7190
1.32333	7186
1.32400	7182
1.32467	7178
1.32533	7174
1.32600	7170
1.32667	7165
1.32733	7161
1.32800	7156
1.32867	7152
1.32933	7147
1.33000	7142
1.33067	7138
1.33133	7133
1.33200	7128
1.33267	7123
1.33333	7118
1.33400	7113
1.33467	7108
1.33533	7102
1.33600	7097
1.33667	7092
1.33733	7087
1.33800	7081
1.33867	7076
1.33933	7070
1.34000	7065
1.34067	7059
1.34133	7053
1.34200	7048
1.34267	7042
1.34333	7037
1.34400	7031
1.34467	7025
1.34533	7020
1.34600	7014
1.34667	7009
1.34733	7003
1.34800	6997
1.34867	6992
1.34933	6986
1.35000	6981
1.35067	6975
1.35133	6970
1.35200	6964
1.35267	6958
1.35333	6953
1.35400	6947
1.35467	6942
1.35533	6936
1.35600	6931
1.35667	6925
1.35733	6920
1.35800	6915
1.35867	6909
1.35933	6904
1.36000	6899
1.36067	6894
1.36133	6889
1.36200	6884
1.36267	6879
1.36333	6874
1.36400	6869
1.36467	6864
1.36533	6859
1.36600	6855
1.36667	6850
1.36733	6845
1.36800	6841
1.36867	6836
1.36933	6832
1.37000	6827
1.37067	6823
1.37133	6819
1.37200	6815
1.37267	6810
1.37333	6806
1.37400	6802
1.37467	6798
1.37533	6794
1.37600	6790
1.37667	6786
1.37733	6783
1.37800	6779
1.37867	6775
1.37933	6771
1.38000	6768
1.38067	6764
1.38133	6761
1.38200	6757
1.38267	6754
1.38333	6750
1.38400	6747
1.38467	6743
1.38533	6740
1.38600	6736
1.38667	6733
1.38733	6730
1.38800	6727
1.38867	6724
1.38933	6720
1.39000	6717
1.39067	6714
1.39133	6711
1.39200	6708
1.39267	6705
1.39333	6702
1.39400	6699
1.39467	6696
1.39533	6693
1.39600	6691
1.39667	6688
1.39733	6685
1.39800	6682
1.39867	6679
1.39933	6676
1.40000	6673
1.40067	6671
1.40133	6668
1.40200	6665
1.40267	6662
1.40333	6659
1.40400	6656
1.40467	6653
1.40533	6650
1.40600	6647
1.40667	6645
1.40733	6642
1.40800	6639
1.40867	6636
1.40933	6633
1.41000	6630
1.41067	6627
1.41133	6624
1.41200	6621
1.41267	6618
1.41333	6616
1.41400	6613
1.41467	6610
1.41533	6607
1.41600	6604
1.41667	6601
1.41733	6598
1.41800	6595
1.41867	6592
1.41933	6590
1.42000	6587
1.42067	6584
1.42133	6581
1.42200	6578
1.42267	6575
1.42333	6573
1.42400	6570
1.42467	6567
1.42533	6564
1.42600	6562
1.42667	6559
1.42733	6556
1.42800	6554
1.42867	6551
1.42933	6549
1.43000	6546
1.43067	6544
1.43133	6541
1.43200	6539
1.43267	6537
1.43333	6535
1.43400	6533
1.43467	6531
1.43533	6529
1.43600	6527
1.43667	6525
1.43733	6524
1.43800	6522
1.43867	6521
1.43933	6519
1.44000	6518
1.44067	6516
1.44133	6515
1.44200	6514
1.44267	6512
1.44333	6511
1.44400	6510
1.44467	6509
1.44533	6508
1.44600	6507
1.44667	6506
1.44733	6505
1.44800	6504
1.44867	6503
1.44933	6502
1.45000	6500
1.45067	6499
1.45133	6498
1.45200	6497
1.45267	6496
1.45333	6495
1.45400	6494
1.45467	6492
1.45533	6491
1.45600	6490
1.45667	6489
1.45733	6487
1.45800	6486
1.45867	6484
1.45933	6483
1.46000	6482
1.46067	6480
1.46133	6478
1.46200	6477
1.46267	6475
1.46333	6474
1.46400	6472
1.46467	6470
1.46533	6468
1.46600	6467
1.46667	6465
1.46733	6463
1.46800	6461
1.46867	6459
1.46933	6457
1.47000	6455
1.47067	6453
1.47133	6451
1.47200	6449
1.47267	6447
1.47333	6446
1.47400	6444
1.47467	6442
1.47533	6440
1.47600	6438
1.47667	6436
1.47733	6434
1.47800	6432
1.47867	6430
1.47933	6428
1.48000	6426
1.48067	6424
1.48133	6422
1.48200	6420
1.48267	6418
1.48333	6416
1.48400	6414
1.48467	6412
1.48533	6410
1.48600	6408
1.48667	6406
1.48733	6403
1.48800	6401
1.48867	6399
1.48933	6397
1.49000	6395
1.49067	6393
1.49133	6390
1.49200	6388
1.49267	6386
1.49333	6384
1.49400	6381
1.49467	6379
1.49533	6376
1.49600	6374
1.49667	6371
1.49733	6369
1.49800	6366
1.49867	6364
1.49933	6361
1.50000	6359
1.50067	6356
1.50133	6354
1.50200	6351
1.50267	6348
1.50333	6345
1.50400	6343
1.50467	6340
1.50533	6337
1.50600	6334
1.50667	6332
1.50733	6329
1.50800	6326
1.50867	6323
1.50933	6320
1.51000	6318
1.51067	6315
1.51133	6312
1.51200	6309
1.51267	6306
1.51333	6303
1.51400	6301
1.51467	6298
1.51533	6295
1.51600	6293
1.51667	6290
1.51733	6288
1.51800	6285
1.51867	6283
1.51933	6280
1.52000	6278
1.52067	6275
1.52133	6273
1.52200	6271
1.52267	6268
1.52333	6266
1.52400	6264
1.52467	6262
1.52533	6260
1.52600	6258
1.52667	6256
1.52733	6254
1.52800	6252
1.52867	6250
1.52933	6249
1.53000	6247
1.53067	6245
1.53133	6243
1.53200	6241
1.53267	6240
1.53333	6238
1.53400	6236
1.53467	6235
1.53533	6233
1.53600	6231
1.53667	6230
1.53733	6228
1.53800	6226
1.53867	6225
1.53933	6223
1.54000	6221
1.54067	6219
1.54133	6218
1.54200	6216
1.54267	6214
1.54333	6213
1.54400	6211
1.54467	6209
1.54533	6208
1.54600	6206
1.54667	6204
1.54733	6202
1.54800	6200
1.54867	6198
1.54933	6197
1.55000	6195
1.55067	6193
1.55133	6191
1.55200	6189
1.55267	6187
1.55333	6185
1.55400	6184
1.55467	6182
1.55533	6180
1.55600	6178
1.55667	6176
1.55733	6174
1.55800	6173
1.55867	6171
1.55933	6169
1.56000	6167
1.56067	6165
1.56133	6164
1.56200	6162
1.56267	6160
1.56333	6158
1.56400	6156
1.56467	6154
1.56533	6153
1.56600	6151
1.56667	6149
1.56733	6147
1.56800	6145
1.56867	6143
1.56933	6142
1.57000	6140
1.57067	6138
1.57133	6136
1.57200	6134
1.57267	6133
1.57333	6131
1.57400	6129
1.57467	6128
1.57533	6126
1.57600	6124
1.57667	6123
1.57733	6121
1.57800	6120
1.57867	6118
1.57933	6117
1.58000	6115
1.58067	6113
1.58133	6112
1.58200	6110
1.58267	6109
1.58333	6108
1.58400	6106
1.58467	6105
1.58533	6103
1.58600	6102
1.58667	6100
1.58733	6099
1.58800	6097
1.58867	6096
1.58933	6094
1.59000	6093
1.59067	6092
1.59133	6090
1.59200	6089
1.59267	6087
1.59333	6086
1.59400	6084
1.59467	6083
1.59533	6081
1.59600	6080
1.59667	6078
1.59733	6077
1.59800	6076
1.59867	6074
1.59933	6073
1.60000	6071
1.60067	6070
1.60133	6068
1.60200	6067
1.60267	6065
1.60333	6064
1.60400	6062
1.60467	6061
1.60533	6059
1.60600	6058
1.60667	6056
1.60733	6055
1.60800	6054
1.60867	6053
1.60933	6051
1.61000	6050
1.61067	6049
1.61133	6048
1.61200	6046
1.61267	6045
1.61333	6044
1.61400	6043
1.61467	6041
1.61533	6040
1.61600	6039
1.61667	6038
1.61733	6037
1.61800	6035
1.61867	6034
1.61933	6033
1.62000	6032
1.62067	6030
1.62133	6029
1.62200	6028
1.62267	6027
1.62333	6026
1.62400	6024
1.62467	6023
1.62533	6022
1.62600	6021
1.62667	6020
1.62733	6019
1.62800	6018
1.62867	6016
1.62933	6015
1.63000	6014
1.63067	6013
1.63133	6012
1.63200	6011
1.63267	6010
1.63333	6009
1.63400	6008
1.63467	6007
1.63533	6006
1.63600	6005
1.63667	6004
1.63733	6003
1.63800	6002
1.63867	6002
1.63933	6001
1.64000	6000
1.64067	5999
1.64133	5998
1.64200	5998
1.64267	5997
1.64333	5996
1.64400	5996
1.64467	5995
1.64533	5995
1.64600	5994
1.64667	5993
1.64733	5993
1.64800	5992
1.64867	5992
1.64933	5991
1.65000	5991
1.65067	5990
1.65133	5990
1.65200	5989
1.65267	5988
1.65333	5988
1.65400	5987
1.65467	5987
1.65533	5986
1.65600	5986
1.65667	5985
1.65733	5985
1.65800	5984
1.65867	5983
1.65933	5982
1.66000	5982
1.66067	5981
1.66133	5980
1.66200	5979
1.66267	5979
1.66333	5978
1.66400	5977
1.66467	5976
1.66533	5975
1.66600	5975
1.66667	5974
1.66733	5973
1.66800	5972
1.66867	5971
1.66933	5970
1.67000	5969
1.67067	5969
1.67133	5968
1.67200	5967
1.67267	5966
1.67333	5965
1.67400	5964
1.67467	5963
1.67533	5962
1.67600	5961
1.67667	5960
1.67733	5959
1.67800	5958
1.67867	5958
1.67933	5957
1.68000	5956
1.68067	5955
1.68133	5954
1.68200	5952
1.68267	5951
1.68333	5950
1.68400	5949
1.68467	5948
1.68533	5947
1.68600	5946
1.68667	5944
1.68733	5943
1.68800	5942
1.68867	5941
1.68933	5939
1.69000	5938
1.69067	5937
1.69133	5936
1.69200	5934
1.69267	5933
1.69333	5931
1.69400	5930
1.69467	5929
1.69533	5927
1.69600	5926
1.69667	5924
1.69733	5923
1.69800	5921
1.69867	5920
1.69933	5918
1.70000	5917
1.70067	5915
1.70133	5914
1.70200	5913
1.70267	5911
1.70333	5910
1.70400	5909
1.70467	5907
1.70533	5906
1.70600	5905
1.70667	5903
1.70733	5902
1.70800	5901
1.70867	5899
1.70933	5898
1.71000	5897
1.71067	5895
1.71133	5894
1.71200	5893
1.71267	5892
1.71333	5891
1.71400	5890
1.71467	5890
1.71533	5889
1.71600	5890
1.71667	5890
1.71733	5891
1.71800	5893
1.71867	5896
1.71933	5900
1.72000	5905
1.72067	5911
1.72133	5920
1.72200	5931
1.72267	5945
1.72333	5962
1.72400	5983
1.72467	6009
1.72533	6042
1.72600	6081
1.72667	6129
1.72733	6187
1.72800	6257
1.72867	6341
1.72933	6442
1.73000	6562
1.73067	6704
1.73133	6873
1.73200	7071
1.73267	7304
1.73333	7576
1.73400	7893
1.73467	8260
1.73533	8685
1.73600	9174
1.73667	9736
1.73733	10379
1.73800	11112
1.73867	11944
1.73933	12884
1.74000	13942
1.74067	15129
1.74133	16455
1.74200	17934
1.74267	19575
1.74333	21392
1.74400	23395
1.74467	25598
1.74533	28010
1.74600	30645
1.74667	33513
1.74733	36625
1.74800	39990
1.74867	43618
1.74933	47517
1.75000	51696
1.75067	56163
1.75133	60925
1.75200	65985
1.75267	71349
1.75333	77019
1.75400	82994
1.75467	89273
1.75533	95853
1.75600	102728
1.75667	109887
1.75733	117319
1.75800	125007
1.75867	132930
1.75933	141069
1.76000	149407
1.76067	157924
1.76133	166600
1.76200	175409
1.76267	184323
1.76333	193311
1.76400	202338
1.76467	211372
1.76533	220376
1.76600	229317
1.76667	238160
1.76733	246870
1.76800	255410
1.76867	263747
1.76933	271845
1.77000	279669
1.77067	287186
1.77133	294365
1.77200	301178
1.77267	307599
1.77333	313605
1.77400	319179
1.77467	324305
1.77533	328973
1.77600	333174
1.77667	336905
1.77733	340163
1.77800	342951
1.77867	345274
1.77933	347138
1.78000	348555
1.78067	349536
1.78133	350096
1.78200	350249
1.78267	350012
1.78333	349402
1.78400	348438
1.78467	347136
1.78533	345516
1.78600	343596
1.78667	341394
1.78733	338929
1.78800	336219
1.78867	333281
1.78933	330132
1.79000	326790
1.79067	323268
1.79133	319585
1.79200	315753
1.79267	311787
1.79333	307702
1.79400	303509
1.79467	299222
1.79533	294852
1.79600	290410
1.79667	285908
1.79733	281353
1.79800	276757
1.79867	272127
1.79933	267473
1.80000	262801
1.80067	258119
1.80133	253434
1.80200	248752
1.80267	244078
1.80333	239419
1.80400	234779
1.80467	230164
1.80533	225577
1.80600	221022
1.80667	216504
1.80733	212025
1.80800	207589
1.80867	203198
1.80933	198856
1.81000	194564
1.81067	190325
1.81133	186140
1.81200	182011
1.81267	177941
1.81333	173929
1.81400	169977
1.81467	166087
1.81533	162258
1.81600	158493
1.81667	154790
1.81733	151152
1.81800	147577
1.81867	144067
1.81933	140621
1.82000	137240
1.82067	133923
1.82133	130670
1.82200	127481
1.82267	124356
1.82333	121295
1.82400	118296
1.82467	115360
1.82533	112486
1.82600	109674
1.82667	106922
1.82733	104231
1.82800	101599
1.82867	99026
1.82933	96511
1.83000	94053
1.83067	91652
1.83133	89307
1.83200	87017
1.83267	84780
1.83333	82597
1.83400	80467
1.83467	78387
1.83533	76359
1.83600	74380
1.83667	72450
1.83733	70568
1.83800	68733
1.83867	66945
1.83933	65201
1.84000	63502
1.84067	61847
1.84133	60234
1.84200	58663
1.84267	57133
1.84333	55643
1.84400	54192
1.84467	52780
1.84533	51405
1.84600	50066
1.84667	48764
1.84733	47497
1.84800	46264
1.84867	45064
1.84933	43897
1.85000	42763
1.85067	41659
1.85133	40585
1.85200	39542
1.85267	38527
1.85333	37541
1.85400	36582
1.85467	35650
1.85533	34744
1.85600	33864
1.85667	33008
1.85733	32177
1.85800	31370
1.85867	30585
1.85933	29823
1.86000	29083
1.86067	28364
1.86133	27666
1.86200	26988
1.86267	26329
1.86333	25690
1.86400	25069
1.86467	24466
1.86533	23881
1.86600	23312
1.86667	22761
1.86733	22226
1.86800	21706
1.86867	21202
1.86933	20712
1.87000	20237
1.87067	19776
1.87133	19329
1.87200	18895
1.87267	18474
1.87333	18066
1.87400	17670
1.87467	17285
1.87533	16912
1.87600	16551
1.87667	16200
1.87733	15860
1.87800	15530
1.87867	15210
1.87933	14900
1.88000	14599
1.88067	14308
1.88133	14025
1.88200	13751
1.88267	13485
1.88333	13227
1.88400	12977
1.88467	12735
1.88533	12500
1.88600	12272
1.88667	12052
1.88733	11838
1.88800	11630
1.88867	11429
1.88933	11235
1.89000	11046
1.89067	10863
1.89133	10686
1.89200	10514
1.89267	10347
1.89333	10186
1.89400	10030
1.89467	9878
1.89533	9731
1.89600	9589
1.89667	9451
1.89733	9317
1.89800	9188
1.89867	9063
1.89933	8941
1.90000	8823
1.90067	8709
1.90133	8599
1.90200	8492
1.90267	8388
1.90333	8287
1.90400	8190
1.90467	8095
1.90533	8004
1.90600	7915
1.90667	7829
1.90733	7746
1.90800	7665
1.90867	7587
1.90933	7511
1.91000	7437
1.91067	7366
1.91133	7297
1.91200	7230
1.91267	7165
1.91333	7102
1.91400	7040
1.91467	6981
1.91533	6923
1.91600	6867
1.91667	6813
1.91733	6761
1.91800	6710
1.91867	6660
1.91933	6612
1.92000	6565
1.92067	6520
1.92133	6476
1.92200	6433
1.92267	6392
1.92333	6351
1.92400	6312
1.92467	6274
1.92533	6237
1.92600	6201
1.92667	6166
1.92733	6132
1.92800	6099
1.92867	6067
1.92933	6035
1.93000	6005
1.93067	5976
1.93133	5947
1.93200	5919
1.93267	5892
1.93333	5866
1.93400	5841
1.93467	5816
1.93533	5792
1.93600	5768
1.93667	5745
1.93733	5723
1.93800	5701
1.93867	5680
1.93933	5660
1.94000	5640
1.94067	5621
1.94133	5602
1.94200	5583
1.94267	5565
1.94333	5548
1.94400	5531
1.94467	5515
1.94533	5499
1.94600	5483
1.94667	5468
1.94733	5454
1.94800	5439
1.94867	5425
1.94933	5412
1.95000	5399
1.95067	5386
1.95133	5373
1.95200	5361
1.95267	5349
1.95333	5338
1.95400	5326
1.95467	5315
1.95533	5304
1.95600	5294
1.95667	5284
1.95733	5274
1.95800	5264
1.95867	5255
1.95933	5245
1.96000	5237
1.96067	5228
1.96133	5219
1.96200	5211
1.96267	5203
1.96333	5195
1.96400	5187
1.96467	5179
1.96533	5172
1.96600	5164
1.96667	5157
1.96733	5150
1.96800	5144
1.96867	5137
1.96933	5131
1.97000	5124
1.97067	5118
1.97133	5112
1.97200	5106
1.97267	5101
1.97333	5095
1.97400	5090
1.97467	5085
1.97533	5080
1.97600	5075
1.97667	5070
1.97733	5065
1.97800	5060
1.97867	5056
1.97933	5051
1.98000	5047
1.98067	5043
1.98133	5039
1.98200	5034
1.98267	5030
1.98333	5026
1.98400	5023
1.98467	5019
1.98533	5015
1.98600	5011
1.98667	5008
1.98733	5004
1.98800	5001
1.98867	4997
1.98933	4994
1.99000	4991
1.99067	4988
1.99133	4984
1.99200	4981
1.99267	4978
1.99333	4975
1.99400	4972
1.99467	4969
1.99533	4967
1.99600	4964
1.99667	4961
1.99733	4958
1.99800	4956
1.99867	4953
1.99933	4951
2.00000	4948
2.00067	4946
2.00133	4943
2.00200	4941
2.00267	4938
2.00333	4936
2.00400	4934
2.00467	4931
2.00533	4929
2.00600	4927
2.00667	4924
2.00733	4922
2.00800	4920
2.00867	4918
2.00933	4915
2.01000	4913
2.01067	4911
2.01133	4909
2.01200	4906
2.01267	4904
2.01333	4901
2.01400	4899
2.01467	4896
2.01533	4894
2.01600	4892
2.01667	4889
2.01733	4887
2.01800	4884
2.01867	4882
2.01933	4879
2.02000	4877
2.02067	4874
2.02133	4872
2.02200	4869
2.02267	4867
2.02333	4865
2.02400	4862
2.02467	4860
2.02533	4857
2.02600	4855
2.02667	4853
2.02733	4850
2.02800	4848
2.02867	4846
2.02933	4843
2.03000	4841
2.03067	4839
2.03133	4836
2.03200	4834
2.03267	4832
2.03333	4830
2.03400	4827
2.03467	4825
2.03533	4823
2.03600	4820
2.03667	4818
2.03733	4816
2.03800	4814
2.03867	4811
2.03933	4809
2.04000	4807
2.04067	4805
2.04133	4802
2.04200	4800
2.04267	4798
2.04333	4796
2.04400	4794
2.04467	4791
2.04533	4789
2.04600	4787
2.04667	4785
2.04733	4783
2.04800	4781
2.04867	4779
2.04933	4776
2.05000	4774
2.05067	4772
2.05133	4770
2.05200	4768
2.05267	4766
2.05333	4764
2.05400	4761
2.05467	4759
2.05533	4757
2.05600	4755
2.05667	4753
2.05733	4751
2.05800	4749
2.05867	4747
2.05933	4745
2.06000	4743
2.06067	4741
2.06133	4739
2.06200	4737
2.06267	4735
2.06333	4733
2.06400	4731
2.06467	4729
2.06533	4727
2.06600	4726
2.06667	4724
2.06733	4722
2.06800	4720
2.06867	4718
2.06933	4716
2.07000	4714
2.07067	4712
2.07133	4710
2.07200	4708
2.07267	4707
2.07333	4705
2.07400	4703
2.07467	4701
2.07533	4699
2.07600	4697
2.07667	4695
2.07733	4694
2.07800	4692
2.07867	4690
2.07933	4688
2.08000	4686
2.08067	4685
2.08133	4683
2.08200	4681
2.08267	4679
2.08333	4678
2.08400	4676
2.08467	4674
2.08533	4673
2.08600	4671
2.08667	4669
2.08733	4668
2.08800	4666
2.08867	4665
2.08933	4663
2.09000	4661
2.09067	4660
2.09133	4658
2.09200	4657
2.09267	4655
2.09333	4654
2.09400	4652
2.09467	4651
2.09533	4649
2.09600	4648
2.09667	4646
2.09733	4645
2.09800	4643
2.09867	4642
2.09933	4640
2.10000	4639
2.10067	4638
2.10133	4636
2.10200	4635
2.10267	4633
2.10333	4632
2.10400	4631
2.10467	4629
2.10533	4628
2.10600	4626
2.10667	4625
2.10733	4623
2.10800	4622
2.10867	4621
2.10933	4619
2.11000	4618
2.11067	4617
2.11133	4615
2.11200	4614
2.11267	4613
2.11333	4611
2.11400	4610
2.11467	4608
2.11533	4607
2.11600	4606
2.11667	4604
2.11733	4603
2.11800	4602
2.11867	4600
2.11933	4599
2.12000	4597
2.12067	4596
2.12133	4595
2.12200	4593
2.12267	4592
2.12333	4591
2.12400	4589
2.12467	4588
2.12533	4586
2.12600	4585
2.12667	4583
2.12733	4582
2.12800	4580
2.12867	4579
2.12933	4577
2.13000	4576
2.13067	4574
2.13133	4573
2.13200	4571
2.13267	4570
2.13333	4568
2.13400	4567
2.13467	4565
2.13533	4564
2.13600	4562
2.13667	4561
2.13733	4559
2.13800	4558
2.13867	4557
2.13933	4555
2.14000	4554
2.14067	4552
2.14133	4551
2.14200	4549
2.14267	4548
2.14333	4546
2.14400	4545
2.14467	4543
2.14533	4542
2.14600	4540
2.14667	4539
2.14733	4537
2.14800	4536
2.14867	4534
2.14933	4533
2.15000	4532
2.15067	4530
2.15133	4529
2.15200	4527
2.15267	4526
2.15333	4525
2.15400	4523
2.15467	4522
2.15533	4520
2.15600	4519
2.15667	4518
2.15733	4516
2.15800	4515
2.15867	4514
2.15933	4512
2.16000	4511
2.16067	4510
2.16133	4508
2.16200	4507
2.16267	4506
2.16333	4504
2.16400	4503
2.16467	4502
2.16533	4501
2.16600	4499
2.16667	4498
2.16733	4497
2.16800	4496
2.16867	4494
2.16933	4493
2.17000	4492
2.17067	4491
2.17133	4490
2.17200	4488
2.17267	4487
2.17333	4486
2.17400	4485
2.17467	4484
2.17533	4482
2.17600	4481
2.17667	4480
2.17733	4478
2.17800	4477
2.17867	4476
2.17933	4475
2.18000	4473
2.18067	4472
2.18133	4471
2.18200	4469
2.18267	4468
2.18333	4467
2.18400	4465
2.18467	4464
2.18533	4462
2.18600	4461
2.18667	4460
2.18733	4458
2.18800	4457
2.18867	4456
2.18933	4454
2.19000	4453
2.19067	4451
2.19133	4450
2.19200	4449
2.19267	4448
2.19333	4446
2.19400	4445
2.19467	4444
2.19533	4443
2.19600	4441
2.19667	4440
2.19733	4439
2.19800	4438
2.19867	4437
2.19933	4436
2.20000	4435
2.20067	4434
2.20133	4433
2.20200	4432
2.20267	4431
2.20333	4431
2.20400	4430
2.20467	4429
2.20533	4428
2.20600	4428
2.20667	4427
2.20733	4427
2.20800	4426
2.20867	4426
2.20933	4426
2.21000	4425
2.21067	4425
2.21133	4425
2.21200	4425
2.21267	4425
2.21333	4425
2.21400	4425
2.21467	4425
2.21533	4425
2.21600	4425
2.21667	4425
2.21733	4426
2.21800	4426
2.21867	4426
2.21933	4426
2.22000	4427
2.22067	4427
2.22133	4428
2.22200	4428
2.22267	4428
2.22333	4429
2.22400	4429
2.22467	4429
2.22533	4430
2.22600	4430
2.22667	4430
2.22733	4431
2.22800	4431
2.22867	4431
2.22933	4431
2.23000	4432
2.23067	4432
2.23133	4432
2.23200	4432
2.23267	4432
2.23333	4432
2.23400	4431
2.23467	4431
2.23533	4431
2.23600	4431
2.23667	4430
2.23733	4430
2.23800	4430
2.23867	4429
2.23933	4429
2.24000	4428
2.24067	4428
2.24133	4427
2.24200	4426
2.24267	4426
2.24333	4425
2.24400	4424
2.24467	4423
2.24533	4423
2.24600	4422
2.24667	4421
2.24733	4420
2.24800	4419
2.24867	4419
2.24933	4418
2.25000	4417
2.25067	4416
2.25133	4416
2.25200	4415
2.25267	4414
2.25333	4413
2.25400	4413
2.25467	4412
2.25533	4411
2.25600	4410
2.25667	4410
2.25733	4409
2.25800	4408
2.25867	4407
2.25933	4407
2.26000	4406
2.26067	4405
2.26133	4404
2.26200	4403
2.26267	4402
2.26333	4401
2.26400	4401
2.26467	4400
2.26533	4399
2.26600	4398
2.26667	4397
2.26733	4396
2.26800	4395
2.26867	4394
2.26933	4393
2.27000	4392
2.27067	4391
2.27133	4390
2.27200	4388
2.27267	4387
2.27333	4386
2.27400	4385
2.27467	4384
2.27533	4383
2.27600	4381
2.27667	4380
2.27733	4379
2.27800	4378
2.27867	4377
2.27933	4375
2.28000	4374
2.28067	4373
2.28133	4372
2.28200	4370
2.28267	4369
2.28333	4368
2.28400	4367
2.28467	4365
2.28533	4364
2.28600	4363
2.28667	4361
2.28733	4360
2.28800	4359
2.28867	4357
2.28933	4356
2.29000	4355
2.29067	4354
2.29133	4352
2.29200	4351
2.29267	4350
2.29333	4348
2.29400	4347
2.29467	4346
2.29533	4345
2.29600	4343
2.29667	4342
2.29733	4341
2.29800	4340
2.29867	4339
2.29933	4338
2.30000	4337
2.30067	4336
2.30133	4335
2.30200	4334
2.30267	4333
2.30333	4333
2.30400	4332
2.30467	4331
2.30533	4331
2.30600	4330
2.30667	4329
2.30733	4329
2.30800	4328
2.30867	4328
2.30933	4327
2.31000	4327
2.31067	4326
2.31133	4326
2.31200	4325
2.31267	4325
2.31333	4324
2.31400	4324
2.31467	4324
2.31533	4323
2.31600	4323
2.31667	4323
2.31733	4323
2.31800	4322
2.31867	4322
2.31933	4322
2.32000	4322
2.32067	4321
2.32133	4321
2.32200	4321
2.32267	4321
2.32333	4321
2.32400	4321
2.32467	4321
2.32533	4321
2.32600	4320
2.32667	4320
2.32733	4320
2.32800	4320
2.32867	4320
2.32933	4320
2.33000	4320
2.33067	4320
2.33133	4320
2.33200	4320
2.33267	4320
2.33333	4320
2.33400	4320
2.33467	4320
2.33533	4320
2.33600	4320
2.33667	4321
2.33733	4321
2.33800	4321
2.33867	4321
2.33933	4321
2.34000	4321
2.34067	4322
2.34133	4322
2.34200	4322
2.34267	4323
2.34333	4323
2.34400	4323
2.34467	4324
2.34533	4324
2.34600	4325
2.34667	4325
2.34733	4325
2.34800	4326
2.34867	4326
2.34933	4327
2.35000	4327
2.35067	4327
2.35133	4328
2.35200	4328
2.35267	4328
2.35333	4328
2.35400	4329
2.35467	4329
2.35533	4329
2.35600	4330
2.35667	4330
2.35733	4330
2.35800	4331
2.35867	4331
2.35933	4331
2.36000	4331
2.36067	4332
2.36133	4332
2.36200	4333
2.36267	4333
2.36333	4333
2.36400	4334
2.36467	4334
2.36533	4334
2.36600	4334
2.36667	4335
2.36733	4335
2.36800	4335
2.36867	4335
2.36933	4336
2.37000	4336
2.37067	4336
2.37133	4336
2.37200	4336
2.37267	4336
2.37333	4336
2.37400	4336
2.37467	4336
2.37533	4336
2.37600	4336
2.37667	4336
2.37733	4336
2.37800	4336
2.37867	4336
2.37933	4336
2.38000	4336
2.38067	4335
2.38133	4335
2.38200	4335
2.38267	4334
2.38333	4334
2.38400	4334
2.38467	4333
2.38533	4333
2.38600	4332
2.38667	4332
2.38733	4332
2.38800	4331
2.38867	4330
2.38933	4330
2.39000	4329
2.39067	4329
2.39133	4328
2.39200	4328
2.39267	4327
2.39333	4327
2.39400	4326
2.39467	4326
2.39533	4325
2.39600	4324
2.39667	4324
2.39733	4323
2.39800	4322
2.39867	4322
2.39933	4321
2.40000	4321
2.40067	4320
2.40133	4319
2.40200	4319
2.40267	4318
2.40333	4317
2.40400	4316
2.40467	4316
2.40533	4315
2.40600	4314
2.40667	4313
2.40733	4313
2.40800	4312
2.40867	4311
2.40933	4310
2.41000	4310
2.41067	4309
2.41133	4308
2.41200	4307
2.41267	4306
2.41333	4306
2.41400	4305
2.41467	4304
2.41533	4303
2.41600	4303
2.41667	4302
2.41733	4302
2.41800	4301
2.41867	4301
2.41933	4300
2.42000	4300
2.42067	4300
2.42133	4299
2.42200	4299
2.42267	4298
2.42333	4298
2.42400	4298
2.42467	4297
2.42533	4297
2.42600	4296
2.42667	4296
2.42733	4296
2.42800	4295
2.42867	4295
2.42933	4294
2.43000	4294
2.43067	4293
2.43133	4293
2.43200	4292
2.43267	4291
2.43333	4291
2.43400	4290
2.43467	4289
2.43533	4289
2.43600	4288
2.43667	4287
2.43733	4286
2.43800	4285
2.43867	4285
2.43933	4284
2.44000	4283
2.44067	4282
2.44133	4281
2.44200	4280
2.44267	4278
2.44333	4277
2.44400	4276
2.44467	4275
2.44533	4274
2.44600	4272
2.44667	4271
2.44733	4270
2.44800	4269
2.44867	4267
2.44933	4266
2.45000	4265
2.45067	4263
2.45133	4262
2.45200	4260
2.45267	4259
2.45333	4257
2.45400	4256
2.45467	4254
2.45533	4252
2.45600	4251
2.45667	4249
2.45733	4247
2.45800	4246
2.45867	4244
2.45933	4243
2.46000	4241
2.46067	4240
2.46133	4238
2.46200	4237
2.46267	4235
2.46333	4233
2.46400	4232
2.46467	4230
2.46533	4229
2.46600	4227
2.46667	4226
2.46733	4224
2.46800	4222
2.46867	4221
2.46933	4219
2.47000	4218
2.47067	4216
2.47133	4215
2.47200	4213
2.47267	4211
2.47333	4210
2.47400	4208
2.47467	4207
2.47533	4205
2.47600	4204
2.47667	4202
2.47733	4201
2.47800	4199
2.47867	4198
2.47933	4196
2.48000	4194
2.48067	4193
2.48133	4191
2.48200	4190
2.48267	4188
2.48333	4187
2.48400	4185
2.48467	4184
2.48533	4182
2.48600	4181
2.48667	4179
2.48733	4178
2.48800	4176
2.48867	4175
2.48933	4173
2.49000	4172
2.49067	4170
2.49133	4169
2.49200	4167
2.49267	4166
2.49333	4164
2.49400	4163
2.49467	4161
2.49533	4160
2.49600	4158
2.49667	4157
2.49733	4155
2.49800	4154
2.49867	4152
2.49933	4151
2.50000	4149
2.50067	4148
2.50133	4146
2.50200	4145
2.50267	4143
2.50333	4142
2.50400	4140
2.50467	4139
2.50533	4137
2.50600	4136
2.50667	4134
2.50733	4133
2.50800	4132
2.50867	4130
2.50933	4129
2.51000	4128
2.51067	4126
2.51133	4125
2.51200	4123
2.51267	4122
2.51333	4121
2.51400	4119
2.51467	4118
2.51533	4117
2.51600	4115
2.51667	4114
2.51733	4113
2.51800	4111
2.51867	4110
2.51933	4109
2.52000	4107
2.52067	4106
2.52133	4105
2.52200	4103
2.52267	4102
2.52333	4101
2.52400	4099
2.52467	4098
2.52533	4097
2.52600	4095
2.52667	4094
2.52733	4093
2.52800	4091
2.52867	4090
2.52933	4088
2.53000	4087
2.53067	4085
2.53133	4084
2.53200	4083
2.53267	4081
2.53333	4080
2.53400	4078
2.53467	4077
2.53533	4075
2.53600	4074
2.53667	4073
2.53733	4071
2.53800	4070
2.53867	4069
2.53933	4068
2.54000	4066
2.54067	4065
2.54133	4064
2.54200	4063
2.54267	4061
2.54333	4060
2.54400	4059
2.54467	4058
2.54533	4057
2.54600	4056
2.54667	4055
2.54733	4054
2.54800	4053
2.54867	4051
2.54933	4050
2.55000	4049
2.55067	4048
2.55133	4047
2.55200	4046
2.55267	4044
2.55333	4043
2.55400	4042
2.55467	4041
2.55533	4040
2.55600	4039
2.55667	4037
2.55733	4036
2.55800	4035
2.55867	4034
2.55933	4033
2.56000	4031
2.56067	4030
2.56133	4029
2.56200	4028
2.56267	4027
2.56333	4025
2.56400	4024
2.56467	4023
2.56533	4022
2.56600	4021
2.56667	4020
2.56733	4019
2.56800	4018
2.56867	4017
2.56933	4016
2.57000	4015
2.57067	4013
2.57133	4012
2.57200	4011
2.57267	4010
2.57333	4009
2.57400	4008
2.57467	4007
2.57533	4005
2.57600	4004
2.57667	4003
2.57733	4002
2.57800	4001
2.57867	4000
2.57933	3999
2.58000	3998
2.58067	3997
2.58133	3995
2.58200	3994
2.58267	3993
2.58333	3992
2.58400	3991
2.58467	3989
2.58533	3988
2.58600	3987
2.58667	3986
2.58733	3985
2.58800	3984
2.58867	3983
2.58933	3981
2.59000	3980
2.59067	3979
2.59133	3978
2.59200	3977
2.59267	3976
2.59333	3974
2.59400	3973
2.59467	3972
2.59533	3971
2.59600	3970
2.59667	3968
2.59733	3967
2.59800	3966
2.59867	3965
2.59933	3964
2.60000	3963
2.60067	3962
2.60133	3961
2.60200	3960
2.60267	3959
2.60333	3958
2.60400	3957
2.60467	3956
2.60533	3955
2.60600	3955
2.60667	3954
2.60733	3953
2.60800	3952
2.60867	3951
2.60933	3950
2.61000	3949
2.61067	3948
2.61133	3948
2.61200	3947
2.61267	3946
2.61333	3945
2.61400	3944
2.61467	3943
2.61533	3942
2.61600	3941
2.61667	3940
2.61733	3939
2.61800	3939
2.61867	3938
2.61933	3937
2.62000	3936
2.62067	3935
2.62133	3934
2.62200	3933
2.62267	3932
2.62333	3931
2.62400	3930
2.62467	3929
2.62533	3928
2.62600	3927
2.62667	3926
2.62733	3925
2.62800	3924
2.62867	3923
2.62933	3922
2.63000	3921
2.63067	3920
2.63133	3919
2.63200	3917
2.63267	3916
2.63333	3915
2.63400	3914
2.63467	3913
2.63533	3912
2.63600	3911
2.63667	3910
2.63733	3909
2.63800	3908
2.63867	3907
2.63933	3906
2.64000	3905
2.64067	3904
2.64133	3903
2.64200	3902
2.64267	3901
2.64333	3900
2.64400	3899
2.64467	3898
2.64533	3897
2.64600	3896
2.64667	3895
2.64733	3894
2.64800	3893
2.64867	3892
2.64933	3891
2.65000	3890
2.65067	3889
2.65133	3888
2.65200	3887
2.65267	3886
2.65333	3885
2.65400	3884
2.65467	3883
2.65533	3882
2.65600	3882
2.65667	3881
2.65733	3880
2.65800	3879
2.65867	3878
2.65933	3877
2.66000	3877
2.66067	3876
2.66133	3875
2.66200	3874
2.66267	3873
2.66333	3873
2.66400	3872
2.66467	3871
2.66533	3870
2.66600	3869
2.66667	3869
2.66733	3868
2.66800	3867
2.66867	3866
2.66933	3865
2.67000	3864
2.67067	3863
2.67133	3862
2.67200	3861
2.67267	3860
2.67333	3860
2.67400	3859
2.67467	3858
2.67533	3857
2.67600	3856
2.67667	3855
2.67733	3854
2.67800	3853
2.67867	3852
2.67933	3851
2.68000	3850
2.68067	3849
2.68133	3848
2.68200	3847
2.68267	3846
2.68333	3845
2.68400	3844
2.68467	3843
2.68533	3842
2.68600	3841
2.68667	3840
2.68733	3839
2.68800	3838
2.68867	3837
2.68933	3836
2.69000	3836
2.69067	3835
2.69133	3834
2.69200	3833
2.69267	3832
2.69333	3832
2.69400	3831
2.69467	3830
2.69533	3829
2.69600	3828
2.69667	3828
2.69733	3827
2.69800	3826
2.69867	3825
2.69933	3825
2.70000	3824
2.70067	3823
2.70133	3822
2.70200	3822
2.70267	3821
2.70333	3820
2.70400	3819
2.70467	3819
2.70533	3818
2.70600	3817
2.70667	3817
2.70733	3816
2.70800	3815
2.70867	3815
2.70933	3814
2.71000	3814
2.71067	3813
2.71133	3812
2.71200	3812
2.71267	3811
2.71333	3811
2.71400	3810
2.71467	3809
2.71533	3809
2.71600	3808
2.71667	3807
2.71733	3806
2.71800	3806
2.71867	3805
2.71933	3804
2.72000	3804
2.72067	3803
2.72133	3802
2.72200	3801
2.72267	3801
2.72333	3800
2.72400	3799
2.72467	3799
2.72533	3798
2.72600	3797
2.72667	3797
2.72733	3796
2.72800	3795
2.72867	3795
2.72933	3794
2.73000	3794
2.73067	3793
2.73133	3792
2.73200	3792
2.73267	3791
2.73333	3790
2.73400	3790
2.73467	3789
2.73533	3788
2.73600	3788
2.73667	3787
2.73733	3786
2.73800	3786
2.73867	3785
2.73933	3785
2.74000	3784
2.74067	3784
2.74133	3783
2.74200	3783
2.74267	3782
2.74333	3782
2.74400	3781
2.74467	3781
2.74533	3781
2.74600	3780
2.74667	3780
2.74733	3779
2.74800	3779
2.74867	3779
2.74933	3778
2.75000	3778
2.75067	3778
2.75133	3777
2.75200	3777
2.75267	3777
2.75333	3777
2.75400	3776
2.75467	3776
2.75533	3776
2.75600	3776
2.75667	3775
2.75733	3775
2.75800	3775
2.75867	3775
2.75933	3775
2.76000	3775
2.76067	3775
2.76133	3775
2.76200	3775
2.76267	3775
2.76333	3775
2.76400	3775
2.76467	3775
2.76533	3776
2.76600	3776
2.76667	3776
2.76733	3776
2.76800	3777
2.76867	3777
2.76933	3777
2.77000	3778
2.77067	3778
2.77133	3778
2.77200	3779
2.77267	3780
2.77333	3780
2.77400	3781
2.77467	3781
2.77533	3782
2.77600	3783
2.77667	3784
2.77733	3785
2.77800	3786
2.77867	3787
2.77933	3788
2.78000	3789
2.78067	3790
2.78133	3791
2.78200	3792
2.78267	3794
2.78333	3795
2.78400	3797
2.78467	3798
2.78533	3799
2.78600	3801
2.78667	3803
2.78733	3804
2.78800	3806
2.78867	3808
2.78933	3810
2.79000	3812
2.79067	3814
2.79133	3816
2.79200	3818
2.79267	3821
2.79333	3823
2.79400	3825
2.79467	3828
2.79533	3831
2.79600	3833
2.79667	3836
2.79733	3839
2.79800	3842
2.79867	3845
2.79933	3848
2.80000	3851
2.80067	3854
2.80133	3857
2.80200	3861
2.80267	3864
2.80333	3867
2.80400	3871
2.80467	3874
2.80533	3878
2.80600	3882
2.80667	3885
2.80733	3889
2.80800	3892
2.80867	3896
2.80933	3900
2.81000	3904
2.81067	3907
2.81133	3911
2.81200	3915
2.81267	3918
2.81333	3922
2.81400	3926
2.81467	3930
2.81533	3933
2.81600	3937
2.81667	3940
2.81733	3944
2.81800	3948
2.81867	3951
2.81933	3954
2.82000	3958
2.82067	3961
2.82133	3964
2.82200	3967
2.82267	3970
2.82333	3973
2.82400	3976
2.82467	3979
2.82533	3981
2.82600	3984
2.82667	3986
2.82733	3989
2.82800	3991
2.82867	3993
2.82933	3995
2.83000	3997
2.83067	3998
2.83133	4000
2.83200	4001
2.83267	4003
2.83333	4004
2.83400	4005
2.83467	4006
2.83533	4006
2.83600	4007
2.83667	4008
2.83733	4008
2.83800	4008
2.83867	4008
2.83933	4008
2.84000	4008
2.84067	4007
2.84133	4007
2.84200	4006
2.84267	4006
2.84333	4005
2.84400	4004
2.84467	4003
2.84533	4002
2.84600	4001
2.84667	3999
2.84733	3998
2.84800	3997
2.84867	3995
2.84933	3993
2.85000	3992
2.85067	3990
2.85133	3988
2.85200	3986
2.85267	3984
2.85333	3982
2.85400	3980
2.85467	3978
2.85533	3976
2.85600	3974
2.85667	3972
2.85733	3970
2.85800	3968
2.85867	3966
2.85933	3964
2.86000	3961
2.86067	3959
2.86133	3957
2.86200	3955
2.86267	3953
2.86333	3951
2.86400	3949
2.86467	3946
2.86533	3944
2.86600	3942
2.86667	3940
2.86733	3938
2.86800	3936
2.86867	3934
2.86933	3932
2.87000	3929
2.87067	3927
2.87133	3925
2.87200	3923
2.87267	3922
2.87333	3920
2.87400	3918
2.87467	3916
2.87533	3914
2.87600	3913
2.87667	3911
2.87733	3909
2.87800	3908
2.87867	3906
2.87933	3905
2.88000	3904
2.88067	3903
2.88133	3901
2.88200	3900
2.88267	3899
2.88333	3899
2.88400	3898
2.88467	3897
2.88533	3896
2.88600	3896
2.88667	3895
2.88733	3895
2.88800	3895
2.88867	3895
2.88933	3894
2.89000	3894
2.89067	3895
2.89133	3895
2.89200	3895
2.89267	3896
2.89333	3896
2.89400	3897
2.89467	3897
2.89533	3898
2.89600	3899
2.89667	3900
2.89733	3901
2.89800	3902
2.89867	3903
2.89933	3904
2.90000	3905
2.90067	3906
2.90133	3907
2.90200	3908
2.90267	3910
2.90333	3911
2.90400	3912
2.90467	3914
2.90533	3915
2.90600	3916
2.90667	3917
2.90733	3919
2.90800	3920
2.90867	3921
2.90933	3922
2.91000	3923
2.91067	3924
2.91133	3925
2.91200	3926
2.91267	3926
2.91333	3927
2.91400	3927
2.91467	3928
2.91533	3928
2.91600	3928
2.91667	3928
2.91733	3928
2.91800	3927
2.91867	3927
2.91933	3926
2.92000	3926
2.92067	3925
2.92133	3924
2.92200	3923
2.92267	3921
2.92333	3920
2.92400	3918
2.92467	3917
2.92533	3915
2.92600	3913
2.92667	3911
2.92733	3908
2.92800	3906
2.92867	3903
2.92933	3900
2.93000	3897
2.93067	3894
2.93133	3891
2.93200	3888
2.93267	3885
2.93333	3881
2.93400	3877
2.93467	3874
2.93533	3870
2.93600	3866
2.93667	3862
2.93733	3858
2.93800	3854
2.93867	3849
2.93933	3845
2.94000	3841
2.94067	3836
2.94133	3831
2.94200	3827
2.94267	3822
2.94333	3817
2.94400	3813
2.94467	3808
2.94533	3803
2.94600	3798
2.94667	3793
2.94733	3788
2.94800	3783
2.94867	3779
2.94933	3774
2.95000	3769
2.95067	3764
2.95133	3759
2.95200	3754
2.95267	3750
2.95333	3745
2.95400	3740
2.95467	3735
2.95533	3731
2.95600	3726
2.95667	3721
2.95733	3717
2.95800	3712
2.95867	3708
2.95933	3703
2.96000	3699
2.96067	3694
2.96133	3690
2.96200	3686
2.96267	3681
2.96333	3677
2.96400	3673
2.96467	3668
2.96533	3664
2.96600	3660
2.96667	3656
2.96733	3652
2.96800	3648
2.96867	3644
2.96933	3640
2.97000	3636
2.97067	3632
2.97133	3628
2.97200	3625
2.97267	3621
2.97333	3617
2.97400	3614
2.97467	3610
2.97533	3607
2.97600	3603
2.97667	3600
2.97733	3597
2.97800	3593
2.97867	3590
2.97933	3587
2.98000	3584
2.98067	3581
2.98133	3578
2.98200	3575
2.98267	3572
2.98333	3569
2.98400	3566
2.98467	3564
2.98533	3561
2.98600	3558
2.98667	3555
2.98733	3553
2.98800	3550
2.98867	3548
2.98933	3545
2.99000	3543
2.99067	3541
2.99133	3538
2.99200	3536
2.99267	3534
2.99333	3532
2.99400	3529
2.99467	3527
2.99533	3525
2.99600	3523
2.99667	3521
2.99733	3519
2.99800	3517
2.99867	3514
2.99933	3512
3.00000	3510
3.00067	3508
3.00133	3506
3.00200	3504
3.00267	3502
3.00333	3500
3.00400	3498
3.00467	3496
3.00533	3494
3.00600	3492
3.00667	3490
3.00733	3488
3.00800	3486
3.00867	3485
3.00933	3483
3.01000	3481
3.01067	3479
3.01133	3477
3.01200	3475
3.01267	3474
3.01333	3472
3.01400	3470
3.01467	3468
3.01533	3467
3.01600	3465
3.01667	3463
3.01733	3462
3.01800	3460
3.01867	3458
3.01933	3457
3.02000	3455
3.02067	3453
3.02133	3452
3.02200	3450
3.02267	3448
3.02333	3446
3.02400	3444
3.02467	3443
3.02533	3441
3.02600	3439
3.02667	3437
3.02733	3436
3.02800	3434
3.02867	3432
3.02933	3431
3.03000	3429
3.03067	3427
3.03133	3426
3.03200	3424
3.03267	3423
3.03333	3421
3.03400	3420
3.03467	3418
3.03533	3417
3.03600	3415
3.03667	3414
3.03733	3412
3.03800	3411
3.03867	3409
3.03933	3408
3.04000	3407
3.04067	3405
3.04133	3404
3.04200	3402
3.04267	3401
3.04333	3400
3.04400	3398
3.04467	3397
3.04533	3396
3.04600	3395
3.04667	3394
3.04733	3392
3.04800	3391
3.04867	3390
3.04933	3389
3.05000	3388
3.05067	3387
3.05133	3386
3.05200	3385
3.05267	3384
3.05333	3383
3.05400	3382
3.05467	3382
3.05533	3381
3.05600	3380
3.05667	3379
3.05733	3379
3.05800	3378
3.05867	3377
3.05933	3377
3.06000	3376
3.06067	3376
3.06133	3375
3.06200	3375
3.06267	3374
3.06333	3374
3.06400	3373
3.06467	3373
3.06533	3373
3.06600	3373
3.06667	3372
3.06733	3372
3.06800	3372
3.06867	3372
3.06933	3372
3.07000	3372
3.07067	3372
3.07133	3372
3.07200	3372
3.07267	3372
3.07333	3372
3.07400	3373
3.07467	3373
3.07533	3373
3.07600	3373
3.07667	3374
3.07733	3374
3.07800	3374
3.07867	3375
3.07933	3375
3.08000	3376
3.08067	3376
3.08133	3377
3.08200	3377
3.08267	3378
3.08333	3378
3.08400	3379
3.08467	3379
3.08533	3379
3.08600	3380
3.08667	3380
3.08733	3381
3.08800	3381
3.08867	3381
3.08933	3382
3.09000	3382
3.09067	3382
3.09133	3382
3.09200	3382
3.09267	3382
3.09333	3382
3.09400	3382
3.09467	3382
3.09533	3382
3.09600	3382
3.09667	3382
3.09733	3382
3.09800	3382
3.09867	3381
3.09933	3381
3.10000	3381
3.10067	3380
3.10133	3380
3.10200	3379
3.10267	3379
3.10333	3378
3.10400	3378
3.10467	3377
3.10533	3376
3.10600	3376
3.10667	3375
3.10733	3374
3.10800	3373
3.10867	3372
3.10933	3372
3.11000	3371
3.11067	3370
3.11133	3369
3.11200	3367
3.11267	3366
3.11333	3365
3.11400	3364
3.11467	3363
3.11533	3362
3.11600	3360
3.11667	3359
3.11733	3358
3.11800	3357
3.11867	3355
3.11933	3354
3.12000	3353
3.12067	3351
3.12133	3350
3.12200	3349
3.12267	3347
3.12333	3346
3.12400	3344
3.12467	3343
3.12533	3341
3.12600	3340
3.12667	3338
3.12733	3337
3.12800	3335
3.12867	3334
3.12933	3332
3.13000	3330
3.13067	3329
3.13133	3327
3.13200	3325
3.13267	3324
3.13333	3322
3.13400	3320
3.13467	3319
3.13533	3317
3.13600	3316
3.13667	3314
3.13733	3312
3.13800	3311
3.13867	3309
3.13933	3307
3.14000	3306
3.14067	3304
3.14133	3303
3.14200	3301
3.14267	3300
3.14333	3298
3.14400	3296
3.14467	3295
3.14533	3293
3.14600	3292
3.14667	3290
3.14733	3289
3.14800	3287
3.14867	3286
3.14933	3285
3.15000	3283
3.15067	3282
3.15133	3280
3.15200	3279
3.15267	3277
3.15333	3276
3.15400	3275
3.15467	3273
3.15533	3272
3.15600	3271
3.15667	3270
3.15733	3268
3.15800	3267
3.15867	3266
3.15933	3264
3.16000	3263
3.16067	3262
3.16133	3261
3.16200	3259
3.16267	3258
3.16333	3257
3.16400	3256
3.16467	3255
3.16533	3254
3.16600	3253
3.16667	3252
3.16733	3251
3.16800	3250
3.16867	3249
3.16933	3248
3.17000	3247
3.17067	3245
3.17133	3244
3.17200	3243
3.17267	3242
3.17333	3241
3.17400	3240
3.17467	3239
3.17533	3238
3.17600	3237
3.17667	3236
3.17733	3235
3.17800	3234
3.17867	3233
3.17933	3232
3.18000	3231
3.18067	3230
3.18133	3229
3.18200	3228
3.18267	3228
3.18333	3227
3.18400	3226
3.18467	3225
3.18533	3224
3.18600	3223
3.18667	3222
3.18733	3221
3.18800	3220
3.18867	3219
3.18933	3219
3.19000	3218
3.19067	3217
3.19133	3216
3.19200	3215
3.19267	3214
3.19333	3213
3.19400	3213
3.19467	3212
3.19533	3211
3.19600	3210
3.19667	3209
3.19733	3209
3.19800	3208
3.19867	3207
3.19933	3206
3.20000	3206
3.20067	3205
3.20133	3204
3.20200	3203
3.20267	3202
3.20333	3202
3.20400	3201
3.20467	3200
3.20533	3199
3.20600	3198
3.20667	3197
3.20733	3197
3.20800	3196
3.20867	3195
3.20933	3194
3.21000	3193
3.21067	3193
3.21133	3192
3.21200	3191
3.21267	3190
3.21333	3189
3.21400	3189
3.21467	3188
3.21533	3187
3.21600	3186
3.21667	3186
3.21733	3185
3.21800	3184
3.21867	3183
3.21933	3183
3.22000	3182
3.22067	3181
3.22133	3181
3.22200	3180
3.22267	3179
3.22333	3179
3.22400	3178
3.22467	3177
3.22533	3177
3.22600	3176
3.22667	3176
3.22733	3175
3.22800	3175
3.22867	3174
3.22933	3174
3.23000	3173
3.23067	3173
3.23133	3172
3.23200	3172
3.23267	3171
3.23333	3171
3.23400	3170
3.23467	3170
3.23533	3170
3.23600	3169
3.23667	3169
3.23733	3169
3.23800	3168
3.23867	3168
3.23933	3167
3.24000	3167
3.24067	3167
3.24133	3166
3.24200	3166
3.24267	3166
3.24333	3165
3.24400	3165
3.24467	3165
3.24533	3164
3.24600	3164
3.24667	3164
3.24733	3163
3.24800	3163
3.24867	3162
3.24933	3162
3.25000	3162
3.25067	3162
3.25133	3161
3.25200	3161
3.25267	3161
3.25333	3160
3.25400	3160
3.25467	3160
3.25533	3159
3.25600	3159
3.25667	3159
3.25733	3158
3.25800	3158
3.25867	3157
3.25933	3157
3.26000	3157
3.26067	3156
3.26133	3156
3.26200	3156
3.26267	3155
3.26333	3155
3.26400	3154
3.26467	3154
3.26533	3154
3.26600	3153
3.26667	3153
3.26733	3153
3.26800	3152
3.26867	3152
3.26933	3151
3.27000	3151
3.27067	3150
3.27133	3150
3.27200	3149
3.27267	3149
3.27333	3148
3.27400	3148
3.27467	3147
3.27533	3147
3.27600	3146
3.27667	3146
3.27733	3145
3.27800	3145
3.27867	3145
3.27933	3144
3.28000	3144
3.28067	3143
3.28133	3143
3.28200	3143
3.28267	3142
3.28333	3142
3.28400	3142
3.28467	3141
3.28533	3141
3.28600	3140
3.28667	3140
3.28733	3140
3.28800	3139
3.28867	3139
3.28933	3139
3.29000	3138
3.29067	3138
3.29133	3137
3.29200	3137
3.29267	3136
3.29333	3136
3.29400	3135
3.29467	3135
3.29533	3135
3.29600	3134
3.29667	3134
3.29733	3133
3.29800	3133
3.29867	3132
3.29933	3132
3.30000	3132
3.30067	3131
3.30133	3131
3.30200	3130
3.30267	3130
3.30333	3130
3.30400	3129
3.30467	3129
3.30533	3129
3.30600	3128
3.30667	3128
3.30733	3127
3.30800	3127
3.30867	3126
3.30933	3126
3.31000	3125
3.31067	3125
3.31133	3125
3.31200	3124
3.31267	3124
3.31333	3123
3.31400	3123
3.31467	3122
3.31533	3122
3.31600	3122
3.31667	3121
3.31733	3121
3.31800	3120
3.31867	3120
3.31933	3119
3.32000	3119
3.32067	3119
3.32133	3118
3.32200	3118
3.32267	3118
3.32333	3117
3.32400	3117
3.32467	3117
3.32533	3116
3.32600	3116
3.32667	3116
3.32733	3115
3.32800	3115
3.32867	3114
3.32933	3114
3.33000	3114
3.33067	3113
3.33133	3113
3.33200	3112
3.33267	3112
3.33333	3111
3.33400	3111
3.33467	3110
3.33533	3110
3.33600	3109
3.33667	3108
3.33733	3108
3.33800	3107
3.33867	3107
3.33933	3106
3.34000	3106
3.34067	3105
3.34133	3105
3.34200	3104
3.34267	3104
3.34333	3103
3.34400	3103
3.34467	3103
3.34533	3102
3.34600	3102
3.34667	3102
3.34733	3101
3.34800	3101
3.34867	3101
3.34933	3100
3.35000	3100
3.35067	3100
3.35133	3099
3.35200	3099
3.35267	3099
3.35333	3098
3.35400	3098
3.35467	3098
3.35533	3098
3.35600	3097
3.35667	3097
3.35733	3097
3.35800	3097
3.35867	3097
3.35933	3096
3.36000	3096
3.36067	3096
3.36133	3096
3.36200	3096
3.36267	3096
3.36333	3096
3.36400	3096
3.36467	3096
3.36533	3096
3.36600	3096
3.36667	3096
3.36733	3096
3.36800	3096
3.36867	3096
3.36933	3095
3.37000	3095
3.37067	3095
3.37133	3095
3.37200	3095
3.37267	3095
3.37333	3095
3.37400	3095
3.37467	3095
3.37533	3095
3.37600	3095
3.37667	3095
3.37733	3095
3.37800	3095
3.37867	3095
3.37933	3095
3.38000	3095
3.38067	3095
3.38133	3095
3.38200	3095
3.38267	3095
3.38333	3095
3.38400	3095
3.38467	3095
3.38533	3096
3.38600	3096
3.38667	3096
3.38733	3096
3.38800	3096
3.38867	3096
3.38933	3096
3.39000	3096
3.39067	3096
3.39133	3096
3.39200	3097
3.39267	3097
3.39333	3097
3.39400	3097
3.39467	3097
3.39533	3098
3.39600	3098
3.39667	3098
3.39733	3099
3.39800	3099
3.39867	3100
3.39933	3100
3.40000	3101
3.40067	3101
3.40133	3102
3.40200	3102
3.40267	3102
3.40333	3103
3.40400	3103
3.40467	3104
3.40533	3104
3.40600	3105
3.40667	3105
3.40733	3106
3.40800	3106
3.40867	3107
3.40933	3107
3.41000	3107
3.41067	3108
3.41133	3108
3.41200	3109
3.41267	3109
3.41333	3110
3.41400	3111
3.41467	3111
3.41533	3112
3.41600	3113
3.41667	3113
3.41733	3114
3.41800	3115
3.41867	3115
3.41933	3116
3.42000	3117
3.42067	3117
3.42133	3118
3.42200	3119
3.42267	3120
3.42333	3120
3.42400	3121
3.42467	3122
3.42533	3123
3.42600	3123
3.42667	3124
3.42733	3125
3.42800	3126
3.42867	3127
3.42933	3128
3.43000	3129
3.43067	3130
3.43133	3131
3.43200	3132
3.43267	3133
3.43333	3134
3.43400	3135
3.43467	3136
3.43533	3137
3.43600	3138
3.43667	3139
3.43733	3141
3.43800	3142
3.43867	3143
3.43933	3144
3.44000	3146
3.44067	3147
3.44133	3148
3.44200	3150
3.44267	3151
3.44333	3153
3.44400	3155
3.44467	3156
3.44533	3158
3.44600	3159
3.44667	3161
3.44733	3163
3.44800	3165
3.44867	3167
3.44933	3169
3.45000	3170
3.45067	3172
3.45133	3174
3.45200	3176
3.45267	3178
3.45333	3181
3.45400	3183
3.45467	3185
3.45533	3187
3.45600	3189
3.45667	3192
3.45733	3194
3.45800	3196
3.45867	3199
3.45933	3201
3.46000	3204
3.46067	3206
3.46133	3209
3.46200	3211
3.46267	3214
3.46333	3217
3.46400	3219
3.46467	3222
3.46533	3225
3.46600	3228
3.46667	3231
3.46733	3233
3.46800	3236
3.46867	3239
3.46933	3242
3.47000	3245
3.47067	3248
3.47133	3251
3.47200	3254
3.47267	3257
3.47333	3260
3.47400	3263
3.47467	3266
3.47533	3269
3.47600	3272
3.47667	3275
3.47733	3278
3.47800	3281
3.47867	3284
3.47933	3287
3.48000	3290
3.48067	3293
3.48133	3296
3.48200	3300
3.48267	3303
3.48333	3306
3.48400	3309
3.48467	3312
3.48533	3316
3.48600	3319
3.48667	3322
3.48733	3326
3.48800	3329
3.48867	3333
3.48933	3336
3.49000	3340
3.49067	3343
3.49133	3347
3.49200	3350
3.49267	3354
3.49333	3358
3.49400	3361
3.49467	3365
3.49533	3369
3.49600	3373
3.49667	3377
3.49733	3382
3.49800	3386
3.49867	3390
3.49933	3395
3.50000	3399
3.50067	3404
3.50133	3409
3.50200	3414
3.50267	3419
3.50333	3425
3.50400	3430
3.50467	3436
3.50533	3441
3.50600	3447
3.50667	3454
3.50733	3460
3.50800	3467
3.50867	3474
3.50933	3481
3.51000	3488
3.51067	3496
3.51133	3504
3.51200	3512
3.51267	3521
3.51333	3530
3.51400	3539
3.51467	3548
3.51533	3558
3.51600	3569
3.51667	3579
3.51733	3590
3.51800	3602
3.51867	3613
3.51933	3625
3.52000	3638
3.52067	3651
3.52133	3664
3.52200	3678
3.52267	3693
3.52333	3707
3.52400	3723
3.52467	3738
3.52533	3754
3.52600	3771
3.52667	3788
3.52733	3806
3.52800	3824
3.52867	3843
3.52933	3862
3.53000	3882
3.53067	3902
3.53133	3923
3.53200	3945
3.53267	3966
3.53333	3989
3.53400	4012
3.53467	4035
3.53533	4059
3.53600	4083
3.53667	4108
3.53733	4133
3.53800	4158
3.53867	4184
3.53933	4211
3.54000	4237
3.54067	4264
3.54133	4291
3.54200	4319
3.54267	4347
3.54333	4375
3.54400	4403
3.54467	4432
3.54533	4461
3.54600	4489
3.54667	4519
3.54733	4548
3.54800	4577
3.54867	4607
3.54933	4636
3.55000	4666
3.55067	4695
3.55133	4725
3.55200	4754
3.55267	4783
3.55333	4812
3.55400	4841
3.55467	4870
3.55533	4899
3.55600	4927
3.55667	4955
3.55733	4983
3.55800	5010
3.55867	5037
3.55933	5064
3.56000	5091
3.56067	5117
3.56133	5142
3.56200	5167
3.56267	5192
3.56333	5216
3.56400	5240
3.56467	5263
3.56533	5286
3.56600	5308
3.56667	5330
3.56733	5351
3.56800	5371
3.56867	5391
3.56933	5410
3.57000	5429
3.57067	5447
3.57133	5465
3.57200	5482
3.57267	5498
3.57333	5514
3.57400	5529
3.57467	5543
3.57533	5557
3.57600	5570
3.57667	5583
3.57733	5595
3.57800	5606
3.57867	5616
3.57933	5626
3.58000	5635
3.58067	5644
3.58133	5652
3.58200	5659
3.58267	5665
3.58333	5671
3.58400	5676
3.58467	5680
3.58533	5684
3.58600	5687
3.58667	5689
3.58733	5691
3.58800	5692
3.58867	5692
3.58933	5692
3.59000	5692
3.59067	5691
3.59133	5689
3.59200	5687
3.59267	5685
3.59333	5682
3.59400	5678
3.59467	5674
3.59533	5670
3.59600	5665
3.59667	5660
3.59733	5655
3.59800	5649
3.59867	5643
3.59933	5636
3.60000	5629
3.60067	5622
3.60133	5615
3.60200	5607
3.60267	5599
3.60333	5590
3.60400	5581
3.60467	5572
3.60533	5563
3.60600	5553
3.60667	5543
3.60733	5533
3.60800	5523
3.60867	5512
3.60933	5501
3.61000	5490
3.61067	5479
3.61133	5467
3.61200	5455
3.61267	5443
3.61333	5431
3.61400	5419
3.61467	5406
3.61533	5393
3.61600	5380
3.61667	5367
3.61733	5353
3.61800	5340
3.61867	5326
3.61933	5312
3.62000	5297
3.62067	5283
3.62133	5268
3.62200	5254
3.62267	5239
3.62333	5224
3.62400	5209
3.62467	5194
3.62533	5179
3.62600	5163
3.62667	5148
3.62733	5132
3.62800	5116
3.62867	5101
3.62933	5085
3.63000	5069
3.63067	5053
3.63133	5037
3.63200	5020
3.63267	5004
3.63333	4988
3.63400	4971
3.63467	4955
3.63533	4938
3.63600	4922
3.63667	4905
3.63733	4889
3.63800	4872
3.63867	4855
3.63933	4838
3.64000	4821
3.64067	4805
3.64133	4788
3.64200	4771
3.64267	4754
3.64333	4737
3.64400	4720
3.64467	4703
3.64533	4685
3.64600	4668
3.64667	4651
3.64733	4634
3.64800	4617
3.64867	4600
3.64933	4583
3.65000	4566
3.65067	4549
3.65133	4533
3.65200	4516
3.65267	4499
3.65333	4482
3.65400	4466
3.65467	4449
3.65533	4432
3.65600	4416
3.65667	4400
3.65733	4383
3.65800	4367
3.65867	4351
3.65933	4335
3.66000	4319
3.66067	4303
3.66133	4287
3.66200	4271
3.66267	4256
3.66333	4240
3.66400	4225
3.66467	4210
3.66533	4194
3.66600	4179
3.66667	4165
3.66733	4150
3.66800	4135
3.66867	4121
3.66933	4106
3.67000	4092
3.67067	4078
3.67133	4064
3.67200	4050
3.67267	4037
3.67333	4023
3.67400	4010
3.67467	3997
3.67533	3984
3.67600	3971
3.67667	3958
3.67733	3946
3.67800	3933
3.67867	3921
3.67933	3909
3.68000	3897
3.68067	3886
3.68133	3874
3.68200	3862
3.68267	3851
3.68333	3840
3.68400	3829
3.68467	3818
3.68533	3807
3.68600	3797
3.68667	3786
3.68733	3776
3.68800	3766
3.68867	3756
3.68933	3746
3.69000	3736
3.69067	3726
3.69133	3717
3.69200	3707
3.69267	3698
3.69333	3689
3.69400	3680
3.69467	3671
3.69533	3663
3.69600	3654
3.69667	3646
3.69733	3637
3.69800	3629
3.69867	3621
3.69933	3613
3.70000	3605
3.70067	3597
3.70133	3589
3.70200	3582
3.70267	3574
3.70333	3567
3.70400	3559
3.70467	3552
3.70533	3545
3.70600	3538
3.70667	3531
3.70733	3524
3.70800	3517
3.70867	3511
3.70933	3504
3.71000	3498
3.71067	3492
3.71133	3485
3.71200	3479
3.71267	3473
3.71333	3467
3.71400	3461
3.71467	3455
3.71533	3450
3.71600	3444
3.71667	3438
3.71733	3433
3.71800	3427
3.71867	3422
3.71933	3416
3.72000	3411
3.72067	3406
3.72133	3400
3.72200	3395
3.72267	3390
3.72333	3385
3.72400	3380
3.72467	3375
3.72533	3370
3.72600	3366
3.72667	3361
3.72733	3356
3.72800	3351
3.72867	3347
3.72933	3342
3.73000	3338
3.73067	3334
3.73133	3330
3.73200	3326
3.73267	3322
3.73333	3318
3.73400	3314
3.73467	3310
3.73533	3306
3.73600	3302
3.73667	3298
3.73733	3294
3.73800	3291
3.73867	3287
3.73933	3283
3.74000	3280
3.74067	3276
3.74133	3273
3.74200	3269
3.74267	3266
3.74333	3262
3.74400	3259
3.74467	3256
3.74533	3252
3.74600	3249
3.74667	3246
3.74733	3243
3.74800	3239
3.74867	3236
3.74933	3233
3.75000	3230
3.75067	3227
3.75133	3224
3.75200	3221
3.75267	3218
3.75333	3215
3.75400	3212
3.75467	3209
3.75533	3207
3.75600	3204
3.75667	3201
3.75733	3198
3.75800	3196
3.75867	3193
3.75933	3190
3.76000	3188
3.76067	3185
3.76133	3183
3.76200	3180
3.76267	3177
3.76333	3175
3.76400	3173
3.76467	3170
3.76533	3168
3.76600	3165
3.76667	3163
3.76733	3161
3.76800	3158
3.76867	3156
3.76933	3154
3.77000	3152
3.77067	3149
3.77133	3147
3.77200	3145
3.77267	3143
3.77333	3141
3.77400	3139
3.77467	3137
3.77533	3135
3.77600	3133
3.77667	3131
3.77733	3129
3.77800	3127
3.77867	3124
3.77933	3122
3.78000	3120
3.78067	3118
3.78133	3117
3.78200	3115
3.78267	3113
3.78333	3111
3.78400	3109
3.78467	3107
3.78533	3105
3.78600	3103
3.78667	3101
3.78733	3100
3.78800	3098
3.78867	3096
3.78933	3094
3.79000	3092
3.79067	3091
3.79133	3089
3.79200	3087
3.79267	3085
3.79333	3083
3.79400	3082
3.79467	3080
3.79533	3078
3.79600	3076
3.79667	3074
3.79733	3073
3.79800	3071
3.79867	3069
3.79933	3068
3.80000	3066
3.80067	3064
3.80133	3063
3.80200	3061
3.80267	3060
3.80333	3058
3.80400	3057
3.80467	3055
3.80533	3054
3.80600	3052
3.80667	3051
3.80733	3050
3.80800	3048
3.80867	3047
3.80933	3045
3.81000	3044
3.81067	3043
3.81133	3041
3.81200	3040
3.81267	3039
3.81333	3037
3.81400	3036
3.81467	3035
3.81533	3034
3.81600	3032
3.81667	3031
3.81733	3030
3.81800	3028
3.81867	3027
3.81933	3026
3.82000	3025
3.82067	3023
3.82133	3022
3.82200	3021
3.82267	3019
3.82333	3018
3.82400	3016
3.82467	3015
3.82533	3014
3.82600	3012
3.82667	3011
3.82733	3010
3.82800	3009
3.82867	3007
3.82933	3006
3.83000	3005
3.83067	3004
3.83133	3002
3.83200	3001
3.83267	3000
3.83333	2998
3.83400	2997
3.83467	2996
3.83533	2995
3.83600	2993
3.83667	2992
3.83733	2991
3.83800	2990
3.83867	2988
3.83933	2987
3.84000	2986
3.84067	2985
3.84133	2984
3.84200	2983
3.84267	2982
3.84333	2980
3.84400	2979
3.84467	2978
3.84533	2977
3.84600	2976
3.84667	2975
3.84733	2974
3.84800	2973
3.84867	2972
3.84933	2971
3.85000	2970
3.85067	2970
3.85133	2969
3.85200	2968
3.85267	2967
3.85333	2966
3.85400	2965
3.85467	2964
3.85533	2964
3.85600	2963
3.85667	2962
3.85733	2961
3.85800	2960
3.85867	2960
3.85933	2959
3.86000	2958
3.86067	2957
3.86133	2957
3.86200	2956
3.86267	2955
3.86333	2954
3.86400	2954
3.86467	2953
3.86533	2952
3.86600	2951
3.86667	2951
3.86733	2950
3.86800	2949
3.86867	2949
3.86933	2948
3.87000	2947
3.87067	2946
3.87133	2946
3.87200	2945
3.87267	2944
3.87333	2943
3.87400	2943
3.87467	2942
3.87533	2941
3.87600	2941
3.87667	2940
3.87733	2939
3.87800	2938
3.87867	2938
3.87933	2937
3.88000	2936
3.88067	2935
3.88133	2935
3.88200	2934
3.88267	2933
3.88333	2932
3.88400	2932
3.88467	2931
3.88533	2930
3.88600	2929
3.88667	2928
3.88733	2928
3.88800	2927
3.88867	2926
3.88933	2925
3.89000	2924
3.89067	2923
3.89133	2923
3.89200	2922
3.89267	2921
3.89333	2920
3.89400	2919
3.89467	2919
3.89533	2918
3.89600	2917
3.89667	2916
3.89733	2915
3.89800	2915
3.89867	2914
3.89933	2913
3.90000	2912
3.90067	2911
3.90133	2911
3.90200	2910
3.90267	2909
3.90333	2909
3.90400	2908
3.90467	2907
3.90533	2906
3.90600	2906
3.90667	2905
3.90733	2904
3.90800	2904
3.90867	2903
3.90933	2903
3.91000	2902
3.91067	2902
3.91133	2901
3.91200	2900
3.91267	2900
3.91333	2899
3.91400	2899
3.91467	2898
3.91533	2897
3.91600	2897
3.91667	2896
3.91733	2896
3.91800	2895
3.91867	2895
3.91933	2895
3.92000	2894
3.92067	2894
3.92133	2894
3.92200	2893
3.92267	2893
3.92333	2893
3.92400	2892
3.92467	2892
3.92533	2892
3.92600	2891
3.92667	2891
3.92733	2890
3.92800	2890
3.92867	2889
3.92933	2889
3.93000	2888
3.93067	2888
3.93133	2888
3.93200	2887
3.93267	2887
3.93333	2886
3.93400	2886
3.93467	2885
3.93533	2885
3.93600	2884
3.93667	2884
3.93733	2883
3.93800	2883
3.93867	2882
3.93933	2882
3.94000	2881
3.94067	2881
3.94133	2880
3.94200	2880
3.94267	2879
3.94333	2879
3.94400	2878
3.94467	2877
3.94533	2877
3.94600	2876
3.94667	2876
3.94733	2875
3.94800	2875
3.94867	2874
3.94933	2874
3.95000	2873
3.95067	2872
3.95133	2872
3.95200	2871
3.95267	2871
3.95333	2870
3.95400	2869
3.95467	2869
3.95533	2868
3.95600	2867
3.95667	2867
3.95733	2866
3.95800	2865
3.95867	2865
3.95933	2864
3.96000	2864
3.96067	2863
3.96133	2862
3.96200	2862
3.96267	2861
3.96333	2860
3.96400	2860
3.96467	2859
3.96533	2859
3.96600	2858
3.96667	2858
3.96733	2857
3.96800	2857
3.96867	2856
3.96933	2856
3.97000	2855
3.97067	2855
3.97133	2855
3.97200	2854
3.97267	2854
3.97333	2854
3.97400	2853
3.97467	2853
3.97533	2853
3.97600	2852
3.97667	2852
3.97733	2852
3.97800	2852
3.97867	2852
3.97933	2852
3.98000	2851
3.98067	2851
3.98133	2851
3.98200	2851
3.98267	2851
3.98333	2851
3.98400	2851
3.98467	2851
3.98533	2851
3.98600	2851
3.98667	2851
3.98733	2851
3.98800	2851
3.98867	2851
3.98933	2851
3.99000	2851
3.99067	2851
3.99133	2851
3.99200	2852
3.99267	2852
3.99333	2852
3.99400	2852
3.99467	2853
3.99533	2853
3.99600	2853
3.99667	2854
3.99733	2854
3.99800	2854
3.99867	2855
3.99933	2856
4.00000	2856
4.00067	2857
4.00133	2857
4.00200	2858
4.00267	2859
4.00333	2859
4.00400	2860
4.00467	2861
4.00533	2862
4.00600	2863
4.00667	2864
4.00733	2865
4.00800	2867
4.00867	2868
4.00933	2869
4.01000	2871
4.01067	2872
4.01133	2873
4.01200	2875
4.01267	2877
4.01333	2878
4.01400	2880
4.01467	2882
4.01533	2883
4.01600	2885
4.01667	2887
4.01733	2889
4.01800	2891
4.01867	2893
4.01933	2895
4.02000	2897
4.02067	2899
4.02133	2901
4.02200	2904
4.02267	2906
4.02333	2908
4.02400	2911
4.02467	2914
4.02533	2916
4.02600	2919
4.02667	2922
4.02733	2925
4.02800	2928
4.02867	2931
4.02933	2934
4.03000	2937
4.03067	2940
4.03133	2944
4.03200	2947
4.03267	2951
4.03333	2954
4.03400	2958
4.03467	2962
4.03533	2966
4.03600	2970
4.03667	2974
4.03733	2978
4.03800	2982
4.03867	2986
4.03933	2990
4.04000	2994
4.04067	2999
4.04133	3003
4.04200	3008
4.04267	3012
4.04333	3017
4.04400	3021
4.04467	3026
4.04533	3030
4.04600	3035
4.04667	3040
4.04733	3044
4.04800	3049
4.04867	3054
4.04933	3059
4.05000	3064
4.05067	3069
4.05133	3073
4.05200	3078
4.05267	3083
4.05333	3088
4.05400	3093
4.05467	3098
4.05533	3103
4.05600	3108
4.05667	3113
4.05733	3118
4.05800	3123
4.05867	3128
4.05933	3133
4.06000	3138
4.06067	3143
4.06133	3148
4.06200	3152
4.06267	3157
4.06333	3162
4.06400	3167
4.06467	3172
4.06533	3176
4.06600	3181
4.06667	3186
4.06733	3190
4.06800	3195
4.06867	3199
4.06933	3204
4.07000	3208
4.07067	3213
4.07133	3217
4.07200	3222
4.07267	3226
4.07333	3230
4.07400	3234
4.07467	3238
4.07533	3242
4.07600	3246
4.07667	3250
4.07733	3254
4.07800	3258
4.07867	3262
4.07933	3265
4.08000	3269
4.08067	3272
4.08133	3276
4.08200	3279
4.08267	3282
4.08333	3286
4.08400	3289
4.08467	3292
4.08533	3294
4.08600	3297
4.08667	3300
4.08733	3303
4.08800	3305
4.08867	3308
4.08933	3310
4.09000	3313
4.09067	3315
4.09133	3317
4.09200	3319
4.09267	3322
4.09333	3324
4.09400	3326
4.09467	3328
4.09533	3330
4.09600	3331
4.09667	3333
4.09733	3335
4.09800	3337
4.09867	3338
4.09933	3340
4.10000	3341
4.10067	3343
4.10133	3344
4.10200	3345
4.10267	3346
4.10333	3348
4.10400	3349
4.10467	3350
4.10533	3351
4.10600	3352
4.10667	3352
4.10733	3353
4.10800	3354
4.10867	3355
4.10933	3355
4.11000	3356
4.11067	3357
4.11133	3357
4.11200	3358
4.11267	3358
4.11333	3358
4.11400	3359
4.11467	3359
4.11533	3359
4.11600	3359
4.11667	3360
4.11733	3360
4.11800	3360
4.11867	3360
4.11933	3360
4.12000	3360
4.12067	3360
4.12133	3360
4.12200	3360
4.12267	3360
4.12333	3360
4.12400	3360
4.12467	3359
4.12533	3359
4.12600	3359
4.12667	3359
4.12733	3358
4.12800	3358
4.12867	3358
4.12933	3357
4.13000	3357
4.13067	3357
4.13133	3356
4.13200	3356
4.13267	3355
4.13333	3355
4.13400	3355
4.13467	3354
4.13533	3354
4.13600	3354
4.13667	3353
4.13733	3353
4.13800	3352
4.13867	3352
4.13933	3352
4.14000	3351
4.14067	3351
4.14133	3350
4.14200	3350
4.14267	3350
4.14333	3349
4.14400	3349
4.14467	3348
4.14533	3348
4.14600	3347
4.14667	3347
4.14733	3347
4.14800	3346
4.14867	3346
4.14933	3346
4.15000	3345
4.15067	3345
4.15133	3345
4.15200	3344
4.15267	3344
4.15333	3344
4.15400	3344
4.15467	3344
4.15533	3343
4.15600	3343
4.15667	3343
4.15733	3343
4.15800	3343
4.15867	3342
4.15933	3342
4.16000	3342
4.16067	3342
4.16133	3342
4.16200	3342
4.16267	3342
4.16333	3342
4.16400	3342
4.16467	3342
4.16533	3342
4.16600	3342
4.16667	3342
4.16733	3342
4.16800	3342
4.16867	3342
4.16933	3342
4.17000	3342
4.17067	3342
4.17133	3342
4.17200	3342
4.17267	3342
4.17333	3342
4.17400	3342
4.17467	3342
4.17533	3342
4.17600	3342
4.17667	3342
4.17733	3343
4.17800	3343
4.17867	3343
4.17933	3343
4.18000	3343
4.18067	3343
4.18133	3343
4.18200	3343
4.18267	3343
4.18333	3343
4.18400	3344
4.18467	3344
4.18533	3344
4.18600	3344
4.18667	3345
4.18733	3345
4.18800	3345
4.18867	3346
4.18933	3346
4.19000	3347
4.19067	3347
4.19133	3348
4.19200	3348
4.19267	3349
4.19333	3350
4.19400	3351
4.19467	3352
4.19533	3352
4.19600	3353
4.19667	3355
4.19733	3356
4.19800	3357
4.19867	3358
4.19933	3359
4.20000	3361
4.20067	3362
4.20133	3364
4.20200	3366
4.20267	3367
4.20333	3369
4.20400	3371
4.20467	3373
4.20533	3375
4.20600	3378
4.20667	3380
4.20733	3383
4.20800	3385
4.20867	3388
4.20933	3391
4.21000	3394
4.21067	3397
4.21133	3400
4.21200	3404
4.21267	3407
4.21333	3411
4.21400	3415
4.21467	3419
4.21533	3423
4.21600	3428
4.21667	3432
4.21733	3437
4.21800	3442
4.21867	3447
4.21933	3452
4.22000	3457
4.22067	3463
4.22133	3469
4.22200	3475
4.22267	3481
4.22333	3487
4.22400	3494
4.22467	3500
4.22533	3507
4.22600	3514
4.22667	3522
4.22733	3529
4.22800	3537
4.22867	3545
4.22933	3554
4.23000	3562
4.23067	3571
4.23133	3580
4.23200	3590
4.23267	3599
4.23333	3609
4.23400	3619
4.23467	3630
4.23533	3641
4.23600	3651
4.23667	3663
4.23733	3674
4.23800	3686
4.23867	3698
4.23933	3711
4.24000	3723
4.24067	3736
4.24133	3750
4.24200	3763
4.24267	3777
4.24333	3791
4.24400	3805
4.24467	3820
4.24533	3835
4.24600	3850
4.24667	3865
4.24733	3881
4.24800	3897
4.24867	3914
4.24933	3930
4.25000	3947
4.25067	3964
4.25133	3982
4.25200	3999
4.25267	4018
4.25333	4036
4.25400	4054
4.25467	4073
4.25533	4092
4.25600	4112
4.25667	4131
4.25733	4151
4.25800	4171
4.25867	4191
4.25933	4212
4.26000	4232
4.26067	4253
4.26133	4274
4.26200	4295
4.26267	4317
4.26333	4338
4.26400	4360
4.26467	4382
4.26533	4404
4.26600	4427
4.26667	4450
4.26733	4473
4.26800	4496
4.26867	4519
4.26933	4543
4.27000	4567
4.27067	4591
4.27133	4615
4.27200	4639
4.27267	4664
4.27333	4688
4.27400	4713
4.27467	4738
4.27533	4763
4.27600	4788
4.27667	4814
4.27733	4839
4.27800	4865
4.27867	4891
4.27933	4916
4.28000	4942
4.28067	4968
4.28133	4994
4.28200	5020
4.28267	5047
4.28333	5073
4.28400	5099
4.28467	5126
4.28533	5152
4.28600	5179
4.28667	5205
4.28733	5232
4.28800	5259
4.28867	5285
4.28933	5312
4.29000	5339
4.29067	5366
4.29133	5392
4.29200	5419
4.29267	5446
4.29333	5473
4.29400	5499
4.29467	5526
4.29533	5553
4.29600	5579
4.29667	5606
4.29733	5632
4.29800	5658
4.29867	5684
4.29933	5711
4.30000	5737
4.30067	5762
4.30133	5788
4.30200	5814
4.30267	5839
4.30333	5865
4.30400	5890
4.30467	5915
4.30533	5939
4.30600	5964
4.30667	5989
4.30733	6013
4.30800	6037
4.30867	6061
4.30933	6085
4.31000	6108
4.31067	6131
4.31133	6154
4.31200	6177
4.31267	6199
4.31333	6222
4.31400	6243
4.31467	6265
4.31533	6286
4.31600	6307
4.31667	6328
4.31733	6349
4.31800	6369
4.31867	6389
4.31933	6408
4.32000	6427
4.32067	6446
4.32133	6464
4.32200	6482
4.32267	6500
4.32333	6517
4.32400	6534
4.32467	6551
4.32533	6567
4.32600	6583
4.32667	6598
4.32733	6613
4.32800	6627
4.32867	6641
4.32933	6654
4.33000	6667
4.33067	6680
4.33133	6692
4.33200	6704
4.33267	6715
4.33333	6726
4.33400	6736
4.33467	6746
4.33533	6755
4.33600	6764
4.33667	6773
4.33733	6781
4.33800	6789
4.33867	6796
4.33933	6803
4.34000	6810
4.34067	6816
4.34133	6822
4.34200	6827
4.34267	6832
4.34333	6837
4.34400	6841
4.34467	6845
4.34533	6849
4.34600	6853
4.34667	6856
4.34733	6860
4.34800	6862
4.34867	6865
4.34933	6868
4.35000	6870
4.35067	6873
4.35133	6875
4.35200	6877
4.35267	6879
4.35333	6881
4.35400	6883
4.35467	6885
4.35533	6887
4.35600	6889
4.35667	6891
4.35733	6893
4.35800	6895
4.35867	6898
4.35933	6900
4.36000	6903
4.36067	6906
4.36133	6909
4.36200	6913
4.36267	6916
4.36333	6920
4.36400	6925
4.36467	6929
4.36533	6934
4.36600	6940
4.36667	6946
4.36733	6952
4.36800	6959
4.36867	6967
4.36933	6975
4.37000	6983
4.37067	6993
4.37133	7003
4.37200	7014
4.37267	7025
4.37333	7037
4.37400	7050
4.37467	7064
4.37533	7078
4.37600	7094
4.37667	7110
4.37733	7128
4.37800	7146
4.37867	7165
4.37933	7185
4.38000	7207
4.38067	7229
4.38133	7252
4.38200	7277
4.38267	7303
4.38333	7330
4.38400	7358
4.38467	7387
4.38533	7418
4.38600	7450
4.38667	7483
4.38733	7517
4.38800	7553
4.38867	7590
4.38933	7628
4.39000	7668
4.39067	7709
4.39133	7752
4.39200	7796
4.39267	7841
4.39333	7888
4.39400	7936
4.39467	7986
4.39533	8037
4.39600	8090
4.39667	8144
4.39733	8199
4.39800	8256
4.39867	8314
4.39933	8373
4.40000	8434
4.40067	8497
4.40133	8560
4.40200	8625
4.40267	8691
4.40333	8759
4.40400	8828
4.40467	8898
4.40533	8969
4.40600	9041
4.40667	9115
4.40733	9189
4.40800	9265
4.40867	9342
4.40933	9420
4.41000	9499
4.41067	9580
4.41133	9661
4.41200	9743
4.41267	9826
4.41333	9909
4.41400	9994
4.41467	10079
4.41533	10165
4.41600	10251
4.41667	10338
4.41733	10426
4.41800	10514
4.41867	10603
4.41933	10692
4.42000	10781
4.42067	10871
4.42133	10961
4.42200	11051
4.42267	11141
4.42333	11232
4.42400	11323
4.42467	11414
4.42533	11505
4.42600	11596
4.42667	11687
4.42733	11778
4.42800	11868
4.42867	11958
4.42933	12048
4.43000	12137
4.43067	12226
4.43133	12314
4.43200	12402
4.43267	12488
4.43333	12574
4.43400	12659
4.43467	12742
4.43533	12825
4.43600	12907
4.43667	12987
4.43733	13067
4.43800	13145
4.43867	13222
4.43933	13298
4.44000	13372
4.44067	13445
4.44133	13516
4.44200	13586
4.44267	13654
4.44333	13720
4.44400	13785
4.44467	13848
4.44533	13909
4.44600	13968
4.44667	14026
4.44733	14081
4.44800	14135
4.44867	14186
4.44933	14236
4.45000	14283
4.45067	14328
4.45133	14371
4.45200	14412
4.45267	14450
4.45333	14487
4.45400	14521
4.45467	14552
4.45533	14581
4.45600	14608
4.45667	14632
4.45733	14654
4.45800	14673
4.45867	14690
4.45933	14705
4.46000	14717
4.46067	14726
4.46133	14733
4.46200	14737
4.46267	14738
4.46333	14737
4.46400	14733
4.46467	14727
4.46533	14718
4.46600	14706
4.46667	14691
4.46733	14674
4.46800	14655
4.46867	14632
4.46933	14608
4.47000	14580
4.47067	14550
4.47133	14518
4.47200	14483
4.47267	14446
4.47333	14406
4.47400	14364
4.47467	14320
4.47533	14273
4.47600	14225
4.47667	14174
4.47733	14121
4.47800	14066
4.47867	14009
4.47933	13950
4.48000	13889
4.48067	13826
4.48133	13761
4.48200	13695
4.48267	13627
4.48333	13557
4.48400	13486
4.48467	13413
4.48533	13339
4.48600	13264
4.48667	13187
4.48733	13108
4.48800	13029
4.48867	12948
4.48933	12867
4.49000	12784
4.49067	12700
4.49133	12616
4.49200	12530
4.49267	12444
4.49333	12357
4.49400	12269
4.49467	12181
4.49533	12092
4.49600	12003
4.49667	11913
4.49733	11823
4.49800	11732
4.49867	11642
4.49933	11551
4.50000	11460
4.50067	11369
4.50133	11277
4.50200	11186
4.50267	11095
4.50333	11004
4.50400	10912
4.50467	10822
4.50533	10731
4.50600	10641
4.50667	10551
4.50733	10461
4.50800	10372
4.50867	10284
4.50933	10195
4.51000	10108
4.51067	10021
4.51133	9935
4.51200	9849
4.51267	9764
4.51333	9680
4.51400	9597
4.51467	9515
4.51533	9433
4.51600	9353
4.51667	9273
4.51733	9195
4.51800	9117
4.51867	9041
4.51933	8966
4.52000	8892
4.52067	8819
4.52133	8747
4.52200	8676
4.52267	8607
4.52333	8539
4.52400	8472
4.52467	8406
4.52533	8342
4.52600	8279
4.52667	8217
4.52733	8157
4.52800	8098
4.52867	8040
4.52933	7984
4.53000	7929
4.53067	7876
4.53133	7824
4.53200	7773
4.53267	7725
4.53333	7677
4.53400	7631
4.53467	7587
4.53533	7544
4.53600	7503
4.53667	7463
4.53733	7424
4.53800	7388
4.53867	7352
4.53933	7318
4.54000	7286
4.54067	7256
4.54133	7226
4.54200	7199
4.54267	7173
4.54333	7148
4.54400	7125
4.54467	7104
4.54533	7084
4.54600	7066
4.54667	7049
4.54733	7034
4.54800	7020
4.54867	7008
4.54933	6998
4.55000	6989
4.55067	6981
4.55133	6975
4.55200	6971
4.55267	6968
4.55333	6967
4.55400	6967
4.55467	6968
4.55533	6971
4.55600	6975
4.55667	6980
4.55733	6987
4.55800	6995
4.55867	7004
4.55933	7015
4.56000	7026
4.56067	7040
4.56133	7054
4.56200	7069
4.56267	7086
4.56333	7104
4.56400	7123
4.56467	7143
4.56533	7164
4.56600	7186
4.56667	7209
4.56733	7233
4.56800	7258
4.56867	7284
4.56933	7310
4.57000	7338
4.57067	7366
4.57133	7395
4.57200	7425
4.57267	7456
4.57333	7487
4.57400	7519
4.57467	7551
4.57533	7584
4.57600	7617
4.57667	7652
4.57733	7686
4.57800	7721
4.57867	7756
4.57933	7792
4.58000	7828
4.58067	7865
4.58133	7902
4.58200	7939
4.58267	7977
4.58333	8014
4.58400	8052
4.58467	8090
4.58533	8129
4.58600	8167
4.58667	8206
4.58733	8244
4.58800	8283
4.58867	8322
4.58933	8360
4.59000	8399
4.59067	8437
4.59133	8476
4.59200	8514
4.59267	8552
4.59333	8589
4.59400	8627
4.59467	8664
4.59533	8700
4.59600	8736
4.59667	8772
4.59733	8807
4.59800	8841
4.59867	8875
4.59933	8909
4.60000	8942
4.60067	8974
4.60133	9006
4.60200	9037
4.60267	9068
4.60333	9098
4.60400	9127
4.60467	9155
4.60533	9183
4.60600	9211
4.60667	9237
4.60733	9263
4.60800	9288
4.60867	9312
4.60933	9336
4.61000	9359
4.61067	9381
4.61133	9402
4.61200	9422
4.61267	9442
4.61333	9461
4.61400	9479
4.61467	9497
4.61533	9513
4.61600	9529
4.61667	9544
4.61733	9558
4.61800	9571
4.61867	9583
4.61933	9595
4.62000	9605
4.62067	9615
4.62133	9624
4.62200	9631
4.62267	9638
4.62333	9645
4.62400	9650
4.62467	9654
4.62533	9658
4.62600	9660
4.62667	9662
4.62733	9663
4.62800	9663
4.62867	9662
4.62933	9661
4.63000	9659
4.63067	9656
4.63133	9652
4.63200	9647
4.63267	9642
4.63333	9636
4.63400	9629
4.63467	9622
4.63533	9614
4.63600	9605
4.63667	9595
4.63733	9585
4.63800	9574
4.63867	9563
4.63933	9551
4.64000	9538
4.64067	9525
4.64133	9511
4.64200	9497
4.64267	9482
4.64333	9467
4.64400	9451
4.64467	9435
4.64533	9418
4.64600	9401
4.64667	9383
4.64733	9365
4.64800	9346
4.64867	9327
4.64933	9308
4.65000	9288
4.65067	9268
4.65133	9248
4.65200	9227
4.65267	9206
4.65333	9185
4.65400	9163
4.65467	9142
4.65533	9120
4.65600	9098
4.65667	9076
4.65733	9053
4.65800	9030
4.65867	9008
4.65933	8985
4.66000	8962
4.66067	8939
4.66133	8915
4.66200	8892
4.66267	8869
4.66333	8845
4.66400	8822
4.66467	8798
4.66533	8775
4.66600	8751
4.66667	8728
4.66733	8705
4.66800	8681
4.66867	8658
4.66933	8634
4.67000	8611
4.67067	8587
4.67133	8564
4.67200	8541
4.67267	8517
4.67333	8494
4.67400	8471
4.67467	8448
4.67533	8425
4.67600	8402
4.67667	8379
4.67733	8356
4.67800	8333
4.67867	8311
4.67933	8288
4.68000	8265
4.68067	8243
4.68133	8221
4.68200	8199
4.68267	8176
4.68333	8154
4.68400	8133
4.68467	8111
4.68533	8089
4.68600	8068
4.68667	8047
4.68733	8026
4.68800	8005
4.68867	7984
4.68933	7963
4.69000	7943
4.69067	7923
4.69133	7902
4.69200	7883
4.69267	7863
4.69333	7843
4.69400	7824
4.69467	7805
4.69533	7786
4.69600	7767
4.69667	7749
4.69733	7731
4.69800	7713
4.69867	7695
4.69933	7677
4.70000	7659
4.70067	7642
4.70133	7624
4.70200	7607
4.70267	7590
4.70333	7573
4.70400	7556
4.70467	7539
4.70533	7522
4.70600	7505
4.70667	7489
4.70733	7472
4.70800	7456
4.70867	7440
4.70933	7424
4.71000	7409
4.71067	7393
4.71133	7377
4.71200	7362
4.71267	7347
4.71333	7332
4.71400	7317
4.71467	7302
4.71533	7288
4.71600	7273
4.71667	7259
4.71733	7245
4.71800	7231
4.71867	7217
4.71933	7203
4.72000	7189
4.72067	7176
4.72133	7163
4.72200	7150
4.72267	7137
4.72333	7124
4.72400	7111
4.72467	7098
4.72533	7086
4.72600	7073
4.72667	7061
4.72733	7049
4.72800	7037
4.72867	7025
4.72933	7013
4.73000	7001
4.73067	6989
4.73133	6978
4.73200	6966
4.73267	6955
4.73333	6943
4.73400	6932
4.73467	6921
4.73533	6909
4.73600	6898
4.73667	6887
4.73733	6876
4.73800	6865
4.73867	6854
4.73933	6844
4.74000	6833
4.74067	6822
4.74133	6812
4.74200	6801
4.74267	6791
4.74333	6781
4.74400	6771
4.74467	6761
4.74533	6751
4.74600	6741
4.74667	6732
4.74733	6722
4.74800	6713
4.74867	6703
4.74933	6694
4.75000	6684
4.75067	6675
4.75133	6666
4.75200	6657
4.75267	6648
4.75333	6639
4.75400	6630
4.75467	6621
4.75533	6612
4.75600	6604
4.75667	6595
4.75733	6586
4.75800	6578
4.75867	6569
4.75933	6561
4.76000	6552
4.76067	6544
4.76133	6535
4.76200	6527
4.76267	6519
4.76333	6511
4.76400	6503
4.76467	6494
4.76533	6486
4.76600	6478
4.76667	6470
4.76733	6463
4.76800	6455
4.76867	6447
4.76933	6439
4.77000	6431
4.77067	6424
4.77133	6416
4.77200	6409
4.77267	6401
4.77333	6394
4.77400	6386
4.77467	6379
4.77533	6372
4.77600	6365
4.77667	6358
4.77733	6351
4.77800	6344
4.77867	6337
4.77933	6330
4.78000	6323
4.78067	6316
4.78133	6309
4.78200	6303
4.78267	6296
4.78333	6290
4.78400	6283
4.78467	6277
4.78533	6270
4.78600	6264
4.78667	6258
4.78733	6251
4.78800	6245
4.78867	6239
4.78933	6233
4.79000	6227
4.79067	6221
4.79133	6215
4.79200	6209
4.79267	6203
4.79333	6197
4.79400	6191
4.79467	6185
4.79533	6179
4.79600	6174
4.79667	6168
4.79733	6162
4.79800	6156
4.79867	6151
4.79933	6145
4.80000	6140
4.80067	6134
4.80133	6129
4.80200	6123
4.80267	6118
4.80333	6113
4.80400	6107
4.80467	6102
4.80533	6097
4.80600	6092
4.80667	6087
4.80733	6082
4.80800	6077
4.80867	6071
4.80933	6066
4.81000	6061
4.81067	6056
4.81133	6052
4.81200	6047
4.81267	6042
4.81333	6037
4.81400	6032
4.81467	6027
4.81533	6022
4.81600	6018
4.81667	6013
4.81733	6008
4.81800	6003
4.81867	5998
4.81933	5993
4.82000	5988
4.82067	5984
4.82133	5979
4.82200	5974
4.82267	5969
4.82333	5964
4.82400	5959
4.82467	5954
4.82533	5949
4.82600	5944
4.82667	5940
4.82733	5935
4.82800	5930
4.82867	5925
4.82933	5920
4.83000	5915
4.83067	5910
4.83133	5905
4.83200	5900
4.83267	5895
4.83333	5890
4.83400	5886
4.83467	5881
4.83533	5876
4.83600	5871
4.83667	5866
4.83733	5861
4.83800	5856
4.83867	5851
4.83933	5846
4.84000	5841
4.84067	5836
4.84133	5831
4.84200	5826
4.84267	5821
4.84333	5816
4.84400	5811
4.84467	5806
4.84533	5801
4.84600	5796
4.84667	5791
4.84733	5786
4.84800	5781
4.84867	5776
4.84933	5771
4.85000	5766
4.85067	5761
4.85133	5756
4.85200	5751
4.85267	5746
4.85333	5741
4.85400	5736
4.85467	5731
4.85533	5726
4.85600	5721
4.85667	5717
4.85733	5712
4.85800	5707
4.85867	5702
4.85933	5697
4.86000	5692
4.86067	5688
4.86133	5683
4.86200	5678
4.86267	5673
4.86333	5669
4.86400	5664
4.86467	5659
4.86533	5655
4.86600	5650
4.86667	5646
4.86733	5641
4.86800	5637
4.86867	5632
4.86933	5628
4.87000	5624
4.87067	5619
4.87133	5615
4.87200	5611
4.87267	5607
4.87333	5602
4.87400	5598
4.87467	5594
4.87533	5590
4.87600	5586
4.87667	5581
4.87733	5577
4.87800	5573
4.87867	5569
4.87933	5565
4.88000	5561
4.88067	5557
4.88133	5553
4.88200	5550
4.88267	5546
4.88333	5542
4.88400	5538
4.88467	5535
4.88533	5531
4.88600	5527
4.88667	5523
4.88733	5520
4.88800	5516
4.88867	5513
4.88933	5509
4.89000	5505
4.89067	5502
4.89133	5498
4.89200	5495
4.89267	5491
4.89333	5488
4.89400	5484
4.89467	5481
4.89533	5477
4.89600	5474
4.89667	5471
4.89733	5467
4.89800	5464
4.89867	5461
4.89933	5457
4.90000	5454
4.90067	5451
4.90133	5448
4.90200	5445
4.90267	5441
4.90333	5438
4.90400	5435
4.90467	5432
4.90533	5429
4.90600	5426
4.90667	5423
4.90733	5420
4.90800	5417
4.90867	5414
4.90933	5411
4.91000	5408
4.91067	5405
4.91133	5401
4.91200	5398
4.91267	5395
4.91333	5392
4.91400	5389
4.91467	5385
4.91533	5382
4.91600	5379
4.91667	5376
4.91733	5372
4.91800	5369
4.91867	5366
4.91933	5363
4.92000	5359
4.92067	5356
4.92133	5353
4.92200	5350
4.92267	5347
4.92333	5344
4.92400	5341
4.92467	5338
4.92533	5335
4.92600	5332
4.92667	5329
4.92733	5326
4.92800	5323
4.92867	5320
4.92933	5317
4.93000	5314
4.93067	5311
4.93133	5308
4.93200	5305
4.93267	5302
4.93333	5299
4.93400	5296
4.93467	5293
4.93533	5290
4.93600	5287
4.93667	5284
4.93733	5281
4.93800	5278
4.93867	5275
4.93933	5272
4.94000	5269
4.94067	5266
4.94133	5263
4.94200	5260
4.94267	5257
4.94333	5254
4.94400	5251
4.94467	5248
4.94533	5245
4.94600	5242
4.94667	5239
4.94733	5236
4.94800	5233
4.94867	5230
4.94933	5227
4.95000	5224
4.95067	5221
4.95133	5218
4.95200	5216
4.95267	5213
4.95333	5210
4.95400	5207
4.95467	5204
4.95533	5202
4.95600	5199
4.95667	5196
4.95733	5193
4.95800	5190
4.95867	5188
4.95933	5185
4.96000	5182
4.96067	5179
4.96133	5176
4.96200	5174
4.96267	5171
4.96333	5168
4.96400	5165
4.96467	5162
4.96533	5159
4.96600	5157
4.96667	5154
4.96733	5151
4.96800	5148
4.96867	5145
4.96933	5143
4.97000	5140
4.97067	5137
4.97133	5134
4.97200	5132
4.97267	5129
4.97333	5126
4.97400	5124
4.97467	5121
4.97533	5119
4.97600	5116
4.97667	5113
4.97733	5111
4.97800	5108
4.97867	5106
4.97933	5103
4.98000	5101
4.98067	5098
4.98133	5096
4.98200	5093
4.98267	5091
4.98333	5088
4.98400	5086
4.98467	5083
4.98533	5080
4.98600	5078
4.98667	5075
4.98733	5073
4.98800	5070
4.98867	5068
4.98933	5065
4.99000	5063
4.99067	5060
4.99133	5058
4.99200	5055
4.99267	5053
4.99333	5050
4.99400	5047
4.99467	5045
4.99533	5042
4.99600	5040
4.99667	5037
4.99733	5035
4.99800	5033
4.99867	5030
4.99933	5028
5.00000	5025
5.00067	5023
5.00133	5020
5.00200	5018
5.00267	5015
5.00333	5013
5.00400	5010
5.00467	5008
5.00533	5005
5.00600	5003
5.00667	5000
5.00733	4998
5.00800	4995
5.00867	4993
5.00933	4991
5.01000	4988
5.01067	4986
5.01133	4983
5.01200	4981
5.01267	4979
5.01333	4976
5.01400	4974
5.01467	4972
5.01533	4969
5.01600	4967
5.01667	4965
5.01733	4963
5.01800	4961
5.01867	4959
5.01933	4956
5.02000	4954
5.02067	4952
5.02133	4950
5.02200	4948
5.02267	4946
5.02333	4944
5.02400	4942
5.02467	4940
5.02533	4938
5.02600	4936
5.02667	4933
5.02733	4931
5.02800	4929
5.02867	4927
5.02933	4925
5.03000	4923
5.03067	4921
5.03133	4919
5.03200	4917
5.03267	4915
5.03333	4913
5.03400	4911
5.03467	4909
5.03533	4908
5.03600	4906
5.03667	4904
5.03733	4902
5.03800	4900
5.03867	4898
5.03933	4896
5.04000	4894
5.04067	4893
5.04133	4891
5.04200	4889
5.04267	4887
5.04333	4885
5.04400	4883
5.04467	4881
5.04533	4880
5.04600	4878
5.04667	4876
5.04733	4874
5.04800	4873
5.04867	4871
5.04933	4869
5.05000	4867
5.05067	4866
5.05133	4864
5.05200	4862
5.05267	4861
5.05333	4859
5.05400	4857
5.05467	4855
5.05533	4853
5.05600	4852
5.05667	4850
5.05733	4848
5.05800	4846
5.05867	4844
5.05933	4843
5.06000	4841
5.06067	4839
5.06133	4837
5.06200	4835
5.06267	4834
5.06333	4832
5.06400	4830
5.06467	4828
5.06533	4826
5.06600	4824
5.06667	4823
5.06733	4821
5.06800	4819
5.06867	4817
5.06933	4815
5.07000	4814
5.07067	4812
5.07133	4810
5.07200	4808
5.07267	4806
5.07333	4804
5.07400	4802
5.07467	4801
5.07533	4799
5.07600	4797
5.07667	4795
5.07733	4793
5.07800	4791
5.07867	4789
5.07933	4788
5.08000	4786
5.08067	4784
5.08133	4783
5.08200	4781
5.08267	4780
5.08333	4778
5.08400	4777
5.08467	4775
5.08533	4774
5.08600	4773
5.08667	4772
5.08733	4770
5.08800	4769
5.08867	4768
5.08933	4767
5.09000	4766
5.09067	4765
5.09133	4764
5.09200	4763
5.09267	4763
5.09333	4762
5.09400	4761
5.09467	4760
5.09533	4759
5.09600	4759
5.09667	4758
5.09733	4758
5.09800	4757
5.09867	4757
5.09933	4757
5.10000	4757
5.10067	4756
5.10133	4756
5.10200	4756
5.10267	4756
5.10333	4756
5.10400	4756
5.10467	4756
5.10533	4757
5.10600	4757
5.10667	4757
5.10733	4758
5.10800	4758
5.10867	4758
5.10933	4759
5.11000	4760
5.11067	4760
5.11133	4761
5.11200	4762
5.11267	4763
5.11333	4764
5.11400	4765
5.11467	4766
5.11533	4767
5.11600	4768
5.11667	4769
5.11733	4771
5.11800	4772
5.11867	4774
5.11933	4776
5.12000	4778
5.12067	4779
5.12133	4781
5.12200	4783
5.12267	4786
5.12333	4788
5.12400	4790
5.12467	4793
5.12533	4795
5.12600	4798
5.12667	4801
5.12733	4804
5.12800	4807
5.12867	4811
5.12933	4814
5.13000	4818
5.13067	4821
5.13133	4825
5.13200	4829
5.13267	4834
5.13333	4838
5.13400	4842
5.13467	4847
5.13533	4852
5.13600	4857
5.13667	4862
5.13733	4868
5.13800	4873
5.13867	4879
5.13933	4885
5.14000	4891
5.14067	4898
5.14133	4905
5.14200	4912
5.14267	4919
5.14333	4927
5.14400	4934
5.14467	4942
5.14533	4951
5.14600	4959
5.14667	4968
5.14733	4977
5.14800	4986
5.14867	4996
5.14933	5006
5.15000	5016
5.15067	5026
5.15133	5037
5.15200	5048
5.15267	5059
5.15333	5071
5.15400	5083
5.15467	5096
5.15533	5108
5.15600	5121
5.15667	5134
5.15733	5148
5.15800	5162
5.15867	5176
5.15933	5190
5.16000	5205
5.16067	5220
5.16133	5235
5.16200	5251
5.16267	5267
5.16333	5283
5.16400	5300
5.16467	5317
5.16533	5334
5.16600	5351
5.16667	5369
5.16733	5387
5.16800	5405
5.16867	5424
5.16933	5443
5.17000	5462
5.17067	5482
5.17133	5502
5.17200	5522
5.17267	5542
5.17333	5563
5.17400	5584
5.17467	5605
5.17533	5627
5.17600	5648
5.17667	5670
5.17733	5693
5.17800	5715
5.17867	5738
5.17933	5761
5.18000	5784
5.18067	5807
5.18133	5831
5.18200	5855
5.18267	5879
5.18333	5903
5.18400	5927
5.18467	5951
5.18533	5976
5.18600	6001
5.18667	6026
5.18733	6051
5.18800	6076
5.18867	6101
5.18933	6126
5.19000	6152
5.19067	6177
5.19133	6203
5.19200	6229
5.19267	6254
5.19333	6280
5.19400	6306
5.19467	6332
5.19533	6358
5.19600	6383
5.19667	6409
5.19733	6435
5.19800	6461
5.19867	6486
5.19933	6512
5.20000	6537
5.20067	6562
5.20133	6587
5.20200	6613
5.20267	6637
5.20333	6662
5.20400	6687
5.20467	6711
5.20533	6735
5.20600	6759
5.20667	6783
5.20733	6807
5.20800	6830
5.20867	6853
5.20933	6876
5.21000	6898
5.21067	6921
5.21133	6943
5.21200	6964
5.21267	6985
5.21333	7006
5.21400	7027
5.21467	7047
5.21533	7067
5.21600	7086
5.21667	7105
5.21733	7123
5.21800	7141
5.21867	7159
5.21933	7176
5.22000	7193
5.22067	7209
5.22133	7225
5.22200	7240
5.22267	7255
5.22333	7269
5.22400	7283
5.22467	7296
5.22533	7309
5.22600	7322
5.22667	7333
5.22733	7345
5.22800	7356
5.22867	7366
5.22933	7376
5.23000	7385
5.23067	7394
5.23133	7402
5.23200	7410
5.23267	7418
5.23333	7424
5.23400	7431
5.23467	7437
5.23533	7442
5.23600	7447
5.23667	7451
5.23733	7455
5.23800	7458
5.23867	7461
5.23933	7463
5.24000	7465
5.24067	7466
5.24133	7467
5.24200	7467
5.24267	7467
5.24333	7467
5.24400	7465
5.24467	7464
5.24533	7462
5.24600	7459
5.24667	7457
5.24733	7453
5.24800	7449
5.24867	7445
5.24933	7440
5.25000	7435
5.25067	7429
5.25133	7423
5.25200	7416
5.25267	7410
5.25333	7402
5.25400	7395
5.25467	7386
5.25533	7378
5.25600	7369
5.25667	7360
5.25733	7351
5.25800	7341
5.25867	7331
5.25933	7320
5.26000	7309
5.26067	7298
5.26133	7287
5.26200	7275
5.26267	7264
5.26333	7252
5.26400	7239
5.26467	7227
5.26533	7214
5.26600	7201
5.26667	7187
5.26733	7174
5.26800	7160
5.26867	7146
5.26933	7132
5.27000	7117
5.27067	7103
5.27133	7088
5.27200	7073
5.27267	7058
5.27333	7042
5.27400	7027
5.27467	7011
5.27533	6995
5.27600	6979
5.27667	6963
5.27733	6947
5.27800	6931
5.27867	6915
5.27933	6899
5.28000	6882
5.28067	6866
5.28133	6849
5.28200	6833
5.28267	6816
5.28333	6800
5.28400	6783
5.28467	6767
5.28533	6750
5.28600	6733
5.28667	6717
5.28733	6700
5.28800	6683
5.28867	6667
5.28933	6650
5.29000	6633
5.29067	6617
5.29133	6600
5.29200	6584
5.29267	6567
5.29333	6551
5.29400	6534
5.29467	6518
5.29533	6501
5.29600	6485
5.29667	6469
5.29733	6453
5.29800	6437
5.29867	6421
5.29933	6405
5.30000	6390
5.30067	6374
5.30133	6358
5.30200	6343
5.30267	6327
5.30333	6312
5.30400	6297
5.30467	6282
5.30533	6266
5.30600	6251
5.30667	6237
5.30733	6222
5.30800	6207
5.30867	6192
5.30933	6178
5.31000	6163
5.31067	6149
5.31133	6135
5.31200	6121
5.31267	6107
5.31333	6093
5.31400	6079
5.31467	6065
5.31533	6051
5.31600	6038
5.31667	6024
5.31733	6011
5.31800	5997
5.31867	5984
5.31933	5971
5.32000	5958
5.32067	5945
5.32133	5932
5.32200	5919
5.32267	5906
5.32333	5894
5.32400	5881
5.32467	5869
5.32533	5857
5.32600	5845
5.32667	5833
5.32733	5821
5.32800	5809
5.32867	5797
5.32933	5785
5.33000	5773
5.33067	5762
5.33133	5750
5.33200	5739
5.33267	5728
5.33333	5716
5.33400	5705
5.33467	5694
5.33533	5684
5.33600	5673
5.33667	5662
5.33733	5652
5.33800	5642
5.33867	5631
5.33933	5621
5.34000	5611
5.34067	5601
5.34133	5591
5.34200	5581
5.34267	5572
5.34333	5562
5.34400	5553
5.34467	5543
5.34533	5534
5.34600	5524
5.34667	5515
5.34733	5506
5.34800	5497
5.34867	5488
5.34933	5479
5.35000	5471
5.35067	5462
5.35133	5454
5.35200	5445
5.35267	5437
5.35333	5429
5.35400	5420
5.35467	5412
5.35533	5404
5.35600	5396
5.35667	5389
5.35733	5381
5.35800	5373
5.35867	5366
5.35933	5358
5.36000	5351
5.36067	5344
5.36133	5336
5.36200	5329
5.36267	5322
5.36333	5315
5.36400	5308
5.36467	5302
5.36533	5295
5.36600	5288
5.36667	5282
5.36733	5275
5.36800	5269
5.36867	5262
5.36933	5256
5.37000	5250
5.37067	5244
5.37133	5237
5.37200	5231
5.37267	5225
5.37333	5219
5.37400	5213
5.37467	5207
5.37533	5201
5.37600	5196
5.37667	5190
5.37733	5184
5.37800	5178
5.37867	5173
5.37933	5167
5.38000	5161
5.38067	5156
5.38133	5150
5.38200	5145
5.38267	5140
5.38333	5134
5.38400	5129
5.38467	5124
5.38533	5118
5.38600	5113
5.38667	5108
5.38733	5103
5.38800	5098
5.38867	5092
5.38933	5087
5.39000	5082
5.39067	5077
5.39133	5072
5.39200	5067
5.39267	5063
5.39333	5058
5.39400	5053
5.39467	5048
5.39533	5043
5.39600	5039
5.39667	5034
5.39733	5029
5.39800	5025
5.39867	5020
5.39933	5016
5.40000	5011
5.40067	5006
5.40133	5002
5.40200	4997
5.40267	4993
5.40333	4988
5.40400	4984
5.40467	4979
5.40533	4975
5.40600	4970
5.40667	4966
5.40733	4962
5.40800	4958
5.40867	4953
5.40933	4949
5.41000	4945
5.41067	4941
5.41133	4937
5.41200	4933
5.41267	4929
5.41333	4925
5.41400	4921
5.41467	4917
5.41533	4913
5.41600	4909
5.41667	4906
5.41733	4902
5.41800	4898
5.41867	4894
5.41933	4891
5.42000	4887
5.42067	4883
5.42133	4879
5.42200	4876
5.42267	4872
5.42333	4869
5.42400	4865
5.42467	4861
5.42533	4858
5.42600	4854
5.42667	4851
5.42733	4847
5.42800	4844
5.42867	4840
5.42933	4837
5.43000	4833
5.43067	4830
5.43133	4826
5.43200	4823
5.43267	4820
5.43333	4816
5.43400	4813
5.43467	4809
5.43533	4806
5.43600	4803
5.43667	4799
5.43733	4796
5.43800	4793
5.43867	4790
5.43933	4786
5.44000	4783
5.44067	4780
5.44133	4777
5.44200	4774
5.44267	4771
5.44333	4768
5.44400	4764
5.44467	4761
5.44533	4758
5.44600	4755
5.44667	4752
5.44733	4749
5.44800	4746
5.44867	4743
5.44933	4740
5.45000	4737
5.45067	4734
5.45133	4731
5.45200	4728
5.45267	4725
5.45333	4722
5.45400	4719
5.45467	4716
5.45533	4713
5.45600	4711
5.45667	4708
5.45733	4705
5.45800	4702
5.45867	4699
5.45933	4696
5.46000	4693
5.46067	4690
5.46133	4687
5.46200	4685
5.46267	4682
5.46333	4679
5.46400	4676
5.46467	4673
5.46533	4670
5.46600	4667
5.46667	4665
5.46733	4662
5.46800	4659
5.46867	4656
5.46933	4653
5.47000	4650
5.47067	4647
5.47133	4644
5.47200	4641
5.47267	4638
5.47333	4635
5.47400	4632
5.47467	4630
5.47533	4627
5.47600	4624
5.47667	4621
5.47733	4618
5.47800	4615
5.47867	4612
5.47933	4609
5.48000	4606
5.48067	4603
5.48133	4601
5.48200	4598
5.48267	4595
5.48333	4592
5.48400	4590
5.48467	4587
5.48533	4584
5.48600	4582
5.48667	4579
5.48733	4576
5.48800	4574
5.48867	4571
5.48933	4569
5.49000	4566
5.49067	4564
5.49133	4561
5.49200	4559
5.49267	4556
5.49333	4554
5.49400	4552
5.49467	4549
5.49533	4547
5.49600	4545
5.49667	4542
5.49733	4540
5.49800	4538
5.49867	4536
5.49933	4533
5.50000	4531
5.50067	4529
5.50133	4527
5.50200	4525
5.50267	4523
5.50333	4520
5.50400	4518
5.50467	4516
5.50533	4514
5.50600	4512
5.50667	4510
5.50733	4508
5.50800	4506
5.50867	4504
5.50933	4501
5.51000	4499
5.51067	4497
5.51133	4495
5.51200	4493
5.51267	4491
5.51333	4489
5.51400	4487
5.51467	4485
5.51533	4483
5.51600	4481
5.51667	4479
5.51733	4477
5.51800	4476
5.51867	4474
5.51933	4472
5.52000	4470
5.52067	4468
5.52133	4466
5.52200	4465
5.52267	4463
5.52333	4461
5.52400	4460
5.52467	4458
5.52533	4456
5.52600	4455
5.52667	4453
5.52733	4452
5.52800	4450
5.52867	4449
5.52933	4447
5.53000	4446
5.53067	4444
5.53133	4443
5.53200	4441
5.53267	4439
5.53333	4438
5.53400	4436
5.53467	4435
5.53533	4433
5.53600	4432
5.53667	4431
5.53733	4429
5.53800	4428
5.53867	4426
5.53933	4425
5.54000	4424
5.54067	4422
5.54133	4421
5.54200	4420
5.54267	4418
5.54333	4417
5.54400	4416
5.54467	4415
5.54533	4413
5.54600	4412
5.54667	4411
5.54733	4410
5.54800	4409
5.54867	4407
5.54933	4406
5.55000	4405
5.55067	4404
5.55133	4403
5.55200	4402
5.55267	4400
5.55333	4399
5.55400	4398
5.55467	4397
5.55533	4396
5.55600	4395
5.55667	4393
5.55733	4392
5.55800	4391
5.55867	4390
5.55933	4389
5.56000	4388
5.56067	4387
5.56133	4385
5.56200	4384
5.56267	4383
5.56333	4382
5.56400	4381
5.56467	4380
5.56533	4378
5.56600	4377
5.56667	4376
5.56733	4375
5.56800	4374
5.56867	4373
5.56933	4371
5.57000	4370
5.57067	4369
5.57133	4368
5.57200	4367
5.57267	4366
5.57333	4365
5.57400	4364
5.57467	4363
5.57533	4361
5.57600	4360
5.57667	4359
5.57733	4358
5.57800	4357
5.57867	4356
5.57933	4355
5.58000	4354
5.58067	4353
5.58133	4352
5.58200	4351
5.58267	4350
5.58333	4350
5.58400	4349
5.58467	4348
5.58533	4347
5.58600	4346
5.58667	4345
5.58733	4344
5.58800	4343
5.58867	4342
5.58933	4342
5.59000	4341
5.59067	4340
5.59133	4339
5.59200	4338
5.59267	4337
5.59333	4336
5.59400	4335
5.59467	4334
5.59533	4333
5.59600	4332
5.59667	4331
5.59733	4330
5.59800	4329
5.59867	4328
5.59933	4327
5.60000	4326
5.60067	4325
5.60133	4324
5.60200	4323
5.60267	4322
5.60333	4321
5.60400	4320
5.60467	4319
5.60533	4318
5.60600	4317
5.60667	4316
5.60733	4315
5.60800	4315
5.60867	4314
5.60933	4313
5.61000	4312
5.61067	4311
5.61133	4310
5.61200	4309
5.61267	4308
5.61333	4307
5.61400	4306
5.61467	4305
5.61533	4304
5.61600	4304
5.61667	4303
5.61733	4302
5.61800	4301
5.61867	4300
5.61933	4299
5.62000	4299
5.62067	4298
5.62133	4297
5.62200	4296
5.62267	4295
5.62333	4294
5.62400	4294
5.62467	4293
5.62533	4292
5.62600	4291
5.62667	4290
5.62733	4289
5.62800	4288
5.62867	4287
5.62933	4287
5.63000	4286
5.63067	4285
5.63133	4284
5.63200	4283
5.63267	4282
5.63333	4281
5.63400	4280
5.63467	4279
5.63533	4278
5.63600	4277
5.63667	4277
5.63733	4276
5.63800	4275
5.63867	4274
5.63933	4273
5.64000	4272
5.64067	4271
5.64133	4270
5.64200	4270
5.64267	4269
5.64333	4268
5.64400	4267
5.64467	4266
5.64533	4265
5.64600	4264
5.64667	4264
5.64733	4263
5.64800	4262
5.64867	4261
5.64933	4260
5.65000	4259
5.65067	4259
5.65133	4258
5.65200	4257
5.65267	4256
5.65333	4255
5.65400	4254
5.65467	4253
5.65533	4252
5.65600	4251
5.65667	4250
5.65733	4249
5.65800	4248
5.65867	4247
5.65933	4246
5.66000	4245
5.66067	4244
5.66133	4243
5.66200	4242
5.66267	4241
5.66333	4240
5.66400	4239
5.66467	4238
5.66533	4237
5.66600	4236
5.66667	4235
5.66733	4234
5.66800	4233
5.66867	4233
5.66933	4232
5.67000	4231
5.67067	4230
5.67133	4229
5.67200	4228
5.67267	4227
5.67333	4226
5.67400	4225
5.67467	4224
5.67533	4223
5.67600	4222
5.67667	4221
5.67733	4220
5.67800	4219
5.67867	4218
5.67933	4217
5.68000	4216
5.68067	4215
5.68133	4214
5.68200	4213
5.68267	4212
5.68333	4211
5.68400	4210
5.68467	4209
5.68533	4208
5.68600	4207
5.68667	4206
5.68733	4205
5.68800	4204
5.68867	4203
5.68933	4203
5.69000	4202
5.69067	4201
5.69133	4200
5.69200	4199
5.69267	4198
5.69333	4197
5.69400	4196
5.69467	4195
5.69533	4194
5.69600	4193
5.69667	4192
5.69733	4191
5.69800	4190
5.69867	4189
5.69933	4188
5.70000	4187
5.70067	4187
5.70133	4186
5.70200	4185
5.70267	4185
5.70333	4184
5.70400	4183
5.70467	4182
5.70533	4182
5.70600	4181
5.70667	4180
5.70733	4179
5.70800	4179
5.70867	4178
5.70933	4177
5.71000	4176
5.71067	4176
5.71133	4175
5.71200	4174
5.71267	4174
5.71333	4173
5.71400	4172
5.71467	4172
5.71533	4171
5.71600	4170
5.71667	4170
5.71733	4169
5.71800	4168
5.71867	4168
5.71933	4167
5.72000	4167
5.72067	4166
5.72133	4166
5.72200	4165
5.72267	4165
5.72333	4164
5.72400	4164
5.72467	4163
5.72533	4163
5.72600	4162
5.72667	4162
5.72733	4161
5.72800	4161
5.72867	4160
5.72933	4160
5.73000	4159
5.73067	4159
5.73133	4159
5.73200	4158
5.73267	4158
5.73333	4157
5.73400	4157
5.73467	4156
5.73533	4156
5.73600	4155
5.73667	4155
5.73733	4155
5.73800	4154
5.73867	4154
5.73933	4153
5.74000	4153
5.74067	4153
5.74133	4152
5.74200	4152
5.74267	4152
5.74333	4151
5.74400	4151
5.74467	4151
5.74533	4150
5.74600	4150
5.74667	4150
5.74733	4149
5.74800	4149
5.74867	4149
5.74933	4148
5.75000	4148
5.75067	4148
5.75133	4148
5.75200	4147
5.75267	4147
5.75333	4147
5.75400	4147
5.75467	4147
5.75533	4146
5.75600	4146
5.75667	4146
5.75733	4146
5.75800	4145
5.75867	4145
5.75933	4145
5.76000	4145
5.76067	4145
5.76133	4144
5.76200	4144
5.76267	4144
5.76333	4144
5.76400	4144
5.76467	4144
5.76533	4144
5.76600	4144
5.76667	4144
5.76733	4144
5.76800	4144
5.76867	4144
5.76933	4144
5.77000	4144
5.77067	4144
5.77133	4144
5.77200	4144
5.77267	4144
5.77333	4144
5.77400	4144
5.77467	4144
5.77533	4144
5.77600	4144
5.77667	4144
5.77733	4144
5.77800	4144
5.77867	4145
5.77933	4145
5.78000	4145
5.78067	4145
5.78133	4145
5.78200	4146
5.78267	4146
5.78333	4146
5.78400	4147
5.78467	4147
5.78533	4147
5.78600	4147
5.78667	4148
5.78733	4148
5.78800	4148
5.78867	4148
5.78933	4149
5.79000	4149
5.79067	4149
5.79133	4150
5.79200	4150
5.79267	4150
5.79333	4150
5.79400	4150
5.79467	4151
5.79533	4151
5.79600	4151
5.79667	4151
5.79733	4152
5.79800	4152
5.79867	4152
5.79933	4153
5.80000	4153
5.80067	4153
5.80133	4154
5.80200	4154
5.80267	4154
5.80333	4155
5.80400	4155
5.80467	4156
5.80533	4156
5.80600	4157
5.80667	4157
5.80733	4158
5.80800	4158
5.80867	4159
5.80933	4159
5.81000	4160
5.81067	4160
5.81133	4161
5.81200	4161
5.81267	4162
5.81333	4162
5.81400	4163
5.81467	4163
5.81533	4164
5.81600	4164
5.81667	4165
5.81733	4165
5.81800	4165
5.81867	4166
5.81933	4166
5.82000	4167
5.82067	4167
5.82133	4168
5.82200	4168
5.82267	4168
5.82333	4169
5.82400	4169
5.82467	4170
5.82533	4170
5.82600	4170
5.82667	4171
5.82733	4171
5.82800	4172
5.82867	4172
5.82933	4173
5.83000	4173
5.83067	4174
5.83133	4174
5.83200	4174
5.83267	4175
5.83333	4175
5.83400	4175
5.83467	4176
5.83533	4176
5.83600	4176
5.83667	4176
5.83733	4177
5.83800	4177
5.83867	4177
5.83933	4177
5.84000	4177
5.84067	4177
5.84133	4178
5.84200	4178
5.84267	4178
5.84333	4178
5.84400	4178
5.84467	4178
5.84533	4178
5.84600	4178
5.84667	4178
5.84733	4178
5.84800	4178
5.84867	4178
5.84933	4178
5.85000	4178
5.85067	4178
5.85133	4178
5.85200	4178
5.85267	4178
5.85333	4178
5.85400	4178
5.85467	4178
5.85533	4178
5.85600	4178
5.85667	4177
5.85733	4177
5.85800	4177
5.85867	4177
5.85933	4177
5.86000	4177
5.86067	4176
5.86133	4176
5.86200	4176
5.86267	4176
5.86333	4175
5.86400	4175
5.86467	4175
5.86533	4174
5.86600	4174
5.86667	4174
5.86733	4173
5.86800	4173
5.86867	4172
5.86933	4172
5.87000	4171
5.87067	4171
5.87133	4170
5.87200	4170
5.87267	4169
5.87333	4168
5.87400	4168
5.87467	4167
5.87533	4166
5.87600	4166
5.87667	4165
5.87733	4164
5.87800	4164
5.87867	4163
5.87933	4162
5.88000	4162
5.88067	4161
5.88133	4161
5.88200	4160
5.88267	4159
5.88333	4159
5.88400	4158
5.88467	4157
5.88533	4157
5.88600	4156
5.88667	4155
5.88733	4155
5.88800	4154
5.88867	4153
5.88933	4152
5.89000	4152
5.89067	4151
5.89133	4150
5.89200	4149
5.89267	4149
5.89333	4148
5.89400	4147
5.89467	4146
5.89533	4145
5.89600	4145
5.89667	4144
5.89733	4143
5.89800	4142
5.89867	4141
5.89933	4140
5.90000	4139
5.90067	4138
5.90133	4137
5.90200	4137
5.90267	4136
5.90333	4135
5.90400	4134
5.90467	4133
5.90533	4132
5.90600	4131
5.90667	4130
5.90733	4129
5.90800	4128
5.90867	4127
5.90933	4126
5.91000	4125
5.91067	4124
5.91133	4123
5.91200	4122
5.91267	4121
5.91333	4120
5.91400	4119
5.91467	4119
5.91533	4118
5.91600	4117
5.91667	4116
5.91733	4115
5.91800	4114
5.91867	4113
5.91933	4112
5.92000	4111
5.92067	4110
5.92133	4109
5.92200	4108
5.92267	4107
5.92333	4106
5.92400	4106
5.92467	4105
5.92533	4104
5.92600	4103
5.92667	4102
5.92733	4101
5.92800	4101
5.92867	4100
5.92933	4099
5.93000	4098
5.93067	4097
5.93133	4097
5.93200	4096
5.93267	4095
5.93333	4094
5.93400	4094
5.93467	4093
5.93533	4092
5.93600	4091
5.93667	4090
5.93733	4090
5.93800	4089
5.93867	4088
5.93933	4087
5.94000	4087
5.94067	4086
5.94133	4085
5.94200	4085
5.94267	4084
5.94333	4083
5.94400	4083
5.94467	4082
5.94533	4081
5.94600	4081
5.94667	4080
5.94733	4080
5.94800	4079
5.94867	4079
5.94933	4078
5.95000	4078
5.95067	4077
5.95133	4077
5.95200	4076
5.95267	4076
5.95333	4075
5.95400	4075
5.95467	4074
5.95533	4074
5.95600	4073
5.95667	4073
5.95733	4072
5.95800	4072
5.95867	4071
5.95933	4071
5.96000	4071
5.96067	4070
5.96133	4070
5.96200	4069
5.96267	4069
5.96333	4069
5.96400	4068
5.96467	4068
5.96533	4067
5.96600	4067
5.96667	4067
5.96733	4066
5.96800	4066
5.96867	4066
5.96933	4066
5.97000	4066
5.97067	4065
5.97133	4065
5.97200	4065
5.97267	4065
5.97333	4065
5.97400	4065
5.97467	4065
5.97533	4065
5.97600	4065
5.97667	4065
5.97733	4066
5.97800	4066
5.97867	4066
5.97933	4066
5.98000	4066
5.98067	4066
5.98133	4066
5.98200	4066
5.98267	4066
5.98333	4066
5.98400	4066
5.98467	4066
5.98533	4067
5.98600	4067
5.98667	4067
5.98733	4067
5.98800	4067
5.98867	4067
5.98933	4068
5.99000	4068
5.99067	4068
5.99133	4068
5.99200	4068
5.99267	4068
5.99333	4069
5.99400	4069
5.99467	4069
5.99533	4069
5.99600	4069
5.99667	4069
5.99733	4069
5.99800	4069
5.99867	4069
5.99933	4069
6.00000	4069
6.00067	4069
6.00133	4069
6.00200	4069
6.00267	4069
6.00333	4069
6.00400	4069
6.00467	4069
6.00533	4069
6.00600	4069
6.00667	4069
6.00733	4068
6.00800	4068
6.00867	4068
6.00933	4068
6.01000	4068
6.01067	4068
6.01133	4068
6.01200	4068
6.01267	4068
6.01333	4068
6.01400	4068
6.01467	4068
6.01533	4068
6.01600	4067
6.01667	4067
6.01733	4067
6.01800	4067
6.01867	4067
6.01933	4067
6.02000	4067
6.02067	4067
6.02133	4067
6.02200	4067
6.02267	4066
6.02333	4066
6.02400	4066
6.02467	4066
6.02533	4065
6.02600	4065
6.02667	4065
6.02733	4065
6.02800	4064
6.02867	4064
6.02933	4064
6.03000	4063
6.03067	4063
6.03133	4063
6.03200	4062
6.03267	4062
6.03333	4062
6.03400	4062
6.03467	4061
6.03533	4061
6.03600	4061
6.03667	4060
6.03733	4060
6.03800	4060
6.03867	4059
6.03933	4059
6.04000	4059
6.04067	4059
6.04133	4058
6.04200	4058
6.04267	4058
6.04333	4057
6.04400	4057
6.04467	4057
6.04533	4056
6.04600	4056
6.04667	4056
6.04733	4055
6.04800	4055
6.04867	4055
6.04933	4054
6.05000	4054
6.05067	4053
6.05133	4053
6.05200	4053
6.05267	4052
6.05333	4052
6.05400	4051
6.05467	4051
6.05533	4051
6.05600	4050
6.05667	4050
6.05733	4049
6.05800	4049
6.05867	4049
6.05933	4048
6.06000	4048
6.06067	4047
6.06133	4047
6.06200	4047
6.06267	4046
6.06333	4046
6.06400	4046
6.06467	4045
6.06533	4045
6.06600	4044
6.06667	4044
6.06733	4043
6.06800	4043
6.06867	4043
6.06933	4042
6.07000	4042
6.07067	4041
6.07133	4041
6.07200	4040
6.07267	4040
6.07333	4039
6.07400	4039
6.07467	4038
6.07533	4038
6.07600	4037
6.07667	4036
6.07733	4036
6.07800	4035
6.07867	4035
6.07933	4034
6.08000	4034
6.08067	4033
6.08133	4033
6.08200	4032
6.08267	4031
6.08333	4031
6.08400	4030
6.08467	4030
6.08533	4030
6.08600	4029
6.08667	4029
6.08733	4028
6.08800	4028
6.08867	4027
6.08933	4027
6.09000	4027
6.09067	4026
6.09133	4026
6.09200	4025
6.09267	4025
6.09333	4025
6.09400	4024
6.09467	4024
6.09533	4023
6.09600	4023
6.09667	4023
6.09733	4022
6.09800	4022
6.09867	4022
6.09933	4021
6.10000	4021
6.10067	4021
6.10133	4021
6.10200	4020
6.10267	4020
6.10333	4020
6.10400	4019
6.10467	4019
6.10533	4019
6.10600	4018
6.10667	4018
6.10733	4018
6.10800	4018
6.10867	4018
6.10933	4017
6.11000	4017
6.11067	4017
6.11133	4017
6.11200	4016
6.11267	4016
6.11333	4016
6.11400	4016
6.11467	4015
6.11533	4015
6.11600	4015
6.11667	4015
6.11733	4015
6.11800	4015
6.11867	4014
6.11933	4014
6.12000	4014
6.12067	4014
6.12133	4014
6.12200	4014
6.12267	4014
6.12333	4013
6.12400	4013
6.12467	4013
6.12533	4013
6.12600	4013
6.12667	4013
6.12733	4012
6.12800	4012
6.12867	4012
6.12933	4011
6.13000	4011
6.13067	4010
6.13133	4010
6.13200	4009
6.13267	4009
6.13333	4008
6.13400	4008
6.13467	4007
6.13533	4007
6.13600	4006
6.13667	4006
6.13733	4005
6.13800	4005
6.13867	4004
6.13933	4004
6.14000	4003
6.14067	4003
6.14133	4003
6.14200	4002
6.14267	4002
6.14333	4002
6.14400	4002
6.14467	4001
6.14533	4001
6.14600	4001
6.14667	4000
6.14733	4000
6.14800	4000
6.14867	3999
6.14933	3999
6.15000	3999
6.15067	3998
6.15133	3998
6.15200	3998
6.15267	3997
6.15333	3997
6.15400	3997
6.15467	3997
6.15533	3996
6.15600	3996
6.15667	3996
6.15733	3995
6.15800	3995
6.15867	3995
6.15933	3994
6.16000	3994
6.16067	3994
6.16133	3994
6.16200	3993
6.16267	3993
6.16333	3993
6.16400	3993
6.16467	3993
6.16533	3992
6.16600	3992
6.16667	3992
6.16733	3992
6.16800	3992
6.16867	3991
6.16933	3991
6.17000	3991
6.17067	3991
6.17133	3991
6.17200	3991
6.17267	3991
6.17333	3991
6.17400	3991
6.17467	3991
6.17533	3991
6.17600	3991
6.17667	3991
6.17733	3991
6.17800	3991
6.17867	3991
6.17933	3991
6.18000	3991
6.18067	3991
6.18133	3991
6.18200	3991
6.18267	3991
6.18333	3991
6.18400	3991
6.18467	3991
6.18533	3991
6.18600	3991
6.18667	3991
6.18733	3991
6.18800	3991
6.18867	3992
6.18933	3992
6.19000	3992
6.19067	3992
6.19133	3992
6.19200	3992
6.19267	3992
6.19333	3992
6.19400	3993
6.19467	3993
6.19533	3993
6.19600	3993
6.19667	3993
6.19733	3994
6.19800	3994
6.19867	3994
6.19933	3995
6.20000	3995
6.20067	3996
6.20133	3996
6.20200	3997
6.20267	3997
6.20333	3997
6.20400	3998
6.20467	3999
6.20533	3999
6.20600	4000
6.20667	4000
6.20733	4001
6.20800	4001
6.20867	4002
6.20933	4002
6.21000	4003
6.21067	4003
6.21133	4004
6.21200	4004
6.21267	4005
6.21333	4005
6.21400	4006
6.21467	4007
6.21533	4007
6.21600	4008
6.21667	4009
6.21733	4009
6.21800	4010
6.21867	4011
6.21933	4012
6.22000	4012
6.22067	4013
6.22133	4014
6.22200	4015
6.22267	4015
6.22333	4016
6.22400	4017
6.22467	4018
6.22533	4019
6.22600	4020
6.22667	4020
6.22733	4021
6.22800	4022
6.22867	4023
6.22933	4024
6.23000	4025
6.23067	4026
6.23133	4026
6.23200	4027
6.23267	4028
6.23333	4029
6.23400	4030
6.23467	4031
6.23533	4032
6.23600	4033
6.23667	4034
6.23733	4035
6.23800	4036
6.23867	4037
6.23933	4038
6.24000	4039
6.24067	4040
6.24133	4041
6.24200	4042
6.24267	4043
6.24333	4044
6.24400	4045
6.24467	4046
6.24533	4047
6.24600	4048
6.24667	4049
6.24733	4050
6.24800	4051
6.24867	4052
6.24933	4053
6.25000	4054
6.25067	4055
6.25133	4056
6.25200	4056
6.25267	4057
6.25333	4058
6.25400	4059
6.25467	4060
6.25533	4061
6.25600	4061
6.25667	4062
6.25733	4063
6.25800	4064
6.25867	4064
6.25933	4065
6.26000	4066
6.26067	4067
6.26133	4067
6.26200	4068
6.26267	4068
6.26333	4069
6.26400	4070
6.26467	4070
6.26533	4071
6.26600	4072
6.26667	4072
6.26733	4073
6.26800	4074
6.26867	4074
6.26933	4075
6.27000	4075
6.27067	4076
6.27133	4076
6.27200	4077
6.27267	4077
6.27333	4078
6.27400	4078
6.27467	4078
6.27533	4079
6.27600	4079
6.27667	4079
6.27733	4080
6.27800	4080
6.27867	4080
6.27933	4081
6.28000	4081
6.28067	4082
6.28133	4082
6.28200	4082
6.28267	4083
6.28333	4083
6.28400	4083
6.28467	4084
6.28533	4084
6.28600	4084
6.28667	4085
6.28733	4085
6.28800	4085
6.28867	4085
6.28933	4085
6.29000	4085
6.29067	4085
6.29133	4085
6.29200	4086
6.29267	4085
6.29333	4085
6.29400	4085
6.29467	4085
6.29533	4085
6.29600	4085
6.29667	4085
6.29733	4084
6.29800	4084
6.29867	4084
6.29933	4083
6.30000	4083
6.30067	4083
6.30133	4082
6.30200	4082
6.30267	4081
6.30333	4081
6.30400	4080
6.30467	4080
6.30533	4079
6.30600	4079
6.30667	4078
6.30733	4078
6.30800	4077
6.30867	4077
6.30933	4076
6.31000	4075
6.31067	4075
6.31133	4074
6.31200	4074
6.31267	4073
6.31333	4072
6.31400	4072
6.31467	4071
6.31533	4071
6.31600	4070
6.31667	4069
6.31733	4069
6.31800	4068
6.31867	4068
6.31933	4067
6.32000	4066
6.32067	4066
6.32133	4065
6.32200	4064
6.32267	4064
6.32333	4063
6.32400	4062
6.32467	4061
6.32533	4061
6.32600	4060
6.32667	4059
6.32733	4058
6.32800	4058
6.32867	4057
6.32933	4056
6.33000	4055
6.33067	4054
6.33133	4054
6.33200	4053
6.33267	4052
6.33333	4051
6.33400	4050
6.33467	4049
6.33533	4048
6.33600	4047
6.33667	4046
6.33733	4045
6.33800	4044
6.33867	4043
6.33933	4042
6.34000	4041
6.34067	4040
6.34133	4039
6.34200	4038
6.34267	4037
6.34333	4036
6.34400	4036
6.34467	4035
6.34533	4034
6.34600	4033
6.34667	4032
6.34733	4031
6.34800	4030
6.34867	4029
6.34933	4028
6.35000	4027
6.35067	4027
6.35133	4026
6.35200	4025
6.35267	4024
6.35333	4023
6.35400	4022
6.35467	4021
6.35533	4021
6.35600	4020
6.35667	4019
6.35733	4018
6.35800	4017
6.35867	4016
6.35933	4016
6.36000	4015
6.36067	4014
6.36133	4013
6.36200	4012
6.36267	4012
6.36333	4011
6.36400	4010
6.36467	4009
6.36533	4008
6.36600	4008
6.36667	4007
6.36733	4006
6.36800	4005
6.36867	4005
6.36933	4004
6.37000	4003
6.37067	4002
6.37133	4002
6.37200	4001
6.37267	4000
6.37333	3999
6.37400	3999
6.37467	3998
6.37533	3997
6.37600	3997
6.37667	3996
6.37733	3995
6.37800	3995
6.37867	3994
6.37933	3994
6.38000	3993
6.38067	3992
6.38133	3992
6.38200	3991
6.38267	3990
6.38333	3990
6.38400	3989
6.38467	3989
6.38533	3988
6.38600	3988
6.38667	3987
6.38733	3987
6.38800	3986
6.38867	3986
6.38933	3985
6.39000	3985
6.39067	3984
6.39133	3984
6.39200	3983
6.39267	3983
6.39333	3983
6.39400	3982
6.39467	3982
6.39533	3982
6.39600	3981
6.39667	3981
6.39733	3980
6.39800	3980
6.39867	3980
6.39933	3979

