[Header]
Application Name	LabSolutions
Version	5.73
Data File Name	C:\LabSolutions\Data\Project1\stephen\2016-01-06\85.gcd
Output Date	1/11/2016
Output Time	1:19:57 PM

[Configuration]
Instrument Name	WEISSTA-PC-Instrument1
Instrument #	1
Line #	1
# of Detectors	1
Detector ID	DET#2
Detector Name	DFID1
# of Channels	1

[Chromatogram (Ch1)]
Interval(msec)	40
# of Points	9600
Start Time(min)	0.000
End Time(min)	6.400
R.Time (min)	Intensity
0.00033	12
0.00100	12
0.00167	12
0.00233	12
0.00300	12
0.00367	12
0.00433	12
0.00500	12
0.00567	12
0.00633	12
0.00700	12
0.00767	12
0.00833	12
0.00900	11
0.00967	11
0.01033	10
0.01100	9
0.01167	7
0.01233	5
0.01300	3
0.01367	0
0.01433	-3
0.01500	-7
0.01567	-10
0.01633	-14
0.01700	-19
0.01767	-23
0.01833	-28
0.01900	-33
0.01967	-38
0.02033	-43
0.02100	-48
0.02167	-53
0.02233	-58
0.02300	-63
0.02367	-67
0.02433	-72
0.02500	-77
0.02567	-81
0.02633	-85
0.02700	-89
0.02767	-93
0.02833	-97
0.02900	-101
0.02967	-104
0.03033	-107
0.03100	-110
0.03167	-113
0.03233	-116
0.03300	-118
0.03367	-121
0.03433	-123
0.03500	-125
0.03567	-127
0.03633	-128
0.03700	-130
0.03767	-131
0.03833	-132
0.03900	-133
0.03967	-134
0.04033	-135
0.04100	-135
0.04167	-136
0.04233	-136
0.04300	-137
0.04367	-137
0.04433	-137
0.04500	-137
0.04567	-137
0.04633	-137
0.04700	-137
0.04767	-136
0.04833	-136
0.04900	-136
0.04967	-135
0.05033	-135
0.05100	-134
0.05167	-134
0.05233	-133
0.05300	-133
0.05367	-132
0.05433	-132
0.05500	-131
0.05567	-130
0.05633	-130
0.05700	-129
0.05767	-128
0.05833	-128
0.05900	-127
0.05967	-126
0.06033	-126
0.06100	-125
0.06167	-124
0.06233	-124
0.06300	-123
0.06367	-122
0.06433	-122
0.06500	-121
0.06567	-121
0.06633	-120
0.06700	-119
0.06767	-119
0.06833	-118
0.06900	-118
0.06967	-117
0.07033	-116
0.07100	-116
0.07167	-115
0.07233	-115
0.07300	-114
0.07367	-114
0.07433	-113
0.07500	-112
0.07567	-112
0.07633	-111
0.07700	-111
0.07767	-110
0.07833	-110
0.07900	-109
0.07967	-109
0.08033	-109
0.08100	-108
0.08167	-108
0.08233	-107
0.08300	-107
0.08367	-107
0.08433	-106
0.08500	-106
0.08567	-105
0.08633	-104
0.08700	-103
0.08767	-101
0.08833	-95
0.08900	-78
0.08967	-45
0.09033	19
0.09100	106
0.09167	228
0.09233	413
0.09300	654
0.09367	942
0.09433	1284
0.09500	1691
0.09567	2159
0.09633	2704
0.09700	3335
0.09767	4052
0.09833	4876
0.09900	5789
0.09967	6763
0.10033	7873
0.10100	9132
0.10167	10477
0.10233	11918
0.10300	13473
0.10367	15134
0.10433	16907
0.10500	18833
0.10567	20802
0.10633	22755
0.10700	24711
0.10767	26656
0.10833	28608
0.10900	30652
0.10967	32751
0.11033	34889
0.11100	37001
0.11167	39091
0.11233	41198
0.11300	43267
0.11367	45234
0.11433	47136
0.11500	49036
0.11567	50882
0.11633	52736
0.11700	54509
0.11767	56224
0.11833	57950
0.11900	59600
0.11967	61210
0.12033	62713
0.12100	64158
0.12167	65541
0.12233	66890
0.12300	68159
0.12367	69278
0.12433	70270
0.12500	71199
0.12567	72055
0.12633	72867
0.12700	73603
0.12767	74223
0.12833	74750
0.12900	75235
0.12967	75638
0.13033	75934
0.13100	76131
0.13167	76234
0.13233	76252
0.13300	76238
0.13367	76185
0.13433	76083
0.13500	76008
0.13567	76321
0.13633	78117
0.13700	84043
0.13767	99979
0.13833	136903
0.13900	214043
0.13967	359432
0.14033	607808
0.14100	994107
0.14167	1551109
0.14233	2306144
0.14300	3280980
0.14367	4490516
0.14433	5945125
0.14500	7649610
0.14567	9603582
0.14633	11792140
0.14700	14188354
0.14767	16802300
0.14833	19673159
0.14900	22821246
0.14967	26241088
0.15033	29912727
0.15100	33809879
0.15167	37903426
0.15233	42164883
0.15300	46567544
0.15367	51086000
0.15433	55696387
0.15500	60375797
0.15567	65102133
0.15633	69855297
0.15700	74616740
0.15767	79369101
0.15833	84096404
0.15900	88782945
0.15967	93415057
0.16033	97980545
0.16100	102467558
0.16167	106865914
0.16233	111166779
0.16300	115362715
0.16367	119446450
0.16433	123410948
0.16500	127250551
0.16567	130960115
0.16633	134535098
0.16700	137971358
0.16767	141265853
0.16833	144416003
0.16900	147420124
0.16967	150276922
0.17033	152985115
0.17100	155543764
0.17167	157952260
0.17233	160210581
0.17300	162319353
0.17367	164280238
0.17433	166095484
0.17500	167766924
0.17567	169295415
0.17633	170681330
0.17700	171924597
0.17767	173025512
0.17833	173984828
0.17900	174804022
0.17967	175485075
0.18033	176030667
0.18100	176443782
0.18167	176727946
0.18233	176886896
0.18300	176924572
0.18367	176844630
0.18433	176650853
0.18500	176346898
0.18567	175936580
0.18633	175423383
0.18700	174810824
0.18767	174102366
0.18833	173301213
0.18900	172410722
0.18967	171434269
0.19033	170375200
0.19100	169236846
0.19167	168022655
0.19233	166736092
0.19300	165380668
0.19367	163959888
0.19433	162477318
0.19500	160936436
0.19567	159340706
0.19633	157693455
0.19700	155998036
0.19767	154257754
0.19833	152475901
0.19900	150655731
0.19967	148800480
0.20033	146913255
0.20100	144997176
0.20167	143055339
0.20233	141090891
0.20300	139107058
0.20367	137107353
0.20433	135095415
0.20500	133074552
0.20567	131047382
0.20633	129015822
0.20700	126981334
0.20767	124945158
0.20833	122908523
0.20900	120872672
0.20967	118838917
0.21033	116808589
0.21100	114783063
0.21167	112763690
0.21233	110751827
0.21300	108748791
0.21367	106755885
0.21433	104774346
0.21500	102805369
0.21567	100850083
0.21633	98909579
0.21700	96984877
0.21767	95076944
0.21833	93186675
0.21900	91314915
0.21967	89462448
0.22033	87630004
0.22100	85818255
0.22167	84027812
0.22233	82259236
0.22300	80513034
0.22367	78789672
0.22433	77089565
0.22500	75413086
0.22567	73760558
0.22633	72132262
0.22700	70528432
0.22767	68949269
0.22833	67394937
0.22900	65865571
0.22967	64361265
0.23033	62882082
0.23100	61428055
0.23167	59999195
0.23233	58595480
0.23300	57216866
0.23367	55863283
0.23433	54534642
0.23500	53230831
0.23567	51951724
0.23633	50697175
0.23700	49467020
0.23767	48261085
0.23833	47079176
0.23900	45921088
0.23967	44786603
0.24033	43675487
0.24100	42587497
0.24167	41522380
0.24233	40479872
0.24300	39459702
0.24367	38461590
0.24433	37485250
0.24500	36530390
0.24567	35596713
0.24633	34683912
0.24700	33791681
0.24767	32919705
0.24833	32067670
0.24900	31235258
0.24967	30422152
0.25033	29628032
0.25100	28852578
0.25167	28095470
0.25233	27356387
0.25300	26635006
0.25367	25931008
0.25433	25244072
0.25500	24573880
0.25567	23920117
0.25633	23282463
0.25700	22660604
0.25767	22054226
0.25833	21463019
0.25900	20886677
0.25967	20324895
0.26033	19777371
0.26100	19243807
0.26167	18723908
0.26233	18217383
0.26300	17723945
0.26367	17243310
0.26433	16775196
0.26500	16319327
0.26567	15875430
0.26633	15443237
0.26700	15022483
0.26767	14612908
0.26833	14214255
0.26900	13826270
0.26967	13448704
0.27033	13081313
0.27100	12723854
0.27167	12376092
0.27233	12037796
0.27300	11708734
0.27367	11388683
0.27433	11077422
0.27500	10774733
0.27567	10480405
0.27633	10194227
0.27700	9915996
0.27767	9645512
0.27833	9382578
0.27900	9127005
0.27967	8878603
0.28033	8637189
0.28100	8402582
0.28167	8174607
0.28233	7953092
0.28300	7737869
0.28367	7528774
0.28433	7325645
0.28500	7128326
0.28567	6936664
0.28633	6750509
0.28700	6569716
0.28767	6394141
0.28833	6223645
0.28900	6058091
0.28967	5897346
0.29033	5741279
0.29100	5589765
0.29167	5442679
0.29233	5299899
0.29300	5161308
0.29367	5026788
0.29433	4896229
0.29500	4769521
0.29567	4646555
0.29633	4527227
0.29700	4411434
0.29767	4299079
0.29833	4190064
0.29900	4084297
0.29967	3981684
0.30033	3882136
0.30100	3785563
0.30167	3691881
0.30233	3601008
0.30300	3512862
0.30367	3427366
0.30433	3344444
0.30500	3264021
0.30567	3186024
0.30633	3110383
0.30700	3037030
0.30767	2965899
0.30833	2896927
0.30900	2830052
0.30967	2765213
0.31033	2702351
0.31100	2641411
0.31167	2582337
0.31233	2525077
0.31300	2469579
0.31367	2415794
0.31433	2363677
0.31500	2313181
0.31567	2264264
0.31633	2216884
0.31700	2171004
0.31767	2126588
0.31833	2083602
0.31900	2042014
0.31967	2001796
0.32033	1962921
0.32100	1925362
0.32167	1889100
0.32233	1854113
0.32300	1820387
0.32367	1787906
0.32433	1756655
0.32500	1726617
0.32567	1697776
0.32633	1670113
0.32700	1643611
0.32767	1618252
0.32833	1594017
0.32900	1570886
0.32967	1548842
0.33033	1527866
0.33100	1507940
0.33167	1489051
0.33233	1471188
0.33300	1454343
0.33367	1438508
0.33433	1423684
0.33500	1409878
0.33567	1397105
0.33633	1385386
0.33700	1374754
0.33767	1365240
0.33833	1356879
0.33900	1349701
0.33967	1343732
0.34033	1338986
0.34100	1335468
0.34167	1333172
0.34233	1332083
0.34300	1332176
0.34367	1333416
0.34433	1335762
0.34500	1339164
0.34567	1343568
0.34633	1348917
0.34700	1355150
0.34767	1362207
0.34833	1370025
0.34900	1378543
0.34967	1387700
0.35033	1397440
0.35100	1407705
0.35167	1418444
0.35233	1429606
0.35300	1441143
0.35367	1453007
0.35433	1465152
0.35500	1477532
0.35567	1490105
0.35633	1502831
0.35700	1515675
0.35767	1528602
0.35833	1541577
0.35900	1554571
0.35967	1567560
0.36033	1580528
0.36100	1593463
0.36167	1606354
0.36233	1619194
0.36300	1631980
0.36367	1644717
0.36433	1657414
0.36500	1670082
0.36567	1682735
0.36633	1695386
0.36700	1708044
0.36767	1720715
0.36833	1733400
0.36900	1746097
0.36967	1758801
0.37033	1771502
0.37100	1784183
0.37167	1796824
0.37233	1809401
0.37300	1821888
0.37367	1834260
0.37433	1846492
0.37500	1858562
0.37567	1870449
0.37633	1882134
0.37700	1893597
0.37767	1904823
0.37833	1915801
0.37900	1926518
0.37967	1936968
0.38033	1947140
0.38100	1957020
0.38167	1966593
0.38233	1975839
0.38300	1984733
0.38367	1993251
0.38433	2001361
0.38500	2009031
0.38567	2016226
0.38633	2022913
0.38700	2029058
0.38767	2034627
0.38833	2039583
0.38900	2043889
0.38967	2047500
0.39033	2050368
0.39100	2052446
0.39167	2053679
0.39233	2054019
0.39300	2053414
0.39367	2051817
0.39433	2049180
0.39500	2045458
0.39567	2040607
0.39633	2034593
0.39700	2027386
0.39767	2018966
0.39833	2009321
0.39900	1998450
0.39967	1986362
0.40033	1973081
0.40100	1958636
0.40167	1943068
0.40233	1926424
0.40300	1908760
0.40367	1890132
0.40433	1870603
0.40500	1850236
0.40567	1829094
0.40633	1807243
0.40700	1784746
0.40767	1761665
0.40833	1738059
0.40900	1713989
0.40967	1689510
0.41033	1664677
0.41100	1639543
0.41167	1614157
0.41233	1588568
0.41300	1562821
0.41367	1536959
0.41433	1511022
0.41500	1485049
0.41567	1459074
0.41633	1433132
0.41700	1407254
0.41767	1381468
0.41833	1355802
0.41900	1330280
0.41967	1304926
0.42033	1279761
0.42100	1254804
0.42167	1230075
0.42233	1205588
0.42300	1181358
0.42367	1157400
0.42433	1133724
0.42500	1110343
0.42567	1087265
0.42633	1064500
0.42700	1042054
0.42767	1019934
0.42833	998147
0.42900	976698
0.42967	955591
0.43033	934831
0.43100	914420
0.43167	894360
0.43233	874653
0.43300	855300
0.43367	836301
0.43433	817655
0.43500	799362
0.43567	781420
0.43633	763827
0.43700	746581
0.43767	729679
0.43833	713119
0.43900	696897
0.43967	681010
0.44033	665456
0.44100	650232
0.44167	635335
0.44233	620762
0.44300	606510
0.44367	592576
0.44433	578957
0.44500	565648
0.44567	552646
0.44633	539946
0.44700	527546
0.44767	515440
0.44833	503624
0.44900	492094
0.44967	480847
0.45033	469877
0.45100	459180
0.45167	448753
0.45233	438591
0.45300	428690
0.45367	419046
0.45433	409656
0.45500	400516
0.45567	391623
0.45633	382972
0.45700	374561
0.45767	366386
0.45833	358445
0.45900	350734
0.45967	343249
0.46033	335987
0.46100	328941
0.46167	322106
0.46233	315477
0.46300	309046
0.46367	302809
0.46433	296761
0.46500	290896
0.46567	285208
0.46633	279694
0.46700	274346
0.46767	269160
0.46833	264131
0.46900	259254
0.46967	254525
0.47033	249937
0.47100	245487
0.47167	241171
0.47233	236984
0.47300	232922
0.47367	228981
0.47433	225156
0.47500	221446
0.47567	217844
0.47633	214349
0.47700	210956
0.47767	207662
0.47833	204464
0.47900	201359
0.47967	198343
0.48033	195413
0.48100	192568
0.48167	189803
0.48233	187116
0.48300	184505
0.48367	181966
0.48433	179497
0.48500	177096
0.48567	174760
0.48633	172486
0.48700	170274
0.48767	168119
0.48833	166021
0.48900	163978
0.48967	161987
0.49033	160047
0.49100	158155
0.49167	156311
0.49233	154512
0.49300	152758
0.49367	151045
0.49433	149374
0.49500	147742
0.49567	146148
0.49633	144591
0.49700	143069
0.49767	141582
0.49833	140128
0.49900	138706
0.49967	137315
0.50033	135953
0.50100	134621
0.50167	133316
0.50233	132038
0.50300	130787
0.50367	129560
0.50433	128358
0.50500	127179
0.50567	126023
0.50633	124889
0.50700	123777
0.50767	122684
0.50833	121612
0.50900	120559
0.50967	119525
0.51033	118508
0.51100	117510
0.51167	116528
0.51233	115562
0.51300	114613
0.51367	113679
0.51433	112760
0.51500	111855
0.51567	110965
0.51633	110088
0.51700	109224
0.51767	108374
0.51833	107535
0.51900	106709
0.51967	105895
0.52033	105092
0.52100	104300
0.52167	103520
0.52233	102749
0.52300	101989
0.52367	101239
0.52433	100499
0.52500	99769
0.52567	99048
0.52633	98336
0.52700	97632
0.52767	96938
0.52833	96252
0.52900	95574
0.52967	94905
0.53033	94243
0.53100	93589
0.53167	92942
0.53233	92303
0.53300	91671
0.53367	91046
0.53433	90429
0.53500	89818
0.53567	89214
0.53633	88616
0.53700	88025
0.53767	87440
0.53833	86862
0.53900	86289
0.53967	85723
0.54033	85162
0.54100	84607
0.54167	84058
0.54233	83515
0.54300	82977
0.54367	82444
0.54433	81917
0.54500	81395
0.54567	80878
0.54633	80367
0.54700	79860
0.54767	79358
0.54833	78862
0.54900	78370
0.54967	77884
0.55033	77402
0.55100	76925
0.55167	76453
0.55233	75986
0.55300	75524
0.55367	75066
0.55433	74613
0.55500	74165
0.55567	73722
0.55633	73284
0.55700	72850
0.55767	72421
0.55833	71997
0.55900	71578
0.55967	71163
0.56033	70753
0.56100	70347
0.56167	69946
0.56233	69549
0.56300	69156
0.56367	68768
0.56433	68383
0.56500	68003
0.56567	67627
0.56633	67254
0.56700	66885
0.56767	66520
0.56833	66158
0.56900	65800
0.56967	65445
0.57033	65093
0.57100	64744
0.57167	64398
0.57233	64055
0.57300	63715
0.57367	63378
0.57433	63043
0.57500	62710
0.57567	62380
0.57633	62052
0.57700	61727
0.57767	61404
0.57833	61084
0.57900	60766
0.57967	60450
0.58033	60137
0.58100	59825
0.58167	59517
0.58233	59210
0.58300	58906
0.58367	58604
0.58433	58304
0.58500	58006
0.58567	57711
0.58633	57418
0.58700	57128
0.58767	56839
0.58833	56553
0.58900	56269
0.58967	55987
0.59033	55708
0.59100	55430
0.59167	55155
0.59233	54882
0.59300	54612
0.59367	54343
0.59433	54077
0.59500	53814
0.59567	53552
0.59633	53293
0.59700	53037
0.59767	52783
0.59833	52532
0.59900	52284
0.59967	52038
0.60033	51795
0.60100	51555
0.60167	51319
0.60233	51086
0.60300	50856
0.60367	50630
0.60433	50408
0.60500	50190
0.60567	49977
0.60633	49769
0.60700	49566
0.60767	49369
0.60833	49177
0.60900	48993
0.60967	48816
0.61033	48647
0.61100	48485
0.61167	48333
0.61233	48189
0.61300	48055
0.61367	47930
0.61433	47815
0.61500	47711
0.61567	47616
0.61633	47532
0.61700	47457
0.61767	47392
0.61833	47336
0.61900	47288
0.61967	47248
0.62033	47216
0.62100	47189
0.62167	47168
0.62233	47150
0.62300	47135
0.62367	47122
0.62433	47110
0.62500	47098
0.62567	47084
0.62633	47067
0.62700	47048
0.62767	47024
0.62833	46996
0.62900	46962
0.62967	46923
0.63033	46877
0.63100	46825
0.63167	46766
0.63233	46700
0.63300	46627
0.63367	46546
0.63433	46459
0.63500	46365
0.63567	46265
0.63633	46157
0.63700	46044
0.63767	45925
0.63833	45799
0.63900	45668
0.63967	45532
0.64033	45391
0.64100	45246
0.64167	45096
0.64233	44942
0.64300	44784
0.64367	44623
0.64433	44459
0.64500	44291
0.64567	44121
0.64633	43948
0.64700	43773
0.64767	43596
0.64833	43416
0.64900	43236
0.64967	43053
0.65033	42870
0.65100	42685
0.65167	42499
0.65233	42312
0.65300	42125
0.65367	41937
0.65433	41748
0.65500	41559
0.65567	41370
0.65633	41181
0.65700	40991
0.65767	40802
0.65833	40612
0.65900	40423
0.65967	40234
0.66033	40046
0.66100	39857
0.66167	39670
0.66233	39483
0.66300	39296
0.66367	39110
0.66433	38925
0.66500	38740
0.66567	38556
0.66633	38373
0.66700	38191
0.66767	38010
0.66833	37830
0.66900	37650
0.66967	37472
0.67033	37295
0.67100	37119
0.67167	36944
0.67233	36771
0.67300	36599
0.67367	36428
0.67433	36259
0.67500	36092
0.67567	35925
0.67633	35761
0.67700	35598
0.67767	35436
0.67833	35277
0.67900	35119
0.67967	34963
0.68033	34808
0.68100	34656
0.68167	34506
0.68233	34358
0.68300	34212
0.68367	34068
0.68433	33926
0.68500	33787
0.68567	33651
0.68633	33518
0.68700	33387
0.68767	33259
0.68833	33135
0.68900	33014
0.68967	32897
0.69033	32783
0.69100	32674
0.69167	32568
0.69233	32467
0.69300	32370
0.69367	32278
0.69433	32190
0.69500	32108
0.69567	32030
0.69633	31958
0.69700	31890
0.69767	31827
0.69833	31769
0.69900	31715
0.69967	31665
0.70033	31619
0.70100	31577
0.70167	31538
0.70233	31502
0.70300	31469
0.70367	31438
0.70433	31409
0.70500	31381
0.70567	31355
0.70633	31328
0.70700	31302
0.70767	31275
0.70833	31248
0.70900	31219
0.70967	31189
0.71033	31157
0.71100	31123
0.71167	31087
0.71233	31048
0.71300	31007
0.71367	30963
0.71433	30916
0.71500	30867
0.71567	30814
0.71633	30759
0.71700	30701
0.71767	30640
0.71833	30577
0.71900	30511
0.71967	30442
0.72033	30371
0.72100	30298
0.72167	30222
0.72233	30144
0.72300	30065
0.72367	29984
0.72433	29901
0.72500	29816
0.72567	29731
0.72633	29644
0.72700	29556
0.72767	29466
0.72833	29376
0.72900	29285
0.72967	29194
0.73033	29101
0.73100	29008
0.73167	28915
0.73233	28822
0.73300	28728
0.73367	28634
0.73433	28540
0.73500	28446
0.73567	28352
0.73633	28258
0.73700	28164
0.73767	28070
0.73833	27977
0.73900	27884
0.73967	27791
0.74033	27698
0.74100	27606
0.74167	27515
0.74233	27424
0.74300	27333
0.74367	27243
0.74433	27154
0.74500	27065
0.74567	26977
0.74633	26889
0.74700	26802
0.74767	26715
0.74833	26630
0.74900	26545
0.74967	26461
0.75033	26377
0.75100	26294
0.75167	26212
0.75233	26130
0.75300	26049
0.75367	25969
0.75433	25890
0.75500	25811
0.75567	25733
0.75633	25656
0.75700	25580
0.75767	25504
0.75833	25429
0.75900	25355
0.75967	25282
0.76033	25209
0.76100	25137
0.76167	25066
0.76233	24996
0.76300	24926
0.76367	24857
0.76433	24789
0.76500	24721
0.76567	24654
0.76633	24588
0.76700	24522
0.76767	24457
0.76833	24393
0.76900	24329
0.76967	24266
0.77033	24204
0.77100	24142
0.77167	24081
0.77233	24020
0.77300	23961
0.77367	23901
0.77433	23843
0.77500	23785
0.77567	23727
0.77633	23670
0.77700	23614
0.77767	23558
0.77833	23503
0.77900	23448
0.77967	23394
0.78033	23341
0.78100	23288
0.78167	23235
0.78233	23183
0.78300	23132
0.78367	23081
0.78433	23030
0.78500	22980
0.78567	22931
0.78633	22882
0.78700	22833
0.78767	22785
0.78833	22737
0.78900	22690
0.78967	22643
0.79033	22597
0.79100	22551
0.79167	22505
0.79233	22460
0.79300	22416
0.79367	22371
0.79433	22328
0.79500	22284
0.79567	22241
0.79633	22199
0.79700	22156
0.79767	22114
0.79833	22073
0.79900	22032
0.79967	21991
0.80033	21950
0.80100	21910
0.80167	21870
0.80233	21830
0.80300	21791
0.80367	21752
0.80433	21713
0.80500	21675
0.80567	21637
0.80633	21599
0.80700	21561
0.80767	21524
0.80833	21487
0.80900	21450
0.80967	21414
0.81033	21377
0.81100	21341
0.81167	21306
0.81233	21271
0.81300	21236
0.81367	21201
0.81433	21167
0.81500	21133
0.81567	21100
0.81633	21067
0.81700	21034
0.81767	21002
0.81833	20970
0.81900	20939
0.81967	20907
0.82033	20876
0.82100	20846
0.82167	20816
0.82233	20786
0.82300	20756
0.82367	20726
0.82433	20697
0.82500	20668
0.82567	20639
0.82633	20611
0.82700	20582
0.82767	20554
0.82833	20526
0.82900	20498
0.82967	20470
0.83033	20442
0.83100	20414
0.83167	20387
0.83233	20359
0.83300	20332
0.83367	20305
0.83433	20278
0.83500	20251
0.83567	20224
0.83633	20197
0.83700	20170
0.83767	20143
0.83833	20117
0.83900	20090
0.83967	20064
0.84033	20037
0.84100	20011
0.84167	19985
0.84233	19958
0.84300	19932
0.84367	19906
0.84433	19880
0.84500	19853
0.84567	19827
0.84633	19801
0.84700	19775
0.84767	19749
0.84833	19723
0.84900	19697
0.84967	19671
0.85033	19645
0.85100	19619
0.85167	19593
0.85233	19567
0.85300	19541
0.85367	19515
0.85433	19489
0.85500	19462
0.85567	19436
0.85633	19410
0.85700	19384
0.85767	19357
0.85833	19331
0.85900	19305
0.85967	19279
0.86033	19253
0.86100	19227
0.86167	19201
0.86233	19174
0.86300	19148
0.86367	19123
0.86433	19097
0.86500	19071
0.86567	19045
0.86633	19019
0.86700	18994
0.86767	18968
0.86833	18943
0.86900	18918
0.86967	18892
0.87033	18867
0.87100	18842
0.87167	18817
0.87233	18792
0.87300	18767
0.87367	18742
0.87433	18717
0.87500	18692
0.87567	18668
0.87633	18643
0.87700	18619
0.87767	18594
0.87833	18570
0.87900	18546
0.87967	18522
0.88033	18499
0.88100	18475
0.88167	18451
0.88233	18428
0.88300	18405
0.88367	18382
0.88433	18359
0.88500	18336
0.88567	18314
0.88633	18291
0.88700	18269
0.88767	18247
0.88833	18225
0.88900	18203
0.88967	18182
0.89033	18161
0.89100	18140
0.89167	18119
0.89233	18098
0.89300	18078
0.89367	18058
0.89433	18038
0.89500	18018
0.89567	17999
0.89633	17979
0.89700	17960
0.89767	17942
0.89833	17924
0.89900	17905
0.89967	17888
0.90033	17870
0.90100	17853
0.90167	17836
0.90233	17820
0.90300	17804
0.90367	17788
0.90433	17772
0.90500	17757
0.90567	17742
0.90633	17727
0.90700	17712
0.90767	17698
0.90833	17684
0.90900	17670
0.90967	17656
0.91033	17643
0.91100	17629
0.91167	17616
0.91233	17603
0.91300	17590
0.91367	17577
0.91433	17564
0.91500	17551
0.91567	17537
0.91633	17524
0.91700	17511
0.91767	17498
0.91833	17485
0.91900	17471
0.91967	17458
0.92033	17444
0.92100	17430
0.92167	17417
0.92233	17403
0.92300	17389
0.92367	17374
0.92433	17360
0.92500	17345
0.92567	17331
0.92633	17316
0.92700	17301
0.92767	17286
0.92833	17270
0.92900	17255
0.92967	17240
0.93033	17224
0.93100	17209
0.93167	17193
0.93233	17178
0.93300	17162
0.93367	17146
0.93433	17131
0.93500	17115
0.93567	17099
0.93633	17083
0.93700	17067
0.93767	17052
0.93833	17036
0.93900	17020
0.93967	17004
0.94033	16987
0.94100	16971
0.94167	16955
0.94233	16939
0.94300	16922
0.94367	16906
0.94433	16890
0.94500	16873
0.94567	16856
0.94633	16840
0.94700	16823
0.94767	16807
0.94833	16790
0.94900	16774
0.94967	16757
0.95033	16740
0.95100	16724
0.95167	16707
0.95233	16691
0.95300	16674
0.95367	16658
0.95433	16641
0.95500	16625
0.95567	16609
0.95633	16593
0.95700	16577
0.95767	16561
0.95833	16545
0.95900	16530
0.95967	16514
0.96033	16499
0.96100	16483
0.96167	16468
0.96233	16453
0.96300	16438
0.96367	16422
0.96433	16408
0.96500	16393
0.96567	16378
0.96633	16363
0.96700	16349
0.96767	16334
0.96833	16320
0.96900	16306
0.96967	16291
0.97033	16277
0.97100	16263
0.97167	16249
0.97233	16235
0.97300	16221
0.97367	16208
0.97433	16194
0.97500	16180
0.97567	16166
0.97633	16153
0.97700	16139
0.97767	16125
0.97833	16111
0.97900	16098
0.97967	16084
0.98033	16070
0.98100	16056
0.98167	16042
0.98233	16029
0.98300	16015
0.98367	16001
0.98433	15987
0.98500	15973
0.98567	15959
0.98633	15945
0.98700	15931
0.98767	15917
0.98833	15902
0.98900	15888
0.98967	15874
0.99033	15860
0.99100	15846
0.99167	15832
0.99233	15818
0.99300	15804
0.99367	15790
0.99433	15775
0.99500	15761
0.99567	15747
0.99633	15733
0.99700	15719
0.99767	15705
0.99833	15691
0.99900	15677
0.99967	15663
1.00033	15649
1.00100	15635
1.00167	15621
1.00233	15608
1.00300	15594
1.00367	15580
1.00433	15566
1.00500	15552
1.00567	15538
1.00633	15525
1.00700	15511
1.00767	15497
1.00833	15484
1.00900	15470
1.00967	15457
1.01033	15443
1.01100	15430
1.01167	15417
1.01233	15404
1.01300	15391
1.01367	15378
1.01433	15365
1.01500	15352
1.01567	15340
1.01633	15328
1.01700	15316
1.01767	15304
1.01833	15292
1.01900	15280
1.01967	15269
1.02033	15257
1.02100	15246
1.02167	15235
1.02233	15225
1.02300	15214
1.02367	15204
1.02433	15194
1.02500	15184
1.02567	15174
1.02633	15164
1.02700	15155
1.02767	15146
1.02833	15136
1.02900	15127
1.02967	15118
1.03033	15109
1.03100	15101
1.03167	15092
1.03233	15083
1.03300	15074
1.03367	15065
1.03433	15057
1.03500	15048
1.03567	15039
1.03633	15030
1.03700	15021
1.03767	15012
1.03833	15002
1.03900	14993
1.03967	14984
1.04033	14974
1.04100	14964
1.04167	14955
1.04233	14945
1.04300	14935
1.04367	14925
1.04433	14914
1.04500	14904
1.04567	14894
1.04633	14883
1.04700	14872
1.04767	14862
1.04833	14851
1.04900	14840
1.04967	14829
1.05033	14818
1.05100	14806
1.05167	14795
1.05233	14784
1.05300	14772
1.05367	14761
1.05433	14749
1.05500	14738
1.05567	14726
1.05633	14715
1.05700	14703
1.05767	14691
1.05833	14679
1.05900	14668
1.05967	14656
1.06033	14644
1.06100	14632
1.06167	14621
1.06233	14609
1.06300	14597
1.06367	14585
1.06433	14573
1.06500	14562
1.06567	14550
1.06633	14538
1.06700	14526
1.06767	14515
1.06833	14503
1.06900	14491
1.06967	14480
1.07033	14468
1.07100	14456
1.07167	14444
1.07233	14433
1.07300	14421
1.07367	14410
1.07433	14398
1.07500	14386
1.07567	14375
1.07633	14363
1.07700	14352
1.07767	14340
1.07833	14329
1.07900	14317
1.07967	14306
1.08033	14294
1.08100	14283
1.08167	14271
1.08233	14260
1.08300	14248
1.08367	14237
1.08433	14226
1.08500	14215
1.08567	14203
1.08633	14192
1.08700	14181
1.08767	14170
1.08833	14159
1.08900	14148
1.08967	14137
1.09033	14126
1.09100	14115
1.09167	14104
1.09233	14094
1.09300	14083
1.09367	14072
1.09433	14062
1.09500	14051
1.09567	14041
1.09633	14030
1.09700	14020
1.09767	14009
1.09833	13999
1.09900	13989
1.09967	13979
1.10033	13969
1.10100	13958
1.10167	13948
1.10233	13938
1.10300	13929
1.10367	13919
1.10433	13909
1.10500	13899
1.10567	13890
1.10633	13880
1.10700	13870
1.10767	13861
1.10833	13851
1.10900	13842
1.10967	13833
1.11033	13823
1.11100	13814
1.11167	13805
1.11233	13796
1.11300	13787
1.11367	13778
1.11433	13769
1.11500	13761
1.11567	13752
1.11633	13743
1.11700	13734
1.11767	13726
1.11833	13717
1.11900	13709
1.11967	13701
1.12033	13693
1.12100	13685
1.12167	13677
1.12233	13669
1.12300	13662
1.12367	13654
1.12433	13647
1.12500	13640
1.12567	13634
1.12633	13628
1.12700	13622
1.12767	13616
1.12833	13611
1.12900	13606
1.12967	13602
1.13033	13598
1.13100	13594
1.13167	13591
1.13233	13588
1.13300	13586
1.13367	13584
1.13433	13582
1.13500	13581
1.13567	13580
1.13633	13579
1.13700	13579
1.13767	13579
1.13833	13579
1.13900	13580
1.13967	13580
1.14033	13581
1.14100	13581
1.14167	13582
1.14233	13583
1.14300	13583
1.14367	13584
1.14433	13584
1.14500	13584
1.14567	13584
1.14633	13584
1.14700	13584
1.14767	13583
1.14833	13582
1.14900	13581
1.14967	13579
1.15033	13578
1.15100	13575
1.15167	13573
1.15233	13570
1.15300	13567
1.15367	13564
1.15433	13561
1.15500	13557
1.15567	13553
1.15633	13548
1.15700	13543
1.15767	13538
1.15833	13533
1.15900	13528
1.15967	13522
1.16033	13516
1.16100	13509
1.16167	13503
1.16233	13496
1.16300	13489
1.16367	13482
1.16433	13475
1.16500	13468
1.16567	13460
1.16633	13452
1.16700	13444
1.16767	13436
1.16833	13428
1.16900	13420
1.16967	13411
1.17033	13403
1.17100	13394
1.17167	13386
1.17233	13377
1.17300	13368
1.17367	13359
1.17433	13350
1.17500	13341
1.17567	13332
1.17633	13323
1.17700	13314
1.17767	13305
1.17833	13296
1.17900	13287
1.17967	13278
1.18033	13269
1.18100	13260
1.18167	13251
1.18233	13242
1.18300	13233
1.18367	13223
1.18433	13215
1.18500	13206
1.18567	13197
1.18633	13188
1.18700	13179
1.18767	13170
1.18833	13162
1.18900	13153
1.18967	13144
1.19033	13136
1.19100	13128
1.19167	13119
1.19233	13111
1.19300	13103
1.19367	13095
1.19433	13087
1.19500	13079
1.19567	13071
1.19633	13063
1.19700	13055
1.19767	13048
1.19833	13040
1.19900	13033
1.19967	13025
1.20033	13018
1.20100	13011
1.20167	13004
1.20233	12997
1.20300	12990
1.20367	12983
1.20433	12976
1.20500	12970
1.20567	12963
1.20633	12957
1.20700	12951
1.20767	12944
1.20833	12938
1.20900	12932
1.20967	12926
1.21033	12920
1.21100	12914
1.21167	12908
1.21233	12903
1.21300	12897
1.21367	12891
1.21433	12886
1.21500	12880
1.21567	12875
1.21633	12870
1.21700	12864
1.21767	12859
1.21833	12854
1.21900	12849
1.21967	12844
1.22033	12839
1.22100	12834
1.22167	12829
1.22233	12824
1.22300	12819
1.22367	12815
1.22433	12810
1.22500	12805
1.22567	12800
1.22633	12796
1.22700	12791
1.22767	12786
1.22833	12781
1.22900	12777
1.22967	12772
1.23033	12767
1.23100	12762
1.23167	12758
1.23233	12753
1.23300	12748
1.23367	12744
1.23433	12739
1.23500	12734
1.23567	12730
1.23633	12725
1.23700	12720
1.23767	12716
1.23833	12711
1.23900	12707
1.23967	12702
1.24033	12698
1.24100	12693
1.24167	12689
1.24233	12685
1.24300	12681
1.24367	12676
1.24433	12672
1.24500	12668
1.24567	12664
1.24633	12660
1.24700	12656
1.24767	12652
1.24833	12648
1.24900	12644
1.24967	12640
1.25033	12636
1.25100	12633
1.25167	12629
1.25233	12625
1.25300	12621
1.25367	12618
1.25433	12614
1.25500	12611
1.25567	12607
1.25633	12604
1.25700	12601
1.25767	12597
1.25833	12594
1.25900	12591
1.25967	12588
1.26033	12585
1.26100	12582
1.26167	12579
1.26233	12576
1.26300	12573
1.26367	12570
1.26433	12567
1.26500	12564
1.26567	12562
1.26633	12559
1.26700	12556
1.26767	12554
1.26833	12551
1.26900	12548
1.26967	12546
1.27033	12543
1.27100	12541
1.27167	12539
1.27233	12536
1.27300	12534
1.27367	12532
1.27433	12530
1.27500	12528
1.27567	12526
1.27633	12524
1.27700	12522
1.27767	12520
1.27833	12518
1.27900	12517
1.27967	12515
1.28033	12513
1.28100	12512
1.28167	12511
1.28233	12509
1.28300	12508
1.28367	12507
1.28433	12506
1.28500	12505
1.28567	12504
1.28633	12503
1.28700	12501
1.28767	12500
1.28833	12499
1.28900	12498
1.28967	12497
1.29033	12496
1.29100	12494
1.29167	12493
1.29233	12492
1.29300	12490
1.29367	12489
1.29433	12487
1.29500	12485
1.29567	12483
1.29633	12481
1.29700	12479
1.29767	12477
1.29833	12475
1.29900	12473
1.29967	12470
1.30033	12468
1.30100	12465
1.30167	12462
1.30233	12459
1.30300	12456
1.30367	12453
1.30433	12450
1.30500	12446
1.30567	12443
1.30633	12439
1.30700	12436
1.30767	12432
1.30833	12428
1.30900	12424
1.30967	12420
1.31033	12415
1.31100	12411
1.31167	12407
1.31233	12402
1.31300	12398
1.31367	12393
1.31433	12388
1.31500	12383
1.31567	12378
1.31633	12373
1.31700	12368
1.31767	12363
1.31833	12358
1.31900	12352
1.31967	12347
1.32033	12341
1.32100	12336
1.32167	12330
1.32233	12324
1.32300	12319
1.32367	12313
1.32433	12307
1.32500	12301
1.32567	12295
1.32633	12289
1.32700	12282
1.32767	12276
1.32833	12270
1.32900	12263
1.32967	12257
1.33033	12250
1.33100	12244
1.33167	12237
1.33233	12230
1.33300	12223
1.33367	12216
1.33433	12209
1.33500	12202
1.33567	12195
1.33633	12188
1.33700	12181
1.33767	12173
1.33833	12166
1.33900	12158
1.33967	12151
1.34033	12143
1.34100	12136
1.34167	12128
1.34233	12121
1.34300	12113
1.34367	12105
1.34433	12098
1.34500	12090
1.34567	12082
1.34633	12075
1.34700	12067
1.34767	12059
1.34833	12052
1.34900	12044
1.34967	12037
1.35033	12029
1.35100	12022
1.35167	12014
1.35233	12007
1.35300	12000
1.35367	11993
1.35433	11986
1.35500	11979
1.35567	11972
1.35633	11965
1.35700	11958
1.35767	11951
1.35833	11944
1.35900	11938
1.35967	11931
1.36033	11925
1.36100	11919
1.36167	11912
1.36233	11906
1.36300	11900
1.36367	11894
1.36433	11888
1.36500	11882
1.36567	11876
1.36633	11870
1.36700	11864
1.36767	11859
1.36833	11853
1.36900	11847
1.36967	11842
1.37033	11836
1.37100	11831
1.37167	11825
1.37233	11820
1.37300	11814
1.37367	11809
1.37433	11804
1.37500	11798
1.37567	11793
1.37633	11788
1.37700	11783
1.37767	11778
1.37833	11772
1.37900	11767
1.37967	11762
1.38033	11757
1.38100	11752
1.38167	11747
1.38233	11742
1.38300	11737
1.38367	11732
1.38433	11727
1.38500	11722
1.38567	11717
1.38633	11712
1.38700	11707
1.38767	11702
1.38833	11697
1.38900	11692
1.38967	11687
1.39033	11681
1.39100	11676
1.39167	11671
1.39233	11666
1.39300	11661
1.39367	11656
1.39433	11651
1.39500	11646
1.39567	11641
1.39633	11636
1.39700	11631
1.39767	11626
1.39833	11621
1.39900	11616
1.39967	11611
1.40033	11606
1.40100	11601
1.40167	11596
1.40233	11591
1.40300	11586
1.40367	11581
1.40433	11576
1.40500	11570
1.40567	11565
1.40633	11561
1.40700	11556
1.40767	11551
1.40833	11546
1.40900	11541
1.40967	11536
1.41033	11531
1.41100	11526
1.41167	11521
1.41233	11516
1.41300	11512
1.41367	11507
1.41433	11502
1.41500	11497
1.41567	11492
1.41633	11488
1.41700	11483
1.41767	11478
1.41833	11474
1.41900	11469
1.41967	11464
1.42033	11460
1.42100	11455
1.42167	11450
1.42233	11446
1.42300	11441
1.42367	11436
1.42433	11432
1.42500	11427
1.42567	11422
1.42633	11418
1.42700	11413
1.42767	11409
1.42833	11404
1.42900	11399
1.42967	11395
1.43033	11390
1.43100	11385
1.43167	11381
1.43233	11376
1.43300	11371
1.43367	11367
1.43433	11362
1.43500	11357
1.43567	11353
1.43633	11348
1.43700	11343
1.43767	11339
1.43833	11334
1.43900	11329
1.43967	11325
1.44033	11320
1.44100	11316
1.44167	11311
1.44233	11307
1.44300	11302
1.44367	11298
1.44433	11293
1.44500	11289
1.44567	11284
1.44633	11280
1.44700	11276
1.44767	11271
1.44833	11267
1.44900	11263
1.44967	11258
1.45033	11254
1.45100	11250
1.45167	11245
1.45233	11241
1.45300	11237
1.45367	11232
1.45433	11228
1.45500	11224
1.45567	11219
1.45633	11215
1.45700	11211
1.45767	11207
1.45833	11202
1.45900	11198
1.45967	11194
1.46033	11190
1.46100	11186
1.46167	11181
1.46233	11177
1.46300	11173
1.46367	11169
1.46433	11165
1.46500	11161
1.46567	11157
1.46633	11153
1.46700	11149
1.46767	11145
1.46833	11141
1.46900	11137
1.46967	11133
1.47033	11129
1.47100	11126
1.47167	11122
1.47233	11118
1.47300	11115
1.47367	11111
1.47433	11107
1.47500	11104
1.47567	11100
1.47633	11097
1.47700	11094
1.47767	11090
1.47833	11087
1.47900	11083
1.47967	11080
1.48033	11077
1.48100	11073
1.48167	11070
1.48233	11067
1.48300	11063
1.48367	11060
1.48433	11056
1.48500	11053
1.48567	11049
1.48633	11046
1.48700	11042
1.48767	11039
1.48833	11035
1.48900	11031
1.48967	11028
1.49033	11024
1.49100	11020
1.49167	11017
1.49233	11013
1.49300	11009
1.49367	11005
1.49433	11001
1.49500	10997
1.49567	10993
1.49633	10989
1.49700	10985
1.49767	10981
1.49833	10977
1.49900	10973
1.49967	10968
1.50033	10964
1.50100	10960
1.50167	10956
1.50233	10951
1.50300	10947
1.50367	10943
1.50433	10938
1.50500	10934
1.50567	10930
1.50633	10925
1.50700	10921
1.50767	10916
1.50833	10912
1.50900	10908
1.50967	10903
1.51033	10899
1.51100	10894
1.51167	10890
1.51233	10886
1.51300	10881
1.51367	10877
1.51433	10873
1.51500	10869
1.51567	10864
1.51633	10860
1.51700	10856
1.51767	10852
1.51833	10847
1.51900	10843
1.51967	10839
1.52033	10835
1.52100	10831
1.52167	10827
1.52233	10823
1.52300	10819
1.52367	10815
1.52433	10811
1.52500	10808
1.52567	10804
1.52633	10800
1.52700	10796
1.52767	10793
1.52833	10789
1.52900	10786
1.52967	10782
1.53033	10778
1.53100	10775
1.53167	10771
1.53233	10768
1.53300	10764
1.53367	10761
1.53433	10757
1.53500	10754
1.53567	10751
1.53633	10747
1.53700	10744
1.53767	10740
1.53833	10737
1.53900	10733
1.53967	10730
1.54033	10727
1.54100	10723
1.54167	10720
1.54233	10717
1.54300	10713
1.54367	10710
1.54433	10706
1.54500	10703
1.54567	10700
1.54633	10696
1.54700	10693
1.54767	10690
1.54833	10686
1.54900	10683
1.54967	10679
1.55033	10676
1.55100	10673
1.55167	10669
1.55233	10666
1.55300	10662
1.55367	10659
1.55433	10655
1.55500	10652
1.55567	10648
1.55633	10645
1.55700	10641
1.55767	10638
1.55833	10634
1.55900	10631
1.55967	10627
1.56033	10624
1.56100	10621
1.56167	10617
1.56233	10614
1.56300	10610
1.56367	10607
1.56433	10604
1.56500	10600
1.56567	10597
1.56633	10593
1.56700	10590
1.56767	10587
1.56833	10583
1.56900	10580
1.56967	10577
1.57033	10573
1.57100	10570
1.57167	10567
1.57233	10564
1.57300	10560
1.57367	10557
1.57433	10554
1.57500	10550
1.57567	10547
1.57633	10544
1.57700	10540
1.57767	10537
1.57833	10534
1.57900	10531
1.57967	10528
1.58033	10524
1.58100	10521
1.58167	10518
1.58233	10515
1.58300	10512
1.58367	10509
1.58433	10506
1.58500	10503
1.58567	10500
1.58633	10497
1.58700	10494
1.58767	10491
1.58833	10488
1.58900	10485
1.58967	10482
1.59033	10479
1.59100	10476
1.59167	10473
1.59233	10470
1.59300	10467
1.59367	10464
1.59433	10461
1.59500	10458
1.59567	10455
1.59633	10452
1.59700	10449
1.59767	10446
1.59833	10443
1.59900	10440
1.59967	10437
1.60033	10434
1.60100	10432
1.60167	10429
1.60233	10426
1.60300	10423
1.60367	10420
1.60433	10417
1.60500	10414
1.60567	10411
1.60633	10408
1.60700	10405
1.60767	10403
1.60833	10400
1.60900	10397
1.60967	10394
1.61033	10391
1.61100	10388
1.61167	10385
1.61233	10383
1.61300	10380
1.61367	10377
1.61433	10374
1.61500	10371
1.61567	10368
1.61633	10366
1.61700	10363
1.61767	10360
1.61833	10357
1.61900	10354
1.61967	10351
1.62033	10348
1.62100	10345
1.62167	10342
1.62233	10340
1.62300	10337
1.62367	10334
1.62433	10331
1.62500	10328
1.62567	10325
1.62633	10322
1.62700	10319
1.62767	10316
1.62833	10313
1.62900	10311
1.62967	10308
1.63033	10305
1.63100	10303
1.63167	10300
1.63233	10298
1.63300	10295
1.63367	10293
1.63433	10290
1.63500	10288
1.63567	10286
1.63633	10283
1.63700	10281
1.63767	10279
1.63833	10276
1.63900	10274
1.63967	10271
1.64033	10269
1.64100	10267
1.64167	10265
1.64233	10263
1.64300	10260
1.64367	10258
1.64433	10256
1.64500	10254
1.64567	10252
1.64633	10250
1.64700	10248
1.64767	10246
1.64833	10243
1.64900	10241
1.64967	10239
1.65033	10237
1.65100	10235
1.65167	10234
1.65233	10232
1.65300	10230
1.65367	10228
1.65433	10226
1.65500	10224
1.65567	10222
1.65633	10220
1.65700	10219
1.65767	10217
1.65833	10215
1.65900	10213
1.65967	10211
1.66033	10209
1.66100	10207
1.66167	10205
1.66233	10203
1.66300	10202
1.66367	10200
1.66433	10198
1.66500	10196
1.66567	10194
1.66633	10192
1.66700	10189
1.66767	10187
1.66833	10185
1.66900	10183
1.66967	10180
1.67033	10178
1.67100	10175
1.67167	10173
1.67233	10170
1.67300	10168
1.67367	10165
1.67433	10162
1.67500	10159
1.67567	10157
1.67633	10154
1.67700	10151
1.67767	10148
1.67833	10145
1.67900	10142
1.67967	10139
1.68033	10136
1.68100	10133
1.68167	10130
1.68233	10127
1.68300	10124
1.68367	10121
1.68433	10118
1.68500	10114
1.68567	10111
1.68633	10108
1.68700	10105
1.68767	10101
1.68833	10098
1.68900	10095
1.68967	10092
1.69033	10088
1.69100	10085
1.69167	10082
1.69233	10079
1.69300	10075
1.69367	10072
1.69433	10069
1.69500	10066
1.69567	10063
1.69633	10060
1.69700	10057
1.69767	10053
1.69833	10050
1.69900	10047
1.69967	10044
1.70033	10041
1.70100	10038
1.70167	10035
1.70233	10032
1.70300	10029
1.70367	10026
1.70433	10023
1.70500	10019
1.70567	10016
1.70633	10013
1.70700	10010
1.70767	10007
1.70833	10004
1.70900	10001
1.70967	9998
1.71033	9995
1.71100	9992
1.71167	9989
1.71233	9985
1.71300	9982
1.71367	9979
1.71433	9977
1.71500	9974
1.71567	9971
1.71633	9969
1.71700	9967
1.71767	9965
1.71833	9964
1.71900	9964
1.71967	9964
1.72033	9965
1.72100	9967
1.72167	9971
1.72233	9977
1.72300	9984
1.72367	9995
1.72433	10008
1.72500	10025
1.72567	10047
1.72633	10074
1.72700	10107
1.72767	10148
1.72833	10198
1.72900	10258
1.72967	10330
1.73033	10417
1.73100	10520
1.73167	10643
1.73233	10788
1.73300	10958
1.73367	11158
1.73433	11392
1.73500	11665
1.73567	11981
1.73633	12345
1.73700	12765
1.73767	13245
1.73833	13793
1.73900	14415
1.73967	15120
1.74033	15913
1.74100	16804
1.74167	17801
1.74233	18911
1.74300	20144
1.74367	21510
1.74433	23018
1.74500	24678
1.74567	26499
1.74633	28492
1.74700	30665
1.74767	33028
1.74833	35588
1.74900	38356
1.74967	41338
1.75033	44541
1.75100	47970
1.75167	51632
1.75233	55530
1.75300	59666
1.75367	64040
1.75433	68654
1.75500	73506
1.75567	78591
1.75633	83903
1.75700	89434
1.75767	95172
1.75833	101102
1.75900	107207
1.75967	113471
1.76033	119872
1.76100	126392
1.76167	133008
1.76233	139700
1.76300	146444
1.76367	153215
1.76433	159988
1.76500	166737
1.76567	173434
1.76633	180053
1.76700	186565
1.76767	192943
1.76833	199163
1.76900	205198
1.76967	211025
1.77033	216617
1.77100	221954
1.77167	227016
1.77233	231788
1.77300	236253
1.77367	240403
1.77433	244226
1.77500	247717
1.77567	250869
1.77633	253681
1.77700	256153
1.77767	258286
1.77833	260085
1.77900	261554
1.77967	262700
1.78033	263532
1.78100	264057
1.78167	264287
1.78233	264231
1.78300	263902
1.78367	263312
1.78433	262474
1.78500	261399
1.78567	260103
1.78633	258596
1.78700	256893
1.78767	255007
1.78833	252949
1.78900	250732
1.78967	248369
1.79033	245871
1.79100	243248
1.79167	240513
1.79233	237675
1.79300	234744
1.79367	231731
1.79433	228643
1.79500	225491
1.79567	222281
1.79633	219023
1.79700	215723
1.79767	212389
1.79833	209026
1.79900	205642
1.79967	202242
1.80033	198830
1.80100	195414
1.80167	191996
1.80233	188582
1.80300	185176
1.80367	181781
1.80433	178401
1.80500	175039
1.80567	171699
1.80633	168383
1.80700	165094
1.80767	161834
1.80833	158605
1.80900	155410
1.80967	152250
1.81033	149127
1.81100	146042
1.81167	142997
1.81233	139993
1.81300	137030
1.81367	134111
1.81433	131234
1.81500	128403
1.81567	125615
1.81633	122874
1.81700	120178
1.81767	117528
1.81833	114924
1.81900	112367
1.81967	109856
1.82033	107391
1.82100	104973
1.82167	102602
1.82233	100276
1.82300	97996
1.82367	95762
1.82433	93574
1.82500	91430
1.82567	89331
1.82633	87277
1.82700	85266
1.82767	83299
1.82833	81374
1.82900	79492
1.82967	77652
1.83033	75853
1.83100	74095
1.83167	72377
1.83233	70698
1.83300	69058
1.83367	67457
1.83433	65894
1.83500	64367
1.83567	62878
1.83633	61424
1.83700	60005
1.83767	58621
1.83833	57271
1.83900	55955
1.83967	54671
1.84033	53419
1.84100	52199
1.84167	51009
1.84233	49850
1.84300	48720
1.84367	47620
1.84433	46548
1.84500	45504
1.84567	44487
1.84633	43496
1.84700	42532
1.84767	41593
1.84833	40679
1.84900	39790
1.84967	38924
1.85033	38082
1.85100	37262
1.85167	36465
1.85233	35689
1.85300	34934
1.85367	34200
1.85433	33486
1.85500	32792
1.85567	32117
1.85633	31460
1.85700	30822
1.85767	30201
1.85833	29597
1.85900	29011
1.85967	28441
1.86033	27886
1.86100	27348
1.86167	26824
1.86233	26315
1.86300	25821
1.86367	25340
1.86433	24873
1.86500	24420
1.86567	23979
1.86633	23551
1.86700	23135
1.86767	22730
1.86833	22338
1.86900	21956
1.86967	21585
1.87033	21225
1.87100	20875
1.87167	20536
1.87233	20206
1.87300	19885
1.87367	19573
1.87433	19271
1.87500	18977
1.87567	18692
1.87633	18414
1.87700	18145
1.87767	17884
1.87833	17630
1.87900	17383
1.87967	17144
1.88033	16911
1.88100	16685
1.88167	16466
1.88233	16253
1.88300	16046
1.88367	15845
1.88433	15650
1.88500	15461
1.88567	15277
1.88633	15099
1.88700	14926
1.88767	14758
1.88833	14594
1.88900	14436
1.88967	14282
1.89033	14133
1.89100	13988
1.89167	13848
1.89233	13711
1.89300	13579
1.89367	13451
1.89433	13326
1.89500	13205
1.89567	13088
1.89633	12974
1.89700	12863
1.89767	12756
1.89833	12652
1.89900	12551
1.89967	12453
1.90033	12357
1.90100	12265
1.90167	12175
1.90233	12088
1.90300	12003
1.90367	11921
1.90433	11841
1.90500	11764
1.90567	11689
1.90633	11615
1.90700	11544
1.90767	11475
1.90833	11408
1.90900	11343
1.90967	11279
1.91033	11218
1.91100	11158
1.91167	11100
1.91233	11043
1.91300	10988
1.91367	10935
1.91433	10882
1.91500	10832
1.91567	10783
1.91633	10735
1.91700	10688
1.91767	10642
1.91833	10598
1.91900	10555
1.91967	10513
1.92033	10472
1.92100	10432
1.92167	10393
1.92233	10355
1.92300	10318
1.92367	10282
1.92433	10247
1.92500	10212
1.92567	10179
1.92633	10146
1.92700	10113
1.92767	10082
1.92833	10051
1.92900	10021
1.92967	9992
1.93033	9963
1.93100	9935
1.93167	9907
1.93233	9880
1.93300	9854
1.93367	9828
1.93433	9803
1.93500	9778
1.93567	9754
1.93633	9731
1.93700	9707
1.93767	9685
1.93833	9662
1.93900	9641
1.93967	9619
1.94033	9599
1.94100	9578
1.94167	9558
1.94233	9539
1.94300	9519
1.94367	9501
1.94433	9482
1.94500	9464
1.94567	9447
1.94633	9429
1.94700	9413
1.94767	9396
1.94833	9380
1.94900	9364
1.94967	9348
1.95033	9333
1.95100	9318
1.95167	9303
1.95233	9289
1.95300	9275
1.95367	9261
1.95433	9247
1.95500	9234
1.95567	9221
1.95633	9208
1.95700	9195
1.95767	9183
1.95833	9171
1.95900	9159
1.95967	9148
1.96033	9136
1.96100	9125
1.96167	9114
1.96233	9104
1.96300	9093
1.96367	9083
1.96433	9073
1.96500	9063
1.96567	9053
1.96633	9043
1.96700	9033
1.96767	9024
1.96833	9015
1.96900	9005
1.96967	8996
1.97033	8988
1.97100	8979
1.97167	8971
1.97233	8962
1.97300	8954
1.97367	8946
1.97433	8938
1.97500	8930
1.97567	8922
1.97633	8915
1.97700	8907
1.97767	8900
1.97833	8892
1.97900	8885
1.97967	8878
1.98033	8871
1.98100	8865
1.98167	8858
1.98233	8852
1.98300	8845
1.98367	8839
1.98433	8833
1.98500	8827
1.98567	8821
1.98633	8815
1.98700	8809
1.98767	8804
1.98833	8798
1.98900	8793
1.98967	8787
1.99033	8782
1.99100	8777
1.99167	8772
1.99233	8767
1.99300	8762
1.99367	8757
1.99433	8752
1.99500	8748
1.99567	8743
1.99633	8738
1.99700	8734
1.99767	8729
1.99833	8725
1.99900	8720
1.99967	8716
2.00033	8712
2.00100	8707
2.00167	8703
2.00233	8698
2.00300	8694
2.00367	8689
2.00433	8685
2.00500	8681
2.00567	8676
2.00633	8672
2.00700	8667
2.00767	8663
2.00833	8658
2.00900	8654
2.00967	8649
2.01033	8645
2.01100	8640
2.01167	8636
2.01233	8631
2.01300	8626
2.01367	8621
2.01433	8617
2.01500	8612
2.01567	8607
2.01633	8602
2.01700	8597
2.01767	8592
2.01833	8587
2.01900	8582
2.01967	8577
2.02033	8572
2.02100	8567
2.02167	8562
2.02233	8557
2.02300	8552
2.02367	8547
2.02433	8542
2.02500	8537
2.02567	8532
2.02633	8527
2.02700	8521
2.02767	8516
2.02833	8511
2.02900	8506
2.02967	8501
2.03033	8496
2.03100	8491
2.03167	8486
2.03233	8481
2.03300	8476
2.03367	8471
2.03433	8466
2.03500	8461
2.03567	8456
2.03633	8451
2.03700	8447
2.03767	8442
2.03833	8437
2.03900	8433
2.03967	8428
2.04033	8423
2.04100	8419
2.04167	8414
2.04233	8410
2.04300	8405
2.04367	8401
2.04433	8397
2.04500	8392
2.04567	8388
2.04633	8384
2.04700	8379
2.04767	8375
2.04833	8371
2.04900	8367
2.04967	8362
2.05033	8358
2.05100	8354
2.05167	8350
2.05233	8346
2.05300	8342
2.05367	8338
2.05433	8334
2.05500	8330
2.05567	8326
2.05633	8321
2.05700	8317
2.05767	8313
2.05833	8309
2.05900	8305
2.05967	8301
2.06033	8297
2.06100	8293
2.06167	8289
2.06233	8285
2.06300	8281
2.06367	8277
2.06433	8274
2.06500	8270
2.06567	8266
2.06633	8262
2.06700	8258
2.06767	8254
2.06833	8250
2.06900	8246
2.06967	8242
2.07033	8239
2.07100	8235
2.07167	8231
2.07233	8227
2.07300	8223
2.07367	8219
2.07433	8216
2.07500	8212
2.07567	8208
2.07633	8204
2.07700	8201
2.07767	8197
2.07833	8193
2.07900	8190
2.07967	8186
2.08033	8183
2.08100	8179
2.08167	8176
2.08233	8172
2.08300	8169
2.08367	8165
2.08433	8162
2.08500	8158
2.08567	8155
2.08633	8151
2.08700	8148
2.08767	8144
2.08833	8141
2.08900	8137
2.08967	8133
2.09033	8130
2.09100	8126
2.09167	8123
2.09233	8119
2.09300	8116
2.09367	8112
2.09433	8108
2.09500	8105
2.09567	8102
2.09633	8098
2.09700	8095
2.09767	8091
2.09833	8088
2.09900	8084
2.09967	8081
2.10033	8078
2.10100	8074
2.10167	8071
2.10233	8068
2.10300	8064
2.10367	8061
2.10433	8058
2.10500	8054
2.10567	8051
2.10633	8048
2.10700	8044
2.10767	8041
2.10833	8038
2.10900	8034
2.10967	8031
2.11033	8028
2.11100	8025
2.11167	8021
2.11233	8018
2.11300	8015
2.11367	8012
2.11433	8008
2.11500	8005
2.11567	8002
2.11633	7999
2.11700	7996
2.11767	7992
2.11833	7989
2.11900	7986
2.11967	7983
2.12033	7979
2.12100	7976
2.12167	7972
2.12233	7969
2.12300	7966
2.12367	7962
2.12433	7959
2.12500	7955
2.12567	7952
2.12633	7949
2.12700	7945
2.12767	7942
2.12833	7938
2.12900	7935
2.12967	7932
2.13033	7929
2.13100	7925
2.13167	7922
2.13233	7919
2.13300	7915
2.13367	7912
2.13433	7909
2.13500	7906
2.13567	7902
2.13633	7899
2.13700	7896
2.13767	7893
2.13833	7889
2.13900	7886
2.13967	7883
2.14033	7879
2.14100	7876
2.14167	7873
2.14233	7870
2.14300	7867
2.14367	7864
2.14433	7860
2.14500	7857
2.14567	7854
2.14633	7851
2.14700	7848
2.14767	7845
2.14833	7842
2.14900	7839
2.14967	7837
2.15033	7834
2.15100	7831
2.15167	7828
2.15233	7825
2.15300	7823
2.15367	7820
2.15433	7817
2.15500	7815
2.15567	7812
2.15633	7810
2.15700	7807
2.15767	7805
2.15833	7803
2.15900	7800
2.15967	7798
2.16033	7796
2.16100	7794
2.16167	7792
2.16233	7790
2.16300	7788
2.16367	7786
2.16433	7785
2.16500	7783
2.16567	7781
2.16633	7779
2.16700	7777
2.16767	7776
2.16833	7774
2.16900	7772
2.16967	7770
2.17033	7768
2.17100	7766
2.17167	7765
2.17233	7763
2.17300	7761
2.17367	7759
2.17433	7757
2.17500	7755
2.17567	7753
2.17633	7750
2.17700	7748
2.17767	7746
2.17833	7744
2.17900	7742
2.17967	7739
2.18033	7737
2.18100	7735
2.18167	7732
2.18233	7730
2.18300	7728
2.18367	7725
2.18433	7723
2.18500	7720
2.18567	7718
2.18633	7715
2.18700	7713
2.18767	7710
2.18833	7707
2.18900	7705
2.18967	7702
2.19033	7699
2.19100	7696
2.19167	7693
2.19233	7691
2.19300	7688
2.19367	7685
2.19433	7681
2.19500	7678
2.19567	7675
2.19633	7672
2.19700	7669
2.19767	7665
2.19833	7662
2.19900	7659
2.19967	7656
2.20033	7652
2.20100	7649
2.20167	7646
2.20233	7642
2.20300	7639
2.20367	7636
2.20433	7632
2.20500	7629
2.20567	7626
2.20633	7623
2.20700	7619
2.20767	7616
2.20833	7613
2.20900	7610
2.20967	7607
2.21033	7604
2.21100	7601
2.21167	7598
2.21233	7595
2.21300	7592
2.21367	7589
2.21433	7586
2.21500	7583
2.21567	7580
2.21633	7577
2.21700	7574
2.21767	7572
2.21833	7569
2.21900	7566
2.21967	7563
2.22033	7561
2.22100	7558
2.22167	7555
2.22233	7552
2.22300	7550
2.22367	7547
2.22433	7544
2.22500	7542
2.22567	7539
2.22633	7537
2.22700	7534
2.22767	7532
2.22833	7529
2.22900	7527
2.22967	7524
2.23033	7522
2.23100	7520
2.23167	7517
2.23233	7515
2.23300	7513
2.23367	7510
2.23433	7508
2.23500	7506
2.23567	7504
2.23633	7502
2.23700	7500
2.23767	7498
2.23833	7496
2.23900	7494
2.23967	7492
2.24033	7490
2.24100	7488
2.24167	7486
2.24233	7484
2.24300	7483
2.24367	7481
2.24433	7479
2.24500	7478
2.24567	7476
2.24633	7474
2.24700	7473
2.24767	7471
2.24833	7470
2.24900	7468
2.24967	7467
2.25033	7465
2.25100	7464
2.25167	7462
2.25233	7461
2.25300	7460
2.25367	7458
2.25433	7457
2.25500	7455
2.25567	7454
2.25633	7453
2.25700	7451
2.25767	7450
2.25833	7448
2.25900	7446
2.25967	7445
2.26033	7443
2.26100	7442
2.26167	7440
2.26233	7439
2.26300	7437
2.26367	7435
2.26433	7433
2.26500	7432
2.26567	7430
2.26633	7428
2.26700	7426
2.26767	7425
2.26833	7423
2.26900	7421
2.26967	7419
2.27033	7417
2.27100	7415
2.27167	7413
2.27233	7411
2.27300	7409
2.27367	7407
2.27433	7404
2.27500	7402
2.27567	7400
2.27633	7397
2.27700	7395
2.27767	7392
2.27833	7389
2.27900	7387
2.27967	7384
2.28033	7381
2.28100	7378
2.28167	7375
2.28233	7372
2.28300	7370
2.28367	7367
2.28433	7364
2.28500	7361
2.28567	7358
2.28633	7355
2.28700	7352
2.28767	7349
2.28833	7346
2.28900	7343
2.28967	7340
2.29033	7337
2.29100	7334
2.29167	7331
2.29233	7328
2.29300	7325
2.29367	7322
2.29433	7319
2.29500	7317
2.29567	7314
2.29633	7311
2.29700	7308
2.29767	7305
2.29833	7303
2.29900	7300
2.29967	7297
2.30033	7294
2.30100	7292
2.30167	7289
2.30233	7286
2.30300	7284
2.30367	7281
2.30433	7279
2.30500	7276
2.30567	7274
2.30633	7271
2.30700	7269
2.30767	7266
2.30833	7264
2.30900	7262
2.30967	7259
2.31033	7257
2.31100	7255
2.31167	7253
2.31233	7251
2.31300	7249
2.31367	7247
2.31433	7245
2.31500	7243
2.31567	7241
2.31633	7239
2.31700	7238
2.31767	7236
2.31833	7234
2.31900	7232
2.31967	7230
2.32033	7229
2.32100	7227
2.32167	7225
2.32233	7224
2.32300	7222
2.32367	7221
2.32433	7219
2.32500	7217
2.32567	7216
2.32633	7215
2.32700	7213
2.32767	7212
2.32833	7211
2.32900	7209
2.32967	7208
2.33033	7207
2.33100	7205
2.33167	7204
2.33233	7203
2.33300	7202
2.33367	7200
2.33433	7199
2.33500	7198
2.33567	7197
2.33633	7196
2.33700	7195
2.33767	7193
2.33833	7192
2.33900	7191
2.33967	7190
2.34033	7189
2.34100	7188
2.34167	7187
2.34233	7187
2.34300	7186
2.34367	7185
2.34433	7184
2.34500	7183
2.34567	7182
2.34633	7182
2.34700	7181
2.34767	7180
2.34833	7180
2.34900	7179
2.34967	7178
2.35033	7178
2.35100	7177
2.35167	7177
2.35233	7176
2.35300	7175
2.35367	7175
2.35433	7174
2.35500	7174
2.35567	7173
2.35633	7173
2.35700	7172
2.35767	7172
2.35833	7172
2.35900	7171
2.35967	7171
2.36033	7170
2.36100	7170
2.36167	7170
2.36233	7169
2.36300	7169
2.36367	7168
2.36433	7168
2.36500	7167
2.36567	7167
2.36633	7166
2.36700	7166
2.36767	7165
2.36833	7164
2.36900	7164
2.36967	7163
2.37033	7163
2.37100	7162
2.37167	7161
2.37233	7161
2.37300	7160
2.37367	7159
2.37433	7158
2.37500	7157
2.37567	7156
2.37633	7156
2.37700	7155
2.37767	7154
2.37833	7153
2.37900	7152
2.37967	7151
2.38033	7149
2.38100	7148
2.38167	7147
2.38233	7146
2.38300	7144
2.38367	7143
2.38433	7141
2.38500	7140
2.38567	7138
2.38633	7137
2.38700	7135
2.38767	7134
2.38833	7132
2.38900	7130
2.38967	7129
2.39033	7127
2.39100	7125
2.39167	7123
2.39233	7122
2.39300	7120
2.39367	7118
2.39433	7116
2.39500	7114
2.39567	7113
2.39633	7111
2.39700	7109
2.39767	7107
2.39833	7105
2.39900	7103
2.39967	7101
2.40033	7099
2.40100	7097
2.40167	7096
2.40233	7094
2.40300	7092
2.40367	7090
2.40433	7088
2.40500	7086
2.40567	7084
2.40633	7082
2.40700	7080
2.40767	7078
2.40833	7076
2.40900	7074
2.40967	7072
2.41033	7071
2.41100	7069
2.41167	7067
2.41233	7065
2.41300	7063
2.41367	7061
2.41433	7059
2.41500	7057
2.41567	7056
2.41633	7054
2.41700	7052
2.41767	7050
2.41833	7048
2.41900	7046
2.41967	7044
2.42033	7042
2.42100	7041
2.42167	7039
2.42233	7037
2.42300	7035
2.42367	7033
2.42433	7031
2.42500	7029
2.42567	7027
2.42633	7025
2.42700	7023
2.42767	7021
2.42833	7019
2.42900	7016
2.42967	7014
2.43033	7012
2.43100	7010
2.43167	7008
2.43233	7005
2.43300	7003
2.43367	7001
2.43433	6998
2.43500	6996
2.43567	6993
2.43633	6991
2.43700	6988
2.43767	6985
2.43833	6983
2.43900	6980
2.43967	6977
2.44033	6974
2.44100	6971
2.44167	6968
2.44233	6965
2.44300	6962
2.44367	6959
2.44433	6956
2.44500	6953
2.44567	6950
2.44633	6947
2.44700	6943
2.44767	6940
2.44833	6937
2.44900	6933
2.44967	6930
2.45033	6927
2.45100	6923
2.45167	6920
2.45233	6916
2.45300	6913
2.45367	6909
2.45433	6906
2.45500	6902
2.45567	6899
2.45633	6895
2.45700	6892
2.45767	6888
2.45833	6885
2.45900	6881
2.45967	6877
2.46033	6874
2.46100	6870
2.46167	6867
2.46233	6863
2.46300	6859
2.46367	6856
2.46433	6852
2.46500	6849
2.46567	6845
2.46633	6842
2.46700	6839
2.46767	6835
2.46833	6832
2.46900	6828
2.46967	6825
2.47033	6821
2.47100	6818
2.47167	6815
2.47233	6811
2.47300	6808
2.47367	6804
2.47433	6801
2.47500	6798
2.47567	6794
2.47633	6791
2.47700	6788
2.47767	6784
2.47833	6781
2.47900	6778
2.47967	6774
2.48033	6771
2.48100	6768
2.48167	6765
2.48233	6762
2.48300	6758
2.48367	6755
2.48433	6752
2.48500	6749
2.48567	6746
2.48633	6743
2.48700	6740
2.48767	6737
2.48833	6734
2.48900	6731
2.48967	6728
2.49033	6725
2.49100	6722
2.49167	6720
2.49233	6717
2.49300	6714
2.49367	6711
2.49433	6708
2.49500	6705
2.49567	6703
2.49633	6700
2.49700	6697
2.49767	6694
2.49833	6692
2.49900	6689
2.49967	6686
2.50033	6683
2.50100	6680
2.50167	6677
2.50233	6674
2.50300	6672
2.50367	6669
2.50433	6666
2.50500	6663
2.50567	6660
2.50633	6657
2.50700	6655
2.50767	6652
2.50833	6649
2.50900	6646
2.50967	6643
2.51033	6640
2.51100	6638
2.51167	6635
2.51233	6632
2.51300	6629
2.51367	6626
2.51433	6624
2.51500	6621
2.51567	6618
2.51633	6615
2.51700	6612
2.51767	6610
2.51833	6607
2.51900	6604
2.51967	6601
2.52033	6598
2.52100	6596
2.52167	6593
2.52233	6590
2.52300	6588
2.52367	6585
2.52433	6582
2.52500	6580
2.52567	6577
2.52633	6574
2.52700	6572
2.52767	6569
2.52833	6566
2.52900	6564
2.52967	6561
2.53033	6558
2.53100	6556
2.53167	6553
2.53233	6551
2.53300	6548
2.53367	6545
2.53433	6543
2.53500	6540
2.53567	6538
2.53633	6535
2.53700	6533
2.53767	6530
2.53833	6528
2.53900	6525
2.53967	6523
2.54033	6520
2.54100	6518
2.54167	6515
2.54233	6513
2.54300	6510
2.54367	6508
2.54433	6505
2.54500	6503
2.54567	6500
2.54633	6498
2.54700	6495
2.54767	6493
2.54833	6490
2.54900	6488
2.54967	6485
2.55033	6483
2.55100	6480
2.55167	6478
2.55233	6475
2.55300	6472
2.55367	6470
2.55433	6467
2.55500	6465
2.55567	6462
2.55633	6460
2.55700	6458
2.55767	6455
2.55833	6453
2.55900	6450
2.55967	6448
2.56033	6446
2.56100	6443
2.56167	6441
2.56233	6438
2.56300	6436
2.56367	6434
2.56433	6431
2.56500	6429
2.56567	6426
2.56633	6424
2.56700	6422
2.56767	6420
2.56833	6417
2.56900	6415
2.56967	6413
2.57033	6410
2.57100	6408
2.57167	6406
2.57233	6403
2.57300	6401
2.57367	6399
2.57433	6397
2.57500	6394
2.57567	6392
2.57633	6390
2.57700	6388
2.57767	6386
2.57833	6383
2.57900	6381
2.57967	6379
2.58033	6377
2.58100	6374
2.58167	6372
2.58233	6370
2.58300	6368
2.58367	6365
2.58433	6363
2.58500	6361
2.58567	6359
2.58633	6356
2.58700	6354
2.58767	6352
2.58833	6350
2.58900	6347
2.58967	6345
2.59033	6343
2.59100	6341
2.59167	6339
2.59233	6337
2.59300	6335
2.59367	6333
2.59433	6331
2.59500	6329
2.59567	6327
2.59633	6325
2.59700	6323
2.59767	6321
2.59833	6319
2.59900	6317
2.59967	6315
2.60033	6313
2.60100	6312
2.60167	6310
2.60233	6308
2.60300	6306
2.60367	6304
2.60433	6302
2.60500	6300
2.60567	6299
2.60633	6297
2.60700	6295
2.60767	6293
2.60833	6291
2.60900	6290
2.60967	6288
2.61033	6286
2.61100	6284
2.61167	6283
2.61233	6281
2.61300	6279
2.61367	6277
2.61433	6275
2.61500	6273
2.61567	6272
2.61633	6270
2.61700	6268
2.61767	6266
2.61833	6264
2.61900	6262
2.61967	6260
2.62033	6258
2.62100	6257
2.62167	6255
2.62233	6253
2.62300	6251
2.62367	6249
2.62433	6247
2.62500	6245
2.62567	6244
2.62633	6242
2.62700	6240
2.62767	6238
2.62833	6236
2.62900	6234
2.62967	6232
2.63033	6230
2.63100	6228
2.63167	6226
2.63233	6224
2.63300	6222
2.63367	6220
2.63433	6218
2.63500	6216
2.63567	6214
2.63633	6212
2.63700	6210
2.63767	6208
2.63833	6206
2.63900	6204
2.63967	6202
2.64033	6200
2.64100	6198
2.64167	6196
2.64233	6194
2.64300	6192
2.64367	6190
2.64433	6188
2.64500	6186
2.64567	6183
2.64633	6181
2.64700	6179
2.64767	6177
2.64833	6175
2.64900	6173
2.64967	6171
2.65033	6169
2.65100	6166
2.65167	6164
2.65233	6162
2.65300	6160
2.65367	6158
2.65433	6156
2.65500	6153
2.65567	6151
2.65633	6149
2.65700	6147
2.65767	6144
2.65833	6142
2.65900	6140
2.65967	6138
2.66033	6135
2.66100	6133
2.66167	6131
2.66233	6129
2.66300	6126
2.66367	6124
2.66433	6122
2.66500	6120
2.66567	6117
2.66633	6115
2.66700	6113
2.66767	6111
2.66833	6108
2.66900	6106
2.66967	6104
2.67033	6101
2.67100	6099
2.67167	6097
2.67233	6095
2.67300	6092
2.67367	6090
2.67433	6088
2.67500	6086
2.67567	6083
2.67633	6081
2.67700	6079
2.67767	6077
2.67833	6075
2.67900	6072
2.67967	6070
2.68033	6068
2.68100	6066
2.68167	6064
2.68233	6062
2.68300	6060
2.68367	6058
2.68433	6056
2.68500	6054
2.68567	6052
2.68633	6050
2.68700	6048
2.68767	6046
2.68833	6044
2.68900	6042
2.68967	6040
2.69033	6038
2.69100	6036
2.69167	6034
2.69233	6032
2.69300	6030
2.69367	6028
2.69433	6027
2.69500	6025
2.69567	6023
2.69633	6021
2.69700	6019
2.69767	6017
2.69833	6016
2.69900	6014
2.69967	6012
2.70033	6010
2.70100	6009
2.70167	6007
2.70233	6005
2.70300	6004
2.70367	6002
2.70433	6000
2.70500	5999
2.70567	5997
2.70633	5995
2.70700	5994
2.70767	5992
2.70833	5991
2.70900	5989
2.70967	5987
2.71033	5986
2.71100	5984
2.71167	5983
2.71233	5981
2.71300	5980
2.71367	5978
2.71433	5976
2.71500	5975
2.71567	5973
2.71633	5972
2.71700	5970
2.71767	5969
2.71833	5967
2.71900	5966
2.71967	5964
2.72033	5962
2.72100	5961
2.72167	5959
2.72233	5957
2.72300	5956
2.72367	5954
2.72433	5952
2.72500	5951
2.72567	5949
2.72633	5948
2.72700	5946
2.72767	5945
2.72833	5944
2.72900	5942
2.72967	5941
2.73033	5939
2.73100	5938
2.73167	5936
2.73233	5935
2.73300	5934
2.73367	5932
2.73433	5931
2.73500	5929
2.73567	5928
2.73633	5926
2.73700	5925
2.73767	5923
2.73833	5922
2.73900	5920
2.73967	5919
2.74033	5917
2.74100	5916
2.74167	5914
2.74233	5913
2.74300	5911
2.74367	5910
2.74433	5908
2.74500	5907
2.74567	5906
2.74633	5904
2.74700	5903
2.74767	5901
2.74833	5900
2.74900	5898
2.74967	5897
2.75033	5896
2.75100	5894
2.75167	5893
2.75233	5892
2.75300	5890
2.75367	5889
2.75433	5888
2.75500	5886
2.75567	5885
2.75633	5884
2.75700	5883
2.75767	5882
2.75833	5881
2.75900	5879
2.75967	5878
2.76033	5877
2.76100	5876
2.76167	5875
2.76233	5874
2.76300	5873
2.76367	5872
2.76433	5871
2.76500	5870
2.76567	5869
2.76633	5868
2.76700	5867
2.76767	5866
2.76833	5866
2.76900	5865
2.76967	5864
2.77033	5864
2.77100	5863
2.77167	5862
2.77233	5862
2.77300	5861
2.77367	5861
2.77433	5860
2.77500	5859
2.77567	5859
2.77633	5859
2.77700	5858
2.77767	5858
2.77833	5858
2.77900	5858
2.77967	5858
2.78033	5858
2.78100	5858
2.78167	5858
2.78233	5858
2.78300	5858
2.78367	5858
2.78433	5858
2.78500	5858
2.78567	5858
2.78633	5859
2.78700	5859
2.78767	5859
2.78833	5859
2.78900	5860
2.78967	5860
2.79033	5860
2.79100	5861
2.79167	5861
2.79233	5862
2.79300	5862
2.79367	5863
2.79433	5863
2.79500	5864
2.79567	5864
2.79633	5865
2.79700	5865
2.79767	5866
2.79833	5866
2.79900	5867
2.79967	5868
2.80033	5868
2.80100	5869
2.80167	5869
2.80233	5870
2.80300	5870
2.80367	5870
2.80433	5871
2.80500	5871
2.80567	5872
2.80633	5872
2.80700	5872
2.80767	5873
2.80833	5873
2.80900	5873
2.80967	5873
2.81033	5873
2.81100	5873
2.81167	5873
2.81233	5874
2.81300	5874
2.81367	5874
2.81433	5874
2.81500	5873
2.81567	5873
2.81633	5873
2.81700	5873
2.81767	5873
2.81833	5873
2.81900	5873
2.81967	5873
2.82033	5873
2.82100	5872
2.82167	5872
2.82233	5872
2.82300	5872
2.82367	5871
2.82433	5871
2.82500	5870
2.82567	5870
2.82633	5869
2.82700	5868
2.82767	5868
2.82833	5867
2.82900	5867
2.82967	5866
2.83033	5865
2.83100	5864
2.83167	5864
2.83233	5863
2.83300	5862
2.83367	5862
2.83433	5861
2.83500	5860
2.83567	5859
2.83633	5859
2.83700	5858
2.83767	5857
2.83833	5856
2.83900	5856
2.83967	5855
2.84033	5854
2.84100	5854
2.84167	5853
2.84233	5852
2.84300	5852
2.84367	5851
2.84433	5850
2.84500	5850
2.84567	5849
2.84633	5849
2.84700	5848
2.84767	5848
2.84833	5847
2.84900	5847
2.84967	5846
2.85033	5846
2.85100	5845
2.85167	5845
2.85233	5844
2.85300	5844
2.85367	5844
2.85433	5843
2.85500	5843
2.85567	5843
2.85633	5843
2.85700	5842
2.85767	5842
2.85833	5842
2.85900	5842
2.85967	5842
2.86033	5842
2.86100	5842
2.86167	5842
2.86233	5842
2.86300	5843
2.86367	5843
2.86433	5843
2.86500	5843
2.86567	5844
2.86633	5844
2.86700	5845
2.86767	5845
2.86833	5846
2.86900	5847
2.86967	5847
2.87033	5848
2.87100	5849
2.87167	5850
2.87233	5851
2.87300	5852
2.87367	5853
2.87433	5855
2.87500	5856
2.87567	5858
2.87633	5859
2.87700	5861
2.87767	5863
2.87833	5865
2.87900	5868
2.87967	5870
2.88033	5872
2.88100	5875
2.88167	5878
2.88233	5881
2.88300	5884
2.88367	5887
2.88433	5891
2.88500	5894
2.88567	5898
2.88633	5902
2.88700	5907
2.88767	5911
2.88833	5916
2.88900	5921
2.88967	5926
2.89033	5931
2.89100	5937
2.89167	5942
2.89233	5948
2.89300	5954
2.89367	5960
2.89433	5966
2.89500	5973
2.89567	5979
2.89633	5986
2.89700	5992
2.89767	5999
2.89833	6006
2.89900	6012
2.89967	6019
2.90033	6026
2.90100	6033
2.90167	6040
2.90233	6046
2.90300	6053
2.90367	6060
2.90433	6066
2.90500	6073
2.90567	6079
2.90633	6086
2.90700	6092
2.90767	6098
2.90833	6104
2.90900	6109
2.90967	6115
2.91033	6120
2.91100	6125
2.91167	6129
2.91233	6134
2.91300	6138
2.91367	6141
2.91433	6144
2.91500	6147
2.91567	6150
2.91633	6152
2.91700	6154
2.91767	6155
2.91833	6156
2.91900	6157
2.91967	6157
2.92033	6157
2.92100	6156
2.92167	6155
2.92233	6154
2.92300	6152
2.92367	6150
2.92433	6147
2.92500	6144
2.92567	6141
2.92633	6137
2.92700	6133
2.92767	6129
2.92833	6124
2.92900	6119
2.92967	6114
2.93033	6108
2.93100	6102
2.93167	6096
2.93233	6090
2.93300	6083
2.93367	6076
2.93433	6068
2.93500	6061
2.93567	6053
2.93633	6045
2.93700	6036
2.93767	6028
2.93833	6019
2.93900	6010
2.93967	6001
2.94033	5992
2.94100	5983
2.94167	5974
2.94233	5964
2.94300	5955
2.94367	5946
2.94433	5936
2.94500	5926
2.94567	5917
2.94633	5907
2.94700	5897
2.94767	5887
2.94833	5878
2.94900	5868
2.94967	5858
2.95033	5848
2.95100	5838
2.95167	5828
2.95233	5819
2.95300	5809
2.95367	5799
2.95433	5789
2.95500	5780
2.95567	5771
2.95633	5761
2.95700	5752
2.95767	5743
2.95833	5734
2.95900	5725
2.95967	5716
2.96033	5708
2.96100	5699
2.96167	5691
2.96233	5682
2.96300	5674
2.96367	5666
2.96433	5658
2.96500	5650
2.96567	5642
2.96633	5634
2.96700	5626
2.96767	5619
2.96833	5611
2.96900	5604
2.96967	5597
2.97033	5589
2.97100	5582
2.97167	5575
2.97233	5569
2.97300	5562
2.97367	5555
2.97433	5549
2.97500	5542
2.97567	5536
2.97633	5530
2.97700	5524
2.97767	5518
2.97833	5512
2.97900	5506
2.97967	5500
2.98033	5494
2.98100	5489
2.98167	5484
2.98233	5478
2.98300	5473
2.98367	5468
2.98433	5463
2.98500	5458
2.98567	5453
2.98633	5448
2.98700	5443
2.98767	5438
2.98833	5434
2.98900	5429
2.98967	5424
2.99033	5420
2.99100	5416
2.99167	5411
2.99233	5407
2.99300	5403
2.99367	5399
2.99433	5395
2.99500	5391
2.99567	5387
2.99633	5384
2.99700	5380
2.99767	5376
2.99833	5372
2.99900	5369
2.99967	5365
3.00033	5361
3.00100	5358
3.00167	5354
3.00233	5351
3.00300	5347
3.00367	5344
3.00433	5340
3.00500	5337
3.00567	5334
3.00633	5330
3.00700	5327
3.00767	5324
3.00833	5320
3.00900	5317
3.00967	5314
3.01033	5311
3.01100	5308
3.01167	5304
3.01233	5301
3.01300	5298
3.01367	5295
3.01433	5292
3.01500	5289
3.01567	5286
3.01633	5283
3.01700	5280
3.01767	5277
3.01833	5275
3.01900	5272
3.01967	5269
3.02033	5266
3.02100	5263
3.02167	5260
3.02233	5257
3.02300	5254
3.02367	5251
3.02433	5249
3.02500	5246
3.02567	5243
3.02633	5240
3.02700	5238
3.02767	5235
3.02833	5232
3.02900	5230
3.02967	5227
3.03033	5224
3.03100	5222
3.03167	5219
3.03233	5217
3.03300	5214
3.03367	5212
3.03433	5209
3.03500	5206
3.03567	5204
3.03633	5202
3.03700	5199
3.03767	5197
3.03833	5195
3.03900	5192
3.03967	5190
3.04033	5188
3.04100	5185
3.04167	5183
3.04233	5181
3.04300	5179
3.04367	5177
3.04433	5174
3.04500	5172
3.04567	5170
3.04633	5168
3.04700	5166
3.04767	5164
3.04833	5162
3.04900	5160
3.04967	5158
3.05033	5156
3.05100	5154
3.05167	5152
3.05233	5150
3.05300	5148
3.05367	5146
3.05433	5145
3.05500	5143
3.05567	5141
3.05633	5140
3.05700	5138
3.05767	5136
3.05833	5135
3.05900	5133
3.05967	5132
3.06033	5131
3.06100	5129
3.06167	5128
3.06233	5127
3.06300	5125
3.06367	5124
3.06433	5123
3.06500	5122
3.06567	5121
3.06633	5119
3.06700	5118
3.06767	5117
3.06833	5116
3.06900	5115
3.06967	5114
3.07033	5113
3.07100	5112
3.07167	5111
3.07233	5110
3.07300	5109
3.07367	5108
3.07433	5107
3.07500	5106
3.07567	5105
3.07633	5104
3.07700	5103
3.07767	5102
3.07833	5101
3.07900	5100
3.07967	5099
3.08033	5098
3.08100	5097
3.08167	5097
3.08233	5096
3.08300	5095
3.08367	5094
3.08433	5093
3.08500	5091
3.08567	5090
3.08633	5089
3.08700	5088
3.08767	5087
3.08833	5086
3.08900	5085
3.08967	5084
3.09033	5082
3.09100	5081
3.09167	5080
3.09233	5079
3.09300	5078
3.09367	5076
3.09433	5075
3.09500	5074
3.09567	5072
3.09633	5071
3.09700	5070
3.09767	5069
3.09833	5067
3.09900	5066
3.09967	5065
3.10033	5063
3.10100	5062
3.10167	5060
3.10233	5059
3.10300	5057
3.10367	5056
3.10433	5054
3.10500	5053
3.10567	5051
3.10633	5050
3.10700	5048
3.10767	5047
3.10833	5045
3.10900	5043
3.10967	5041
3.11033	5040
3.11100	5038
3.11167	5036
3.11233	5034
3.11300	5033
3.11367	5031
3.11433	5029
3.11500	5027
3.11567	5025
3.11633	5023
3.11700	5022
3.11767	5020
3.11833	5018
3.11900	5016
3.11967	5014
3.12033	5012
3.12100	5010
3.12167	5008
3.12233	5007
3.12300	5005
3.12367	5003
3.12433	5001
3.12500	4999
3.12567	4997
3.12633	4995
3.12700	4993
3.12767	4991
3.12833	4989
3.12900	4987
3.12967	4985
3.13033	4983
3.13100	4981
3.13167	4979
3.13233	4977
3.13300	4975
3.13367	4973
3.13433	4971
3.13500	4969
3.13567	4967
3.13633	4965
3.13700	4963
3.13767	4961
3.13833	4959
3.13900	4957
3.13967	4955
3.14033	4954
3.14100	4952
3.14167	4950
3.14233	4948
3.14300	4946
3.14367	4944
3.14433	4942
3.14500	4940
3.14567	4938
3.14633	4937
3.14700	4935
3.14767	4933
3.14833	4932
3.14900	4930
3.14967	4928
3.15033	4927
3.15100	4925
3.15167	4923
3.15233	4922
3.15300	4920
3.15367	4919
3.15433	4917
3.15500	4915
3.15567	4914
3.15633	4912
3.15700	4911
3.15767	4909
3.15833	4907
3.15900	4906
3.15967	4904
3.16033	4903
3.16100	4901
3.16167	4899
3.16233	4898
3.16300	4896
3.16367	4895
3.16433	4893
3.16500	4891
3.16567	4890
3.16633	4888
3.16700	4886
3.16767	4885
3.16833	4883
3.16900	4882
3.16967	4880
3.17033	4879
3.17100	4877
3.17167	4876
3.17233	4874
3.17300	4873
3.17367	4871
3.17433	4869
3.17500	4868
3.17567	4866
3.17633	4865
3.17700	4863
3.17767	4862
3.17833	4860
3.17900	4859
3.17967	4857
3.18033	4856
3.18100	4854
3.18167	4852
3.18233	4851
3.18300	4849
3.18367	4848
3.18433	4846
3.18500	4845
3.18567	4843
3.18633	4842
3.18700	4840
3.18767	4839
3.18833	4837
3.18900	4836
3.18967	4834
3.19033	4833
3.19100	4831
3.19167	4830
3.19233	4828
3.19300	4827
3.19367	4825
3.19433	4824
3.19500	4822
3.19567	4821
3.19633	4819
3.19700	4818
3.19767	4816
3.19833	4815
3.19900	4813
3.19967	4812
3.20033	4810
3.20100	4809
3.20167	4807
3.20233	4806
3.20300	4804
3.20367	4803
3.20433	4801
3.20500	4800
3.20567	4798
3.20633	4796
3.20700	4795
3.20767	4793
3.20833	4792
3.20900	4791
3.20967	4789
3.21033	4788
3.21100	4786
3.21167	4785
3.21233	4783
3.21300	4782
3.21367	4781
3.21433	4779
3.21500	4778
3.21567	4777
3.21633	4775
3.21700	4774
3.21767	4773
3.21833	4771
3.21900	4770
3.21967	4769
3.22033	4767
3.22100	4766
3.22167	4765
3.22233	4764
3.22300	4762
3.22367	4761
3.22433	4760
3.22500	4759
3.22567	4758
3.22633	4756
3.22700	4755
3.22767	4754
3.22833	4753
3.22900	4752
3.22967	4750
3.23033	4749
3.23100	4748
3.23167	4747
3.23233	4746
3.23300	4745
3.23367	4743
3.23433	4742
3.23500	4741
3.23567	4740
3.23633	4739
3.23700	4738
3.23767	4736
3.23833	4735
3.23900	4734
3.23967	4733
3.24033	4732
3.24100	4731
3.24167	4729
3.24233	4728
3.24300	4727
3.24367	4726
3.24433	4725
3.24500	4724
3.24567	4723
3.24633	4721
3.24700	4720
3.24767	4719
3.24833	4718
3.24900	4717
3.24967	4716
3.25033	4715
3.25100	4713
3.25167	4712
3.25233	4711
3.25300	4710
3.25367	4709
3.25433	4708
3.25500	4707
3.25567	4705
3.25633	4704
3.25700	4703
3.25767	4702
3.25833	4701
3.25900	4700
3.25967	4699
3.26033	4697
3.26100	4696
3.26167	4695
3.26233	4694
3.26300	4693
3.26367	4692
3.26433	4691
3.26500	4690
3.26567	4689
3.26633	4688
3.26700	4686
3.26767	4685
3.26833	4684
3.26900	4683
3.26967	4682
3.27033	4681
3.27100	4680
3.27167	4679
3.27233	4678
3.27300	4677
3.27367	4676
3.27433	4676
3.27500	4675
3.27567	4674
3.27633	4673
3.27700	4672
3.27767	4671
3.27833	4670
3.27900	4670
3.27967	4669
3.28033	4668
3.28100	4667
3.28167	4666
3.28233	4665
3.28300	4665
3.28367	4664
3.28433	4663
3.28500	4662
3.28567	4661
3.28633	4661
3.28700	4660
3.28767	4659
3.28833	4658
3.28900	4657
3.28967	4656
3.29033	4656
3.29100	4655
3.29167	4654
3.29233	4653
3.29300	4652
3.29367	4651
3.29433	4651
3.29500	4650
3.29567	4649
3.29633	4648
3.29700	4647
3.29767	4646
3.29833	4646
3.29900	4645
3.29967	4644
3.30033	4643
3.30100	4642
3.30167	4642
3.30233	4641
3.30300	4640
3.30367	4639
3.30433	4638
3.30500	4638
3.30567	4637
3.30633	4636
3.30700	4635
3.30767	4635
3.30833	4634
3.30900	4633
3.30967	4632
3.31033	4632
3.31100	4631
3.31167	4630
3.31233	4629
3.31300	4629
3.31367	4628
3.31433	4627
3.31500	4626
3.31567	4626
3.31633	4625
3.31700	4624
3.31767	4623
3.31833	4623
3.31900	4622
3.31967	4621
3.32033	4620
3.32100	4620
3.32167	4619
3.32233	4618
3.32300	4617
3.32367	4617
3.32433	4616
3.32500	4615
3.32567	4614
3.32633	4613
3.32700	4613
3.32767	4612
3.32833	4611
3.32900	4611
3.32967	4610
3.33033	4609
3.33100	4608
3.33167	4608
3.33233	4607
3.33300	4606
3.33367	4605
3.33433	4604
3.33500	4604
3.33567	4603
3.33633	4602
3.33700	4601
3.33767	4600
3.33833	4600
3.33900	4599
3.33967	4598
3.34033	4597
3.34100	4596
3.34167	4595
3.34233	4594
3.34300	4593
3.34367	4592
3.34433	4591
3.34500	4590
3.34567	4590
3.34633	4589
3.34700	4588
3.34767	4587
3.34833	4586
3.34900	4585
3.34967	4584
3.35033	4583
3.35100	4582
3.35167	4581
3.35233	4580
3.35300	4580
3.35367	4579
3.35433	4578
3.35500	4577
3.35567	4576
3.35633	4575
3.35700	4575
3.35767	4574
3.35833	4573
3.35900	4572
3.35967	4571
3.36033	4571
3.36100	4570
3.36167	4569
3.36233	4568
3.36300	4567
3.36367	4567
3.36433	4566
3.36500	4565
3.36567	4564
3.36633	4563
3.36700	4563
3.36767	4562
3.36833	4561
3.36900	4560
3.36967	4560
3.37033	4559
3.37100	4558
3.37167	4557
3.37233	4557
3.37300	4556
3.37367	4555
3.37433	4554
3.37500	4554
3.37567	4553
3.37633	4553
3.37700	4552
3.37767	4551
3.37833	4551
3.37900	4550
3.37967	4550
3.38033	4549
3.38100	4549
3.38167	4548
3.38233	4548
3.38300	4547
3.38367	4547
3.38433	4547
3.38500	4546
3.38567	4546
3.38633	4546
3.38700	4546
3.38767	4546
3.38833	4545
3.38900	4545
3.38967	4545
3.39033	4545
3.39100	4545
3.39167	4545
3.39233	4545
3.39300	4545
3.39367	4545
3.39433	4545
3.39500	4545
3.39567	4545
3.39633	4545
3.39700	4545
3.39767	4545
3.39833	4545
3.39900	4545
3.39967	4545
3.40033	4545
3.40100	4545
3.40167	4545
3.40233	4545
3.40300	4546
3.40367	4546
3.40433	4546
3.40500	4546
3.40567	4547
3.40633	4547
3.40700	4547
3.40767	4548
3.40833	4548
3.40900	4548
3.40967	4549
3.41033	4549
3.41100	4550
3.41167	4550
3.41233	4551
3.41300	4551
3.41367	4552
3.41433	4553
3.41500	4554
3.41567	4555
3.41633	4555
3.41700	4556
3.41767	4557
3.41833	4558
3.41900	4559
3.41967	4560
3.42033	4561
3.42100	4562
3.42167	4563
3.42233	4564
3.42300	4566
3.42367	4567
3.42433	4568
3.42500	4569
3.42567	4570
3.42633	4571
3.42700	4572
3.42767	4574
3.42833	4575
3.42900	4576
3.42967	4578
3.43033	4579
3.43100	4581
3.43167	4583
3.43233	4584
3.43300	4586
3.43367	4588
3.43433	4589
3.43500	4591
3.43567	4593
3.43633	4595
3.43700	4597
3.43767	4599
3.43833	4601
3.43900	4603
3.43967	4605
3.44033	4607
3.44100	4610
3.44167	4612
3.44233	4614
3.44300	4617
3.44367	4619
3.44433	4622
3.44500	4625
3.44567	4627
3.44633	4630
3.44700	4633
3.44767	4636
3.44833	4639
3.44900	4642
3.44967	4645
3.45033	4648
3.45100	4651
3.45167	4654
3.45233	4657
3.45300	4660
3.45367	4663
3.45433	4667
3.45500	4670
3.45567	4674
3.45633	4677
3.45700	4680
3.45767	4684
3.45833	4688
3.45900	4691
3.45967	4695
3.46033	4698
3.46100	4702
3.46167	4706
3.46233	4710
3.46300	4713
3.46367	4717
3.46433	4721
3.46500	4725
3.46567	4729
3.46633	4734
3.46700	4738
3.46767	4742
3.46833	4747
3.46900	4751
3.46967	4756
3.47033	4760
3.47100	4765
3.47167	4769
3.47233	4774
3.47300	4779
3.47367	4784
3.47433	4789
3.47500	4794
3.47567	4800
3.47633	4805
3.47700	4810
3.47767	4816
3.47833	4821
3.47900	4827
3.47967	4833
3.48033	4839
3.48100	4845
3.48167	4851
3.48233	4857
3.48300	4864
3.48367	4870
3.48433	4877
3.48500	4884
3.48567	4891
3.48633	4898
3.48700	4906
3.48767	4914
3.48833	4922
3.48900	4930
3.48967	4939
3.49033	4947
3.49100	4957
3.49167	4966
3.49233	4976
3.49300	4986
3.49367	4997
3.49433	5008
3.49500	5020
3.49567	5032
3.49633	5045
3.49700	5058
3.49767	5073
3.49833	5087
3.49900	5103
3.49967	5119
3.50033	5136
3.50100	5154
3.50167	5173
3.50233	5193
3.50300	5214
3.50367	5236
3.50433	5259
3.50500	5284
3.50567	5309
3.50633	5336
3.50700	5365
3.50767	5395
3.50833	5426
3.50900	5459
3.50967	5493
3.51033	5530
3.51100	5568
3.51167	5608
3.51233	5649
3.51300	5693
3.51367	5739
3.51433	5786
3.51500	5836
3.51567	5888
3.51633	5943
3.51700	5999
3.51767	6059
3.51833	6120
3.51900	6184
3.51967	6251
3.52033	6321
3.52100	6393
3.52167	6468
3.52233	6546
3.52300	6626
3.52367	6710
3.52433	6797
3.52500	6886
3.52567	6979
3.52633	7075
3.52700	7173
3.52767	7275
3.52833	7380
3.52900	7488
3.52967	7600
3.53033	7714
3.53100	7832
3.53167	7953
3.53233	8078
3.53300	8205
3.53367	8336
3.53433	8470
3.53500	8608
3.53567	8748
3.53633	8892
3.53700	9038
3.53767	9188
3.53833	9340
3.53900	9496
3.53967	9654
3.54033	9816
3.54100	9980
3.54167	10146
3.54233	10316
3.54300	10488
3.54367	10662
3.54433	10839
3.54500	11017
3.54567	11198
3.54633	11381
3.54700	11565
3.54767	11752
3.54833	11940
3.54900	12129
3.54967	12319
3.55033	12511
3.55100	12703
3.55167	12896
3.55233	13090
3.55300	13284
3.55367	13478
3.55433	13673
3.55500	13867
3.55567	14061
3.55633	14255
3.55700	14448
3.55767	14640
3.55833	14830
3.55900	15020
3.55967	15207
3.56033	15393
3.56100	15577
3.56167	15759
3.56233	15938
3.56300	16115
3.56367	16288
3.56433	16459
3.56500	16627
3.56567	16792
3.56633	16954
3.56700	17112
3.56767	17266
3.56833	17417
3.56900	17565
3.56967	17708
3.57033	17848
3.57100	17984
3.57167	18116
3.57233	18244
3.57300	18368
3.57367	18487
3.57433	18603
3.57500	18714
3.57567	18822
3.57633	18924
3.57700	19023
3.57767	19117
3.57833	19207
3.57900	19292
3.57967	19373
3.58033	19449
3.58100	19521
3.58167	19589
3.58233	19652
3.58300	19711
3.58367	19766
3.58433	19816
3.58500	19862
3.58567	19905
3.58633	19943
3.58700	19978
3.58767	20009
3.58833	20036
3.58900	20059
3.58967	20079
3.59033	20095
3.59100	20108
3.59167	20118
3.59233	20124
3.59300	20127
3.59367	20127
3.59433	20123
3.59500	20117
3.59567	20107
3.59633	20095
3.59700	20079
3.59767	20061
3.59833	20040
3.59900	20016
3.59967	19990
3.60033	19961
3.60100	19929
3.60167	19895
3.60233	19859
3.60300	19821
3.60367	19781
3.60433	19739
3.60500	19695
3.60567	19648
3.60633	19601
3.60700	19551
3.60767	19500
3.60833	19446
3.60900	19392
3.60967	19336
3.61033	19278
3.61100	19219
3.61167	19159
3.61233	19097
3.61300	19033
3.61367	18968
3.61433	18902
3.61500	18835
3.61567	18766
3.61633	18696
3.61700	18624
3.61767	18551
3.61833	18477
3.61900	18402
3.61967	18325
3.62033	18248
3.62100	18169
3.62167	18089
3.62233	18008
3.62300	17925
3.62367	17842
3.62433	17757
3.62500	17671
3.62567	17584
3.62633	17495
3.62700	17406
3.62767	17316
3.62833	17224
3.62900	17132
3.62967	17038
3.63033	16944
3.63100	16848
3.63167	16752
3.63233	16655
3.63300	16557
3.63367	16458
3.63433	16358
3.63500	16258
3.63567	16156
3.63633	16054
3.63700	15951
3.63767	15848
3.63833	15744
3.63900	15639
3.63967	15534
3.64033	15428
3.64100	15321
3.64167	15214
3.64233	15106
3.64300	14998
3.64367	14890
3.64433	14781
3.64500	14672
3.64567	14562
3.64633	14452
3.64700	14342
3.64767	14232
3.64833	14121
3.64900	14011
3.64967	13900
3.65033	13789
3.65100	13678
3.65167	13567
3.65233	13456
3.65300	13345
3.65367	13235
3.65433	13125
3.65500	13015
3.65567	12905
3.65633	12795
3.65700	12686
3.65767	12578
3.65833	12470
3.65900	12362
3.65967	12255
3.66033	12148
3.66100	12042
3.66167	11936
3.66233	11831
3.66300	11727
3.66367	11623
3.66433	11520
3.66500	11418
3.66567	11317
3.66633	11216
3.66700	11116
3.66767	11017
3.66833	10919
3.66900	10822
3.66967	10726
3.67033	10631
3.67100	10536
3.67167	10443
3.67233	10350
3.67300	10259
3.67367	10169
3.67433	10079
3.67500	9991
3.67567	9904
3.67633	9818
3.67700	9733
3.67767	9649
3.67833	9566
3.67900	9484
3.67967	9404
3.68033	9324
3.68100	9246
3.68167	9168
3.68233	9092
3.68300	9017
3.68367	8943
3.68433	8870
3.68500	8798
3.68567	8728
3.68633	8658
3.68700	8589
3.68767	8522
3.68833	8455
3.68900	8390
3.68967	8325
3.69033	8262
3.69100	8200
3.69167	8138
3.69233	8078
3.69300	8019
3.69367	7960
3.69433	7903
3.69500	7847
3.69567	7791
3.69633	7737
3.69700	7684
3.69767	7631
3.69833	7580
3.69900	7529
3.69967	7479
3.70033	7430
3.70100	7382
3.70167	7335
3.70233	7289
3.70300	7243
3.70367	7199
3.70433	7155
3.70500	7112
3.70567	7069
3.70633	7028
3.70700	6987
3.70767	6947
3.70833	6908
3.70900	6869
3.70967	6832
3.71033	6795
3.71100	6758
3.71167	6723
3.71233	6688
3.71300	6653
3.71367	6619
3.71433	6586
3.71500	6554
3.71567	6522
3.71633	6491
3.71700	6460
3.71767	6430
3.71833	6401
3.71900	6372
3.71967	6344
3.72033	6316
3.72100	6288
3.72167	6262
3.72233	6236
3.72300	6210
3.72367	6185
3.72433	6160
3.72500	6136
3.72567	6112
3.72633	6088
3.72700	6065
3.72767	6043
3.72833	6021
3.72900	5999
3.72967	5978
3.73033	5957
3.73100	5936
3.73167	5916
3.73233	5896
3.73300	5877
3.73367	5857
3.73433	5839
3.73500	5820
3.73567	5802
3.73633	5784
3.73700	5767
3.73767	5750
3.73833	5733
3.73900	5716
3.73967	5700
3.74033	5684
3.74100	5669
3.74167	5653
3.74233	5638
3.74300	5624
3.74367	5609
3.74433	5595
3.74500	5581
3.74567	5568
3.74633	5554
3.74700	5541
3.74767	5528
3.74833	5515
3.74900	5503
3.74967	5491
3.75033	5479
3.75100	5467
3.75167	5455
3.75233	5444
3.75300	5432
3.75367	5421
3.75433	5410
3.75500	5400
3.75567	5389
3.75633	5379
3.75700	5368
3.75767	5358
3.75833	5348
3.75900	5339
3.75967	5329
3.76033	5319
3.76100	5310
3.76167	5301
3.76233	5292
3.76300	5283
3.76367	5274
3.76433	5265
3.76500	5257
3.76567	5248
3.76633	5240
3.76700	5232
3.76767	5224
3.76833	5216
3.76900	5208
3.76967	5200
3.77033	5193
3.77100	5185
3.77167	5178
3.77233	5171
3.77300	5164
3.77367	5157
3.77433	5150
3.77500	5143
3.77567	5137
3.77633	5130
3.77700	5124
3.77767	5117
3.77833	5111
3.77900	5105
3.77967	5099
3.78033	5093
3.78100	5087
3.78167	5081
3.78233	5075
3.78300	5069
3.78367	5064
3.78433	5058
3.78500	5053
3.78567	5047
3.78633	5042
3.78700	5037
3.78767	5031
3.78833	5026
3.78900	5021
3.78967	5016
3.79033	5011
3.79100	5006
3.79167	5002
3.79233	4997
3.79300	4992
3.79367	4987
3.79433	4983
3.79500	4978
3.79567	4974
3.79633	4969
3.79700	4965
3.79767	4960
3.79833	4956
3.79900	4951
3.79967	4947
3.80033	4943
3.80100	4939
3.80167	4934
3.80233	4930
3.80300	4926
3.80367	4922
3.80433	4918
3.80500	4914
3.80567	4910
3.80633	4906
3.80700	4902
3.80767	4898
3.80833	4894
3.80900	4890
3.80967	4886
3.81033	4882
3.81100	4878
3.81167	4874
3.81233	4871
3.81300	4867
3.81367	4863
3.81433	4859
3.81500	4856
3.81567	4852
3.81633	4849
3.81700	4845
3.81767	4842
3.81833	4838
3.81900	4835
3.81967	4831
3.82033	4828
3.82100	4824
3.82167	4821
3.82233	4818
3.82300	4814
3.82367	4811
3.82433	4808
3.82500	4804
3.82567	4801
3.82633	4797
3.82700	4794
3.82767	4791
3.82833	4787
3.82900	4784
3.82967	4781
3.83033	4777
3.83100	4774
3.83167	4771
3.83233	4768
3.83300	4764
3.83367	4761
3.83433	4758
3.83500	4755
3.83567	4752
3.83633	4749
3.83700	4745
3.83767	4742
3.83833	4739
3.83900	4736
3.83967	4733
3.84033	4729
3.84100	4726
3.84167	4723
3.84233	4720
3.84300	4717
3.84367	4714
3.84433	4711
3.84500	4707
3.84567	4704
3.84633	4701
3.84700	4699
3.84767	4696
3.84833	4693
3.84900	4690
3.84967	4687
3.85033	4684
3.85100	4681
3.85167	4678
3.85233	4676
3.85300	4673
3.85367	4670
3.85433	4667
3.85500	4664
3.85567	4662
3.85633	4659
3.85700	4656
3.85767	4654
3.85833	4651
3.85900	4648
3.85967	4646
3.86033	4643
3.86100	4641
3.86167	4638
3.86233	4636
3.86300	4633
3.86367	4631
3.86433	4629
3.86500	4626
3.86567	4624
3.86633	4621
3.86700	4619
3.86767	4616
3.86833	4614
3.86900	4612
3.86967	4609
3.87033	4607
3.87100	4604
3.87167	4602
3.87233	4600
3.87300	4597
3.87367	4595
3.87433	4593
3.87500	4590
3.87567	4588
3.87633	4586
3.87700	4583
3.87767	4581
3.87833	4579
3.87900	4577
3.87967	4575
3.88033	4572
3.88100	4570
3.88167	4568
3.88233	4566
3.88300	4564
3.88367	4562
3.88433	4560
3.88500	4558
3.88567	4556
3.88633	4553
3.88700	4551
3.88767	4549
3.88833	4547
3.88900	4545
3.88967	4543
3.89033	4541
3.89100	4539
3.89167	4537
3.89233	4535
3.89300	4533
3.89367	4531
3.89433	4529
3.89500	4527
3.89567	4525
3.89633	4523
3.89700	4521
3.89767	4519
3.89833	4517
3.89900	4515
3.89967	4513
3.90033	4511
3.90100	4509
3.90167	4507
3.90233	4505
3.90300	4503
3.90367	4501
3.90433	4499
3.90500	4497
3.90567	4495
3.90633	4493
3.90700	4492
3.90767	4490
3.90833	4488
3.90900	4486
3.90967	4484
3.91033	4482
3.91100	4480
3.91167	4478
3.91233	4476
3.91300	4474
3.91367	4473
3.91433	4471
3.91500	4469
3.91567	4467
3.91633	4465
3.91700	4463
3.91767	4461
3.91833	4460
3.91900	4458
3.91967	4456
3.92033	4454
3.92100	4453
3.92167	4451
3.92233	4449
3.92300	4447
3.92367	4446
3.92433	4444
3.92500	4442
3.92567	4440
3.92633	4439
3.92700	4437
3.92767	4435
3.92833	4434
3.92900	4432
3.92967	4430
3.93033	4429
3.93100	4427
3.93167	4425
3.93233	4424
3.93300	4422
3.93367	4420
3.93433	4418
3.93500	4417
3.93567	4415
3.93633	4413
3.93700	4412
3.93767	4410
3.93833	4408
3.93900	4407
3.93967	4405
3.94033	4403
3.94100	4402
3.94167	4400
3.94233	4398
3.94300	4397
3.94367	4395
3.94433	4394
3.94500	4392
3.94567	4391
3.94633	4390
3.94700	4388
3.94767	4387
3.94833	4385
3.94900	4384
3.94967	4383
3.95033	4381
3.95100	4380
3.95167	4378
3.95233	4377
3.95300	4375
3.95367	4374
3.95433	4373
3.95500	4371
3.95567	4370
3.95633	4368
3.95700	4367
3.95767	4366
3.95833	4364
3.95900	4363
3.95967	4362
3.96033	4360
3.96100	4359
3.96167	4358
3.96233	4356
3.96300	4355
3.96367	4354
3.96433	4352
3.96500	4351
3.96567	4350
3.96633	4349
3.96700	4347
3.96767	4346
3.96833	4345
3.96900	4344
3.96967	4343
3.97033	4341
3.97100	4340
3.97167	4339
3.97233	4338
3.97300	4337
3.97367	4336
3.97433	4335
3.97500	4334
3.97567	4333
3.97633	4332
3.97700	4331
3.97767	4330
3.97833	4329
3.97900	4328
3.97967	4327
3.98033	4326
3.98100	4325
3.98167	4324
3.98233	4323
3.98300	4322
3.98367	4321
3.98433	4320
3.98500	4319
3.98567	4318
3.98633	4317
3.98700	4316
3.98767	4315
3.98833	4314
3.98900	4313
3.98967	4312
3.99033	4311
3.99100	4310
3.99167	4309
3.99233	4308
3.99300	4308
3.99367	4307
3.99433	4306
3.99500	4305
3.99567	4304
3.99633	4303
3.99700	4302
3.99767	4302
3.99833	4301
3.99900	4300
3.99967	4299
4.00033	4298
4.00100	4297
4.00167	4297
4.00233	4296
4.00300	4295
4.00367	4294
4.00433	4294
4.00500	4293
4.00567	4292
4.00633	4292
4.00700	4291
4.00767	4290
4.00833	4290
4.00900	4289
4.00967	4289
4.01033	4288
4.01100	4288
4.01167	4287
4.01233	4287
4.01300	4286
4.01367	4286
4.01433	4286
4.01500	4285
4.01567	4285
4.01633	4285
4.01700	4285
4.01767	4284
4.01833	4284
4.01900	4284
4.01967	4284
4.02033	4284
4.02100	4284
4.02167	4284
4.02233	4283
4.02300	4283
4.02367	4283
4.02433	4283
4.02500	4283
4.02567	4283
4.02633	4283
4.02700	4283
4.02767	4283
4.02833	4283
4.02900	4284
4.02967	4284
4.03033	4284
4.03100	4284
4.03167	4285
4.03233	4285
4.03300	4286
4.03367	4286
4.03433	4287
4.03500	4287
4.03567	4288
4.03633	4288
4.03700	4289
4.03767	4290
4.03833	4290
4.03900	4291
4.03967	4292
4.04033	4293
4.04100	4294
4.04167	4295
4.04233	4296
4.04300	4298
4.04367	4299
4.04433	4300
4.04500	4302
4.04567	4303
4.04633	4305
4.04700	4306
4.04767	4308
4.04833	4310
4.04900	4312
4.04967	4313
4.05033	4315
4.05100	4317
4.05167	4320
4.05233	4322
4.05300	4324
4.05367	4327
4.05433	4329
4.05500	4332
4.05567	4334
4.05633	4337
4.05700	4340
4.05767	4343
4.05833	4346
4.05900	4350
4.05967	4353
4.06033	4356
4.06100	4360
4.06167	4364
4.06233	4368
4.06300	4372
4.06367	4376
4.06433	4381
4.06500	4385
4.06567	4390
4.06633	4395
4.06700	4400
4.06767	4406
4.06833	4411
4.06900	4417
4.06967	4423
4.07033	4429
4.07100	4435
4.07167	4442
4.07233	4448
4.07300	4455
4.07367	4463
4.07433	4470
4.07500	4478
4.07567	4485
4.07633	4494
4.07700	4502
4.07767	4511
4.07833	4519
4.07900	4528
4.07967	4538
4.08033	4547
4.08100	4557
4.08167	4567
4.08233	4578
4.08300	4589
4.08367	4600
4.08433	4611
4.08500	4622
4.08567	4634
4.08633	4646
4.08700	4658
4.08767	4670
4.08833	4683
4.08900	4696
4.08967	4709
4.09033	4723
4.09100	4736
4.09167	4750
4.09233	4764
4.09300	4778
4.09367	4793
4.09433	4808
4.09500	4823
4.09567	4838
4.09633	4853
4.09700	4869
4.09767	4885
4.09833	4901
4.09900	4917
4.09967	4934
4.10033	4950
4.10100	4967
4.10167	4984
4.10233	5000
4.10300	5017
4.10367	5034
4.10433	5052
4.10500	5069
4.10567	5086
4.10633	5104
4.10700	5121
4.10767	5138
4.10833	5156
4.10900	5173
4.10967	5191
4.11033	5208
4.11100	5225
4.11167	5243
4.11233	5260
4.11300	5277
4.11367	5294
4.11433	5311
4.11500	5328
4.11567	5344
4.11633	5361
4.11700	5377
4.11767	5393
4.11833	5409
4.11900	5425
4.11967	5441
4.12033	5456
4.12100	5471
4.12167	5486
4.12233	5501
4.12300	5515
4.12367	5529
4.12433	5543
4.12500	5557
4.12567	5570
4.12633	5583
4.12700	5595
4.12767	5607
4.12833	5619
4.12900	5631
4.12967	5642
4.13033	5653
4.13100	5663
4.13167	5673
4.13233	5683
4.13300	5692
4.13367	5701
4.13433	5710
4.13500	5718
4.13567	5725
4.13633	5733
4.13700	5740
4.13767	5746
4.13833	5752
4.13900	5757
4.13967	5763
4.14033	5767
4.14100	5771
4.14167	5775
4.14233	5779
4.14300	5782
4.14367	5784
4.14433	5786
4.14500	5788
4.14567	5789
4.14633	5789
4.14700	5790
4.14767	5790
4.14833	5789
4.14900	5788
4.14967	5787
4.15033	5785
4.15100	5783
4.15167	5781
4.15233	5778
4.15300	5775
4.15367	5771
4.15433	5767
4.15500	5763
4.15567	5758
4.15633	5753
4.15700	5748
4.15767	5742
4.15833	5736
4.15900	5730
4.15967	5723
4.16033	5717
4.16100	5709
4.16167	5702
4.16233	5694
4.16300	5687
4.16367	5679
4.16433	5670
4.16500	5662
4.16567	5653
4.16633	5644
4.16700	5635
4.16767	5626
4.16833	5617
4.16900	5607
4.16967	5598
4.17033	5588
4.17100	5578
4.17167	5568
4.17233	5558
4.17300	5548
4.17367	5537
4.17433	5527
4.17500	5517
4.17567	5506
4.17633	5496
4.17700	5486
4.17767	5475
4.17833	5465
4.17900	5454
4.17967	5444
4.18033	5433
4.18100	5423
4.18167	5412
4.18233	5402
4.18300	5391
4.18367	5381
4.18433	5370
4.18500	5360
4.18567	5350
4.18633	5340
4.18700	5329
4.18767	5320
4.18833	5310
4.18900	5300
4.18967	5290
4.19033	5281
4.19100	5271
4.19167	5262
4.19233	5253
4.19300	5244
4.19367	5235
4.19433	5227
4.19500	5218
4.19567	5210
4.19633	5202
4.19700	5194
4.19767	5186
4.19833	5179
4.19900	5171
4.19967	5164
4.20033	5157
4.20100	5151
4.20167	5144
4.20233	5138
4.20300	5132
4.20367	5126
4.20433	5121
4.20500	5116
4.20567	5111
4.20633	5106
4.20700	5102
4.20767	5098
4.20833	5094
4.20900	5091
4.20967	5088
4.21033	5085
4.21100	5082
4.21167	5080
4.21233	5079
4.21300	5077
4.21367	5076
4.21433	5076
4.21500	5076
4.21567	5076
4.21633	5077
4.21700	5078
4.21767	5080
4.21833	5082
4.21900	5084
4.21967	5087
4.22033	5091
4.22100	5095
4.22167	5099
4.22233	5104
4.22300	5110
4.22367	5116
4.22433	5123
4.22500	5130
4.22567	5138
4.22633	5146
4.22700	5156
4.22767	5165
4.22833	5176
4.22900	5186
4.22967	5198
4.23033	5210
4.23100	5223
4.23167	5237
4.23233	5251
4.23300	5266
4.23367	5282
4.23433	5298
4.23500	5315
4.23567	5332
4.23633	5351
4.23700	5370
4.23767	5390
4.23833	5410
4.23900	5431
4.23967	5453
4.24033	5476
4.24100	5500
4.24167	5524
4.24233	5549
4.24300	5575
4.24367	5602
4.24433	5630
4.24500	5658
4.24567	5688
4.24633	5718
4.24700	5749
4.24767	5781
4.24833	5814
4.24900	5848
4.24967	5882
4.25033	5918
4.25100	5954
4.25167	5991
4.25233	6029
4.25300	6068
4.25367	6108
4.25433	6149
4.25500	6190
4.25567	6233
4.25633	6276
4.25700	6320
4.25767	6366
4.25833	6412
4.25900	6459
4.25967	6507
4.26033	6556
4.26100	6605
4.26167	6656
4.26233	6707
4.26300	6760
4.26367	6813
4.26433	6866
4.26500	6921
4.26567	6976
4.26633	7032
4.26700	7089
4.26767	7147
4.26833	7206
4.26900	7265
4.26967	7325
4.27033	7386
4.27100	7448
4.27167	7510
4.27233	7574
4.27300	7638
4.27367	7703
4.27433	7768
4.27500	7835
4.27567	7902
4.27633	7969
4.27700	8037
4.27767	8106
4.27833	8176
4.27900	8246
4.27967	8316
4.28033	8387
4.28100	8458
4.28167	8530
4.28233	8603
4.28300	8675
4.28367	8749
4.28433	8822
4.28500	8896
4.28567	8970
4.28633	9045
4.28700	9120
4.28767	9196
4.28833	9271
4.28900	9347
4.28967	9424
4.29033	9500
4.29100	9577
4.29167	9655
4.29233	9732
4.29300	9810
4.29367	9888
4.29433	9966
4.29500	10044
4.29567	10122
4.29633	10201
4.29700	10279
4.29767	10358
4.29833	10437
4.29900	10515
4.29967	10594
4.30033	10673
4.30100	10751
4.30167	10829
4.30233	10907
4.30300	10985
4.30367	11062
4.30433	11139
4.30500	11216
4.30567	11293
4.30633	11369
4.30700	11444
4.30767	11519
4.30833	11594
4.30900	11668
4.30967	11741
4.31033	11814
4.31100	11886
4.31167	11958
4.31233	12029
4.31300	12100
4.31367	12169
4.31433	12238
4.31500	12306
4.31567	12373
4.31633	12439
4.31700	12505
4.31767	12569
4.31833	12633
4.31900	12696
4.31967	12757
4.32033	12818
4.32100	12877
4.32167	12936
4.32233	12994
4.32300	13050
4.32367	13105
4.32433	13160
4.32500	13213
4.32567	13265
4.32633	13316
4.32700	13366
4.32767	13415
4.32833	13462
4.32900	13508
4.32967	13553
4.33033	13597
4.33100	13639
4.33167	13679
4.33233	13719
4.33300	13756
4.33367	13793
4.33433	13828
4.33500	13861
4.33567	13893
4.33633	13923
4.33700	13951
4.33767	13978
4.33833	14004
4.33900	14027
4.33967	14050
4.34033	14070
4.34100	14089
4.34167	14106
4.34233	14122
4.34300	14135
4.34367	14148
4.34433	14158
4.34500	14168
4.34567	14175
4.34633	14181
4.34700	14186
4.34767	14188
4.34833	14190
4.34900	14189
4.34967	14187
4.35033	14184
4.35100	14179
4.35167	14172
4.35233	14163
4.35300	14154
4.35367	14142
4.35433	14129
4.35500	14115
4.35567	14099
4.35633	14081
4.35700	14062
4.35767	14042
4.35833	14020
4.35900	13997
4.35967	13972
4.36033	13947
4.36100	13919
4.36167	13891
4.36233	13861
4.36300	13830
4.36367	13798
4.36433	13764
4.36500	13730
4.36567	13694
4.36633	13657
4.36700	13618
4.36767	13579
4.36833	13539
4.36900	13497
4.36967	13455
4.37033	13411
4.37100	13367
4.37167	13321
4.37233	13275
4.37300	13228
4.37367	13180
4.37433	13132
4.37500	13082
4.37567	13032
4.37633	12982
4.37700	12930
4.37767	12878
4.37833	12825
4.37900	12772
4.37967	12719
4.38033	12664
4.38100	12610
4.38167	12554
4.38233	12499
4.38300	12443
4.38367	12387
4.38433	12330
4.38500	12273
4.38567	12216
4.38633	12158
4.38700	12101
4.38767	12043
4.38833	11985
4.38900	11927
4.38967	11869
4.39033	11810
4.39100	11752
4.39167	11694
4.39233	11636
4.39300	11578
4.39367	11519
4.39433	11461
4.39500	11404
4.39567	11346
4.39633	11288
4.39700	11231
4.39767	11174
4.39833	11117
4.39900	11061
4.39967	11004
4.40033	10948
4.40100	10893
4.40167	10837
4.40233	10782
4.40300	10728
4.40367	10674
4.40433	10620
4.40500	10567
4.40567	10514
4.40633	10461
4.40700	10409
4.40767	10358
4.40833	10307
4.40900	10256
4.40967	10206
4.41033	10157
4.41100	10107
4.41167	10059
4.41233	10011
4.41300	9964
4.41367	9917
4.41433	9871
4.41500	9825
4.41567	9780
4.41633	9735
4.41700	9692
4.41767	9648
4.41833	9606
4.41900	9564
4.41967	9523
4.42033	9482
4.42100	9442
4.42167	9403
4.42233	9364
4.42300	9326
4.42367	9288
4.42433	9252
4.42500	9215
4.42567	9180
4.42633	9145
4.42700	9111
4.42767	9077
4.42833	9044
4.42900	9012
4.42967	8980
4.43033	8949
4.43100	8919
4.43167	8889
4.43233	8860
4.43300	8832
4.43367	8804
4.43433	8777
4.43500	8750
4.43567	8724
4.43633	8699
4.43700	8674
4.43767	8650
4.43833	8627
4.43900	8604
4.43967	8582
4.44033	8561
4.44100	8540
4.44167	8520
4.44233	8500
4.44300	8482
4.44367	8463
4.44433	8446
4.44500	8429
4.44567	8413
4.44633	8397
4.44700	8383
4.44767	8368
4.44833	8355
4.44900	8342
4.44967	8330
4.45033	8318
4.45100	8307
4.45167	8297
4.45233	8287
4.45300	8278
4.45367	8270
4.45433	8262
4.45500	8255
4.45567	8249
4.45633	8243
4.45700	8238
4.45767	8233
4.45833	8229
4.45900	8226
4.45967	8223
4.46033	8220
4.46100	8219
4.46167	8218
4.46233	8217
4.46300	8217
4.46367	8218
4.46433	8219
4.46500	8220
4.46567	8222
4.46633	8225
4.46700	8228
4.46767	8231
4.46833	8235
4.46900	8240
4.46967	8245
4.47033	8250
4.47100	8256
4.47167	8262
4.47233	8269
4.47300	8276
4.47367	8284
4.47433	8292
4.47500	8300
4.47567	8308
4.47633	8317
4.47700	8326
4.47767	8336
4.47833	8345
4.47900	8355
4.47967	8365
4.48033	8376
4.48100	8386
4.48167	8397
4.48233	8408
4.48300	8419
4.48367	8431
4.48433	8442
4.48500	8453
4.48567	8465
4.48633	8477
4.48700	8489
4.48767	8501
4.48833	8513
4.48900	8525
4.48967	8537
4.49033	8549
4.49100	8561
4.49167	8573
4.49233	8585
4.49300	8597
4.49367	8610
4.49433	8622
4.49500	8633
4.49567	8645
4.49633	8657
4.49700	8668
4.49767	8680
4.49833	8691
4.49900	8702
4.49967	8712
4.50033	8723
4.50100	8733
4.50167	8743
4.50233	8753
4.50300	8763
4.50367	8772
4.50433	8781
4.50500	8790
4.50567	8799
4.50633	8807
4.50700	8815
4.50767	8823
4.50833	8830
4.50900	8837
4.50967	8843
4.51033	8849
4.51100	8855
4.51167	8861
4.51233	8866
4.51300	8871
4.51367	8875
4.51433	8879
4.51500	8882
4.51567	8885
4.51633	8888
4.51700	8890
4.51767	8892
4.51833	8893
4.51900	8894
4.51967	8895
4.52033	8895
4.52100	8895
4.52167	8894
4.52233	8893
4.52300	8891
4.52367	8889
4.52433	8886
4.52500	8883
4.52567	8880
4.52633	8876
4.52700	8872
4.52767	8868
4.52833	8863
4.52900	8857
4.52967	8851
4.53033	8845
4.53100	8839
4.53167	8832
4.53233	8824
4.53300	8817
4.53367	8809
4.53433	8800
4.53500	8791
4.53567	8782
4.53633	8773
4.53700	8763
4.53767	8753
4.53833	8742
4.53900	8732
4.53967	8721
4.54033	8710
4.54100	8698
4.54167	8686
4.54233	8675
4.54300	8663
4.54367	8650
4.54433	8638
4.54500	8626
4.54567	8613
4.54633	8600
4.54700	8587
4.54767	8574
4.54833	8561
4.54900	8548
4.54967	8534
4.55033	8520
4.55100	8507
4.55167	8493
4.55233	8479
4.55300	8465
4.55367	8451
4.55433	8436
4.55500	8422
4.55567	8407
4.55633	8393
4.55700	8378
4.55767	8364
4.55833	8349
4.55900	8334
4.55967	8319
4.56033	8304
4.56100	8290
4.56167	8275
4.56233	8260
4.56300	8245
4.56367	8230
4.56433	8215
4.56500	8201
4.56567	8186
4.56633	8171
4.56700	8157
4.56767	8142
4.56833	8128
4.56900	8113
4.56967	8099
4.57033	8084
4.57100	8070
4.57167	8056
4.57233	8041
4.57300	8027
4.57367	8013
4.57433	7999
4.57500	7984
4.57567	7970
4.57633	7956
4.57700	7942
4.57767	7928
4.57833	7914
4.57900	7900
4.57967	7886
4.58033	7872
4.58100	7859
4.58167	7845
4.58233	7832
4.58300	7818
4.58367	7805
4.58433	7792
4.58500	7778
4.58567	7765
4.58633	7752
4.58700	7739
4.58767	7726
4.58833	7713
4.58900	7700
4.58967	7687
4.59033	7675
4.59100	7662
4.59167	7649
4.59233	7637
4.59300	7624
4.59367	7612
4.59433	7599
4.59500	7587
4.59567	7574
4.59633	7562
4.59700	7550
4.59767	7538
4.59833	7526
4.59900	7513
4.59967	7501
4.60033	7490
4.60100	7478
4.60167	7466
4.60233	7454
4.60300	7442
4.60367	7430
4.60433	7419
4.60500	7407
4.60567	7396
4.60633	7384
4.60700	7373
4.60767	7361
4.60833	7350
4.60900	7339
4.60967	7327
4.61033	7316
4.61100	7305
4.61167	7293
4.61233	7282
4.61300	7271
4.61367	7260
4.61433	7249
4.61500	7238
4.61567	7227
4.61633	7215
4.61700	7204
4.61767	7193
4.61833	7182
4.61900	7172
4.61967	7161
4.62033	7150
4.62100	7139
4.62167	7128
4.62233	7117
4.62300	7107
4.62367	7096
4.62433	7085
4.62500	7075
4.62567	7064
4.62633	7054
4.62700	7043
4.62767	7033
4.62833	7022
4.62900	7012
4.62967	7002
4.63033	6991
4.63100	6981
4.63167	6971
4.63233	6961
4.63300	6950
4.63367	6940
4.63433	6930
4.63500	6920
4.63567	6910
4.63633	6900
4.63700	6890
4.63767	6880
4.63833	6870
4.63900	6860
4.63967	6850
4.64033	6841
4.64100	6831
4.64167	6821
4.64233	6812
4.64300	6802
4.64367	6792
4.64433	6783
4.64500	6773
4.64567	6764
4.64633	6755
4.64700	6745
4.64767	6736
4.64833	6727
4.64900	6717
4.64967	6708
4.65033	6699
4.65100	6690
4.65167	6681
4.65233	6672
4.65300	6663
4.65367	6654
4.65433	6645
4.65500	6637
4.65567	6628
4.65633	6619
4.65700	6610
4.65767	6601
4.65833	6593
4.65900	6584
4.65967	6575
4.66033	6566
4.66100	6558
4.66167	6549
4.66233	6541
4.66300	6532
4.66367	6524
4.66433	6515
4.66500	6507
4.66567	6498
4.66633	6490
4.66700	6482
4.66767	6474
4.66833	6466
4.66900	6457
4.66967	6449
4.67033	6441
4.67100	6433
4.67167	6425
4.67233	6417
4.67300	6409
4.67367	6401
4.67433	6394
4.67500	6386
4.67567	6378
4.67633	6370
4.67700	6363
4.67767	6355
4.67833	6347
4.67900	6340
4.67967	6332
4.68033	6325
4.68100	6317
4.68167	6310
4.68233	6302
4.68300	6295
4.68367	6287
4.68433	6280
4.68500	6272
4.68567	6265
4.68633	6258
4.68700	6250
4.68767	6243
4.68833	6236
4.68900	6229
4.68967	6222
4.69033	6215
4.69100	6208
4.69167	6201
4.69233	6195
4.69300	6188
4.69367	6181
4.69433	6175
4.69500	6168
4.69567	6162
4.69633	6156
4.69700	6149
4.69767	6143
4.69833	6137
4.69900	6131
4.69967	6125
4.70033	6119
4.70100	6113
4.70167	6107
4.70233	6101
4.70300	6096
4.70367	6090
4.70433	6084
4.70500	6079
4.70567	6073
4.70633	6068
4.70700	6062
4.70767	6057
4.70833	6051
4.70900	6046
4.70967	6041
4.71033	6035
4.71100	6030
4.71167	6025
4.71233	6020
4.71300	6015
4.71367	6010
4.71433	6005
4.71500	6000
4.71567	5995
4.71633	5990
4.71700	5985
4.71767	5980
4.71833	5976
4.71900	5971
4.71967	5967
4.72033	5962
4.72100	5958
4.72167	5953
4.72233	5949
4.72300	5944
4.72367	5940
4.72433	5936
4.72500	5932
4.72567	5928
4.72633	5924
4.72700	5920
4.72767	5916
4.72833	5913
4.72900	5909
4.72967	5905
4.73033	5902
4.73100	5898
4.73167	5894
4.73233	5891
4.73300	5887
4.73367	5884
4.73433	5880
4.73500	5877
4.73567	5873
4.73633	5870
4.73700	5866
4.73767	5863
4.73833	5860
4.73900	5856
4.73967	5853
4.74033	5850
4.74100	5847
4.74167	5843
4.74233	5840
4.74300	5837
4.74367	5834
4.74433	5831
4.74500	5827
4.74567	5824
4.74633	5821
4.74700	5818
4.74767	5815
4.74833	5812
4.74900	5809
4.74967	5806
4.75033	5803
4.75100	5800
4.75167	5797
4.75233	5794
4.75300	5791
4.75367	5788
4.75433	5786
4.75500	5783
4.75567	5780
4.75633	5777
4.75700	5774
4.75767	5772
4.75833	5769
4.75900	5766
4.75967	5764
4.76033	5761
4.76100	5758
4.76167	5756
4.76233	5753
4.76300	5750
4.76367	5748
4.76433	5745
4.76500	5743
4.76567	5740
4.76633	5738
4.76700	5735
4.76767	5733
4.76833	5731
4.76900	5729
4.76967	5726
4.77033	5724
4.77100	5722
4.77167	5720
4.77233	5718
4.77300	5716
4.77367	5714
4.77433	5712
4.77500	5710
4.77567	5708
4.77633	5706
4.77700	5704
4.77767	5702
4.77833	5700
4.77900	5699
4.77967	5697
4.78033	5695
4.78100	5693
4.78167	5691
4.78233	5689
4.78300	5687
4.78367	5685
4.78433	5683
4.78500	5681
4.78567	5680
4.78633	5678
4.78700	5676
4.78767	5674
4.78833	5672
4.78900	5671
4.78967	5669
4.79033	5667
4.79100	5665
4.79167	5664
4.79233	5662
4.79300	5661
4.79367	5659
4.79433	5658
4.79500	5656
4.79567	5655
4.79633	5654
4.79700	5652
4.79767	5651
4.79833	5650
4.79900	5648
4.79967	5647
4.80033	5646
4.80100	5645
4.80167	5644
4.80233	5643
4.80300	5641
4.80367	5640
4.80433	5639
4.80500	5638
4.80567	5637
4.80633	5636
4.80700	5635
4.80767	5634
4.80833	5632
4.80900	5631
4.80967	5630
4.81033	5629
4.81100	5627
4.81167	5626
4.81233	5625
4.81300	5624
4.81367	5622
4.81433	5621
4.81500	5619
4.81567	5618
4.81633	5617
4.81700	5615
4.81767	5614
4.81833	5612
4.81900	5611
4.81967	5609
4.82033	5607
4.82100	5606
4.82167	5604
4.82233	5603
4.82300	5601
4.82367	5599
4.82433	5597
4.82500	5596
4.82567	5594
4.82633	5592
4.82700	5590
4.82767	5589
4.82833	5587
4.82900	5585
4.82967	5583
4.83033	5581
4.83100	5580
4.83167	5578
4.83233	5576
4.83300	5574
4.83367	5572
4.83433	5570
4.83500	5568
4.83567	5566
4.83633	5564
4.83700	5562
4.83767	5560
4.83833	5559
4.83900	5557
4.83967	5555
4.84033	5553
4.84100	5551
4.84167	5549
4.84233	5547
4.84300	5545
4.84367	5543
4.84433	5541
4.84500	5539
4.84567	5537
4.84633	5535
4.84700	5532
4.84767	5530
4.84833	5528
4.84900	5526
4.84967	5524
4.85033	5522
4.85100	5520
4.85167	5518
4.85233	5516
4.85300	5513
4.85367	5511
4.85433	5509
4.85500	5507
4.85567	5505
4.85633	5503
4.85700	5501
4.85767	5499
4.85833	5497
4.85900	5495
4.85967	5492
4.86033	5490
4.86100	5488
4.86167	5486
4.86233	5483
4.86300	5481
4.86367	5479
4.86433	5477
4.86500	5474
4.86567	5472
4.86633	5470
4.86700	5467
4.86767	5465
4.86833	5463
4.86900	5460
4.86967	5458
4.87033	5455
4.87100	5453
4.87167	5451
4.87233	5448
4.87300	5446
4.87367	5443
4.87433	5441
4.87500	5438
4.87567	5436
4.87633	5433
4.87700	5431
4.87767	5428
4.87833	5426
4.87900	5423
4.87967	5421
4.88033	5418
4.88100	5416
4.88167	5413
4.88233	5411
4.88300	5408
4.88367	5406
4.88433	5403
4.88500	5401
4.88567	5398
4.88633	5396
4.88700	5393
4.88767	5391
4.88833	5389
4.88900	5386
4.88967	5384
4.89033	5381
4.89100	5379
4.89167	5376
4.89233	5374
4.89300	5372
4.89367	5369
4.89433	5367
4.89500	5365
4.89567	5362
4.89633	5360
4.89700	5358
4.89767	5355
4.89833	5353
4.89900	5350
4.89967	5348
4.90033	5346
4.90100	5343
4.90167	5341
4.90233	5339
4.90300	5337
4.90367	5335
4.90433	5332
4.90500	5330
4.90567	5328
4.90633	5326
4.90700	5324
4.90767	5323
4.90833	5321
4.90900	5319
4.90967	5317
4.91033	5315
4.91100	5314
4.91167	5312
4.91233	5310
4.91300	5309
4.91367	5307
4.91433	5305
4.91500	5304
4.91567	5302
4.91633	5301
4.91700	5299
4.91767	5298
4.91833	5297
4.91900	5295
4.91967	5294
4.92033	5293
4.92100	5291
4.92167	5290
4.92233	5289
4.92300	5288
4.92367	5286
4.92433	5285
4.92500	5284
4.92567	5283
4.92633	5282
4.92700	5281
4.92767	5280
4.92833	5279
4.92900	5278
4.92967	5277
4.93033	5276
4.93100	5275
4.93167	5274
4.93233	5273
4.93300	5273
4.93367	5272
4.93433	5271
4.93500	5271
4.93567	5270
4.93633	5269
4.93700	5269
4.93767	5268
4.93833	5268
4.93900	5267
4.93967	5267
4.94033	5266
4.94100	5266
4.94167	5266
4.94233	5265
4.94300	5265
4.94367	5265
4.94433	5264
4.94500	5264
4.94567	5264
4.94633	5264
4.94700	5264
4.94767	5263
4.94833	5263
4.94900	5263
4.94967	5263
4.95033	5264
4.95100	5264
4.95167	5264
4.95233	5264
4.95300	5264
4.95367	5264
4.95433	5265
4.95500	5265
4.95567	5266
4.95633	5266
4.95700	5267
4.95767	5267
4.95833	5268
4.95900	5268
4.95967	5269
4.96033	5270
4.96100	5270
4.96167	5271
4.96233	5272
4.96300	5273
4.96367	5274
4.96433	5275
4.96500	5275
4.96567	5276
4.96633	5277
4.96700	5278
4.96767	5279
4.96833	5280
4.96900	5281
4.96967	5283
4.97033	5284
4.97100	5285
4.97167	5286
4.97233	5287
4.97300	5288
4.97367	5289
4.97433	5291
4.97500	5292
4.97567	5293
4.97633	5294
4.97700	5295
4.97767	5296
4.97833	5297
4.97900	5298
4.97967	5299
4.98033	5301
4.98100	5302
4.98167	5302
4.98233	5303
4.98300	5304
4.98367	5305
4.98433	5306
4.98500	5307
4.98567	5308
4.98633	5310
4.98700	5311
4.98767	5312
4.98833	5313
4.98900	5314
4.98967	5315
4.99033	5316
4.99100	5317
4.99167	5319
4.99233	5320
4.99300	5321
4.99367	5322
4.99433	5324
4.99500	5325
4.99567	5326
4.99633	5327
4.99700	5328
4.99767	5329
4.99833	5331
4.99900	5332
4.99967	5333
5.00033	5334
5.00100	5335
5.00167	5336
5.00233	5337
5.00300	5337
5.00367	5338
5.00433	5339
5.00500	5339
5.00567	5340
5.00633	5340
5.00700	5341
5.00767	5341
5.00833	5342
5.00900	5342
5.00967	5342
5.01033	5343
5.01100	5343
5.01167	5343
5.01233	5343
5.01300	5344
5.01367	5344
5.01433	5344
5.01500	5344
5.01567	5344
5.01633	5344
5.01700	5344
5.01767	5344
5.01833	5344
5.01900	5344
5.01967	5343
5.02033	5343
5.02100	5343
5.02167	5343
5.02233	5343
5.02300	5342
5.02367	5342
5.02433	5342
5.02500	5341
5.02567	5341
5.02633	5340
5.02700	5340
5.02767	5339
5.02833	5339
5.02900	5338
5.02967	5337
5.03033	5337
5.03100	5336
5.03167	5335
5.03233	5335
5.03300	5334
5.03367	5333
5.03433	5332
5.03500	5331
5.03567	5330
5.03633	5330
5.03700	5329
5.03767	5328
5.03833	5327
5.03900	5326
5.03967	5325
5.04033	5323
5.04100	5322
5.04167	5321
5.04233	5320
5.04300	5319
5.04367	5317
5.04433	5316
5.04500	5315
5.04567	5314
5.04633	5312
5.04700	5311
5.04767	5309
5.04833	5308
5.04900	5306
5.04967	5305
5.05033	5303
5.05100	5302
5.05167	5300
5.05233	5298
5.05300	5297
5.05367	5295
5.05433	5293
5.05500	5292
5.05567	5290
5.05633	5288
5.05700	5286
5.05767	5285
5.05833	5283
5.05900	5281
5.05967	5279
5.06033	5277
5.06100	5275
5.06167	5273
5.06233	5271
5.06300	5269
5.06367	5267
5.06433	5265
5.06500	5263
5.06567	5261
5.06633	5259
5.06700	5257
5.06767	5255
5.06833	5253
5.06900	5251
5.06967	5249
5.07033	5247
5.07100	5245
5.07167	5243
5.07233	5241
5.07300	5239
5.07367	5237
5.07433	5235
5.07500	5233
5.07567	5231
5.07633	5230
5.07700	5228
5.07767	5226
5.07833	5225
5.07900	5223
5.07967	5221
5.08033	5220
5.08100	5218
5.08167	5217
5.08233	5215
5.08300	5214
5.08367	5212
5.08433	5211
5.08500	5210
5.08567	5208
5.08633	5207
5.08700	5205
5.08767	5204
5.08833	5203
5.08900	5201
5.08967	5200
5.09033	5199
5.09100	5198
5.09167	5196
5.09233	5195
5.09300	5194
5.09367	5193
5.09433	5192
5.09500	5191
5.09567	5190
5.09633	5189
5.09700	5188
5.09767	5187
5.09833	5186
5.09900	5185
5.09967	5184
5.10033	5183
5.10100	5183
5.10167	5182
5.10233	5181
5.10300	5181
5.10367	5180
5.10433	5180
5.10500	5179
5.10567	5179
5.10633	5179
5.10700	5178
5.10767	5178
5.10833	5178
5.10900	5178
5.10967	5178
5.11033	5178
5.11100	5178
5.11167	5178
5.11233	5178
5.11300	5178
5.11367	5178
5.11433	5179
5.11500	5179
5.11567	5179
5.11633	5180
5.11700	5180
5.11767	5181
5.11833	5181
5.11900	5182
5.11967	5182
5.12033	5183
5.12100	5184
5.12167	5185
5.12233	5185
5.12300	5186
5.12367	5187
5.12433	5188
5.12500	5189
5.12567	5191
5.12633	5192
5.12700	5193
5.12767	5194
5.12833	5195
5.12900	5197
5.12967	5198
5.13033	5200
5.13100	5201
5.13167	5203
5.13233	5205
5.13300	5206
5.13367	5208
5.13433	5210
5.13500	5212
5.13567	5214
5.13633	5216
5.13700	5218
5.13767	5220
5.13833	5223
5.13900	5225
5.13967	5227
5.14033	5230
5.14100	5232
5.14167	5235
5.14233	5237
5.14300	5240
5.14367	5242
5.14433	5245
5.14500	5248
5.14567	5251
5.14633	5254
5.14700	5257
5.14767	5260
5.14833	5263
5.14900	5266
5.14967	5270
5.15033	5273
5.15100	5276
5.15167	5280
5.15233	5283
5.15300	5287
5.15367	5291
5.15433	5294
5.15500	5298
5.15567	5302
5.15633	5305
5.15700	5309
5.15767	5313
5.15833	5317
5.15900	5321
5.15967	5325
5.16033	5329
5.16100	5333
5.16167	5336
5.16233	5340
5.16300	5344
5.16367	5348
5.16433	5353
5.16500	5357
5.16567	5361
5.16633	5365
5.16700	5369
5.16767	5373
5.16833	5377
5.16900	5382
5.16967	5386
5.17033	5390
5.17100	5395
5.17167	5399
5.17233	5403
5.17300	5407
5.17367	5412
5.17433	5416
5.17500	5421
5.17567	5425
5.17633	5430
5.17700	5434
5.17767	5439
5.17833	5443
5.17900	5448
5.17967	5452
5.18033	5457
5.18100	5462
5.18167	5466
5.18233	5471
5.18300	5475
5.18367	5480
5.18433	5485
5.18500	5489
5.18567	5494
5.18633	5498
5.18700	5503
5.18767	5507
5.18833	5511
5.18900	5516
5.18967	5520
5.19033	5524
5.19100	5529
5.19167	5533
5.19233	5537
5.19300	5541
5.19367	5545
5.19433	5550
5.19500	5554
5.19567	5558
5.19633	5562
5.19700	5566
5.19767	5569
5.19833	5573
5.19900	5577
5.19967	5581
5.20033	5584
5.20100	5588
5.20167	5592
5.20233	5595
5.20300	5598
5.20367	5602
5.20433	5605
5.20500	5608
5.20567	5611
5.20633	5614
5.20700	5617
5.20767	5620
5.20833	5623
5.20900	5625
5.20967	5628
5.21033	5630
5.21100	5632
5.21167	5635
5.21233	5637
5.21300	5639
5.21367	5641
5.21433	5642
5.21500	5644
5.21567	5646
5.21633	5647
5.21700	5649
5.21767	5650
5.21833	5651
5.21900	5653
5.21967	5654
5.22033	5655
5.22100	5656
5.22167	5656
5.22233	5657
5.22300	5658
5.22367	5658
5.22433	5658
5.22500	5659
5.22567	5659
5.22633	5659
5.22700	5659
5.22767	5659
5.22833	5659
5.22900	5658
5.22967	5658
5.23033	5657
5.23100	5657
5.23167	5656
5.23233	5655
5.23300	5654
5.23367	5653
5.23433	5652
5.23500	5651
5.23567	5650
5.23633	5648
5.23700	5647
5.23767	5645
5.23833	5644
5.23900	5642
5.23967	5640
5.24033	5638
5.24100	5636
5.24167	5633
5.24233	5631
5.24300	5629
5.24367	5626
5.24433	5624
5.24500	5621
5.24567	5618
5.24633	5616
5.24700	5613
5.24767	5610
5.24833	5607
5.24900	5604
5.24967	5601
5.25033	5597
5.25100	5594
5.25167	5591
5.25233	5587
5.25300	5584
5.25367	5580
5.25433	5576
5.25500	5572
5.25567	5569
5.25633	5565
5.25700	5561
5.25767	5557
5.25833	5552
5.25900	5548
5.25967	5544
5.26033	5540
5.26100	5535
5.26167	5531
5.26233	5526
5.26300	5522
5.26367	5517
5.26433	5513
5.26500	5508
5.26567	5504
5.26633	5499
5.26700	5495
5.26767	5490
5.26833	5485
5.26900	5481
5.26967	5476
5.27033	5471
5.27100	5467
5.27167	5462
5.27233	5457
5.27300	5453
5.27367	5448
5.27433	5443
5.27500	5439
5.27567	5434
5.27633	5429
5.27700	5425
5.27767	5420
5.27833	5416
5.27900	5411
5.27967	5406
5.28033	5402
5.28100	5397
5.28167	5393
5.28233	5389
5.28300	5384
5.28367	5380
5.28433	5376
5.28500	5372
5.28567	5368
5.28633	5364
5.28700	5360
5.28767	5356
5.28833	5352
5.28900	5348
5.28967	5345
5.29033	5341
5.29100	5337
5.29167	5333
5.29233	5330
5.29300	5326
5.29367	5323
5.29433	5319
5.29500	5316
5.29567	5312
5.29633	5309
5.29700	5305
5.29767	5302
5.29833	5298
5.29900	5295
5.29967	5291
5.30033	5288
5.30100	5284
5.30167	5281
5.30233	5278
5.30300	5274
5.30367	5271
5.30433	5268
5.30500	5265
5.30567	5262
5.30633	5259
5.30700	5256
5.30767	5253
5.30833	5250
5.30900	5247
5.30967	5244
5.31033	5242
5.31100	5239
5.31167	5236
5.31233	5234
5.31300	5231
5.31367	5228
5.31433	5226
5.31500	5223
5.31567	5221
5.31633	5219
5.31700	5216
5.31767	5214
5.31833	5212
5.31900	5209
5.31967	5207
5.32033	5205
5.32100	5203
5.32167	5201
5.32233	5199
5.32300	5197
5.32367	5195
5.32433	5194
5.32500	5192
5.32567	5190
5.32633	5188
5.32700	5186
5.32767	5185
5.32833	5183
5.32900	5181
5.32967	5180
5.33033	5178
5.33100	5176
5.33167	5175
5.33233	5173
5.33300	5172
5.33367	5170
5.33433	5169
5.33500	5168
5.33567	5166
5.33633	5165
5.33700	5164
5.33767	5162
5.33833	5161
5.33900	5160
5.33967	5159
5.34033	5158
5.34100	5157
5.34167	5156
5.34233	5154
5.34300	5153
5.34367	5153
5.34433	5152
5.34500	5151
5.34567	5150
5.34633	5149
5.34700	5149
5.34767	5148
5.34833	5147
5.34900	5146
5.34967	5146
5.35033	5145
5.35100	5145
5.35167	5144
5.35233	5144
5.35300	5143
5.35367	5143
5.35433	5142
5.35500	5142
5.35567	5141
5.35633	5141
5.35700	5141
5.35767	5141
5.35833	5140
5.35900	5140
5.35967	5140
5.36033	5140
5.36100	5140
5.36167	5139
5.36233	5139
5.36300	5139
5.36367	5139
5.36433	5139
5.36500	5139
5.36567	5139
5.36633	5139
5.36700	5139
5.36767	5139
5.36833	5139
5.36900	5139
5.36967	5139
5.37033	5139
5.37100	5139
5.37167	5139
5.37233	5139
5.37300	5140
5.37367	5140
5.37433	5140
5.37500	5140
5.37567	5140
5.37633	5140
5.37700	5139
5.37767	5139
5.37833	5139
5.37900	5139
5.37967	5139
5.38033	5139
5.38100	5139
5.38167	5139
5.38233	5139
5.38300	5139
5.38367	5139
5.38433	5139
5.38500	5138
5.38567	5138
5.38633	5138
5.38700	5137
5.38767	5137
5.38833	5137
5.38900	5136
5.38967	5136
5.39033	5135
5.39100	5135
5.39167	5134
5.39233	5134
5.39300	5133
5.39367	5133
5.39433	5133
5.39500	5132
5.39567	5132
5.39633	5131
5.39700	5131
5.39767	5130
5.39833	5129
5.39900	5129
5.39967	5128
5.40033	5128
5.40100	5127
5.40167	5126
5.40233	5126
5.40300	5125
5.40367	5124
5.40433	5124
5.40500	5123
5.40567	5122
5.40633	5121
5.40700	5120
5.40767	5120
5.40833	5119
5.40900	5118
5.40967	5117
5.41033	5116
5.41100	5115
5.41167	5114
5.41233	5114
5.41300	5113
5.41367	5111
5.41433	5110
5.41500	5109
5.41567	5108
5.41633	5107
5.41700	5106
5.41767	5105
5.41833	5104
5.41900	5102
5.41967	5101
5.42033	5100
5.42100	5099
5.42167	5097
5.42233	5096
5.42300	5095
5.42367	5094
5.42433	5092
5.42500	5091
5.42567	5090
5.42633	5088
5.42700	5087
5.42767	5086
5.42833	5084
5.42900	5083
5.42967	5082
5.43033	5080
5.43100	5079
5.43167	5077
5.43233	5076
5.43300	5074
5.43367	5073
5.43433	5071
5.43500	5069
5.43567	5068
5.43633	5066
5.43700	5064
5.43767	5063
5.43833	5061
5.43900	5059
5.43967	5058
5.44033	5056
5.44100	5054
5.44167	5052
5.44233	5051
5.44300	5049
5.44367	5047
5.44433	5045
5.44500	5044
5.44567	5042
5.44633	5040
5.44700	5038
5.44767	5037
5.44833	5035
5.44900	5033
5.44967	5031
5.45033	5030
5.45100	5028
5.45167	5026
5.45233	5024
5.45300	5022
5.45367	5021
5.45433	5019
5.45500	5017
5.45567	5015
5.45633	5014
5.45700	5012
5.45767	5010
5.45833	5008
5.45900	5006
5.45967	5004
5.46033	5003
5.46100	5001
5.46167	4999
5.46233	4997
5.46300	4996
5.46367	4994
5.46433	4992
5.46500	4990
5.46567	4988
5.46633	4987
5.46700	4985
5.46767	4983
5.46833	4981
5.46900	4979
5.46967	4978
5.47033	4976
5.47100	4974
5.47167	4972
5.47233	4970
5.47300	4969
5.47367	4967
5.47433	4965
5.47500	4963
5.47567	4962
5.47633	4960
5.47700	4958
5.47767	4956
5.47833	4954
5.47900	4953
5.47967	4951
5.48033	4949
5.48100	4947
5.48167	4945
5.48233	4943
5.48300	4942
5.48367	4940
5.48433	4938
5.48500	4937
5.48567	4935
5.48633	4933
5.48700	4932
5.48767	4930
5.48833	4928
5.48900	4927
5.48967	4925
5.49033	4924
5.49100	4922
5.49167	4921
5.49233	4919
5.49300	4918
5.49367	4916
5.49433	4915
5.49500	4913
5.49567	4912
5.49633	4910
5.49700	4909
5.49767	4908
5.49833	4906
5.49900	4905
5.49967	4904
5.50033	4903
5.50100	4902
5.50167	4900
5.50233	4899
5.50300	4898
5.50367	4897
5.50433	4896
5.50500	4895
5.50567	4894
5.50633	4894
5.50700	4893
5.50767	4892
5.50833	4891
5.50900	4891
5.50967	4890
5.51033	4890
5.51100	4889
5.51167	4889
5.51233	4888
5.51300	4888
5.51367	4888
5.51433	4888
5.51500	4887
5.51567	4887
5.51633	4887
5.51700	4887
5.51767	4887
5.51833	4887
5.51900	4887
5.51967	4887
5.52033	4888
5.52100	4888
5.52167	4888
5.52233	4888
5.52300	4889
5.52367	4889
5.52433	4890
5.52500	4890
5.52567	4891
5.52633	4891
5.52700	4892
5.52767	4893
5.52833	4894
5.52900	4894
5.52967	4895
5.53033	4896
5.53100	4897
5.53167	4898
5.53233	4900
5.53300	4901
5.53367	4902
5.53433	4903
5.53500	4905
5.53567	4906
5.53633	4908
5.53700	4910
5.53767	4911
5.53833	4913
5.53900	4915
5.53967	4917
5.54033	4918
5.54100	4921
5.54167	4923
5.54233	4925
5.54300	4927
5.54367	4929
5.54433	4932
5.54500	4934
5.54567	4937
5.54633	4939
5.54700	4942
5.54767	4945
5.54833	4948
5.54900	4951
5.54967	4954
5.55033	4957
5.55100	4960
5.55167	4963
5.55233	4967
5.55300	4970
5.55367	4974
5.55433	4977
5.55500	4981
5.55567	4985
5.55633	4988
5.55700	4992
5.55767	4996
5.55833	5000
5.55900	5004
5.55967	5008
5.56033	5012
5.56100	5016
5.56167	5020
5.56233	5025
5.56300	5029
5.56367	5033
5.56433	5038
5.56500	5042
5.56567	5047
5.56633	5051
5.56700	5056
5.56767	5061
5.56833	5065
5.56900	5070
5.56967	5075
5.57033	5080
5.57100	5085
5.57167	5090
5.57233	5095
5.57300	5100
5.57367	5105
5.57433	5110
5.57500	5115
5.57567	5120
5.57633	5125
5.57700	5130
5.57767	5135
5.57833	5140
5.57900	5145
5.57967	5150
5.58033	5156
5.58100	5161
5.58167	5166
5.58233	5171
5.58300	5177
5.58367	5182
5.58433	5187
5.58500	5192
5.58567	5198
5.58633	5203
5.58700	5208
5.58767	5214
5.58833	5219
5.58900	5224
5.58967	5230
5.59033	5235
5.59100	5240
5.59167	5246
5.59233	5251
5.59300	5256
5.59367	5262
5.59433	5267
5.59500	5272
5.59567	5277
5.59633	5282
5.59700	5287
5.59767	5293
5.59833	5298
5.59900	5303
5.59967	5308
5.60033	5313
5.60100	5318
5.60167	5323
5.60233	5327
5.60300	5332
5.60367	5337
5.60433	5342
5.60500	5346
5.60567	5351
5.60633	5355
5.60700	5360
5.60767	5364
5.60833	5369
5.60900	5373
5.60967	5377
5.61033	5381
5.61100	5385
5.61167	5389
5.61233	5393
5.61300	5397
5.61367	5401
5.61433	5404
5.61500	5408
5.61567	5412
5.61633	5415
5.61700	5418
5.61767	5422
5.61833	5425
5.61900	5428
5.61967	5431
5.62033	5434
5.62100	5437
5.62167	5440
5.62233	5442
5.62300	5445
5.62367	5447
5.62433	5450
5.62500	5452
5.62567	5455
5.62633	5457
5.62700	5459
5.62767	5461
5.62833	5463
5.62900	5465
5.62967	5467
5.63033	5468
5.63100	5470
5.63167	5472
5.63233	5473
5.63300	5474
5.63367	5476
5.63433	5477
5.63500	5478
5.63567	5479
5.63633	5480
5.63700	5481
5.63767	5482
5.63833	5482
5.63900	5483
5.63967	5483
5.64033	5484
5.64100	5484
5.64167	5484
5.64233	5484
5.64300	5485
5.64367	5484
5.64433	5484
5.64500	5484
5.64567	5484
5.64633	5483
5.64700	5483
5.64767	5482
5.64833	5482
5.64900	5481
5.64967	5481
5.65033	5480
5.65100	5479
5.65167	5478
5.65233	5477
5.65300	5476
5.65367	5474
5.65433	5473
5.65500	5472
5.65567	5470
5.65633	5469
5.65700	5467
5.65767	5466
5.65833	5464
5.65900	5462
5.65967	5460
5.66033	5459
5.66100	5457
5.66167	5455
5.66233	5453
5.66300	5451
5.66367	5449
5.66433	5447
5.66500	5445
5.66567	5443
5.66633	5441
5.66700	5438
5.66767	5436
5.66833	5434
5.66900	5432
5.66967	5429
5.67033	5427
5.67100	5425
5.67167	5422
5.67233	5420
5.67300	5417
5.67367	5415
5.67433	5412
5.67500	5409
5.67567	5407
5.67633	5404
5.67700	5402
5.67767	5399
5.67833	5396
5.67900	5394
5.67967	5391
5.68033	5388
5.68100	5385
5.68167	5382
5.68233	5380
5.68300	5377
5.68367	5374
5.68433	5371
5.68500	5368
5.68567	5365
5.68633	5362
5.68700	5359
5.68767	5356
5.68833	5353
5.68900	5350
5.68967	5347
5.69033	5344
5.69100	5341
5.69167	5338
5.69233	5335
5.69300	5332
5.69367	5329
5.69433	5326
5.69500	5323
5.69567	5320
5.69633	5316
5.69700	5313
5.69767	5310
5.69833	5307
5.69900	5304
5.69967	5301
5.70033	5298
5.70100	5295
5.70167	5291
5.70233	5288
5.70300	5285
5.70367	5282
5.70433	5279
5.70500	5276
5.70567	5273
5.70633	5270
5.70700	5267
5.70767	5264
5.70833	5261
5.70900	5258
5.70967	5255
5.71033	5252
5.71100	5249
5.71167	5246
5.71233	5243
5.71300	5240
5.71367	5237
5.71433	5234
5.71500	5231
5.71567	5228
5.71633	5226
5.71700	5223
5.71767	5220
5.71833	5217
5.71900	5215
5.71967	5212
5.72033	5210
5.72100	5207
5.72167	5204
5.72233	5202
5.72300	5199
5.72367	5197
5.72433	5194
5.72500	5192
5.72567	5189
5.72633	5187
5.72700	5184
5.72767	5181
5.72833	5179
5.72900	5176
5.72967	5174
5.73033	5172
5.73100	5169
5.73167	5167
5.73233	5165
5.73300	5162
5.73367	5160
5.73433	5158
5.73500	5155
5.73567	5153
5.73633	5151
5.73700	5149
5.73767	5146
5.73833	5144
5.73900	5142
5.73967	5140
5.74033	5138
5.74100	5136
5.74167	5134
5.74233	5132
5.74300	5130
5.74367	5128
5.74433	5126
5.74500	5124
5.74567	5122
5.74633	5120
5.74700	5118
5.74767	5116
5.74833	5114
5.74900	5113
5.74967	5111
5.75033	5109
5.75100	5107
5.75167	5105
5.75233	5104
5.75300	5102
5.75367	5100
5.75433	5098
5.75500	5097
5.75567	5095
5.75633	5093
5.75700	5092
5.75767	5090
5.75833	5089
5.75900	5087
5.75967	5085
5.76033	5084
5.76100	5082
5.76167	5081
5.76233	5080
5.76300	5078
5.76367	5077
5.76433	5075
5.76500	5074
5.76567	5072
5.76633	5071
5.76700	5070
5.76767	5068
5.76833	5067
5.76900	5066
5.76967	5064
5.77033	5063
5.77100	5062
5.77167	5061
5.77233	5059
5.77300	5058
5.77367	5057
5.77433	5056
5.77500	5055
5.77567	5054
5.77633	5053
5.77700	5052
5.77767	5052
5.77833	5051
5.77900	5050
5.77967	5049
5.78033	5048
5.78100	5048
5.78167	5047
5.78233	5046
5.78300	5045
5.78367	5044
5.78433	5044
5.78500	5043
5.78567	5042
5.78633	5041
5.78700	5041
5.78767	5040
5.78833	5039
5.78900	5039
5.78967	5038
5.79033	5037
5.79100	5037
5.79167	5036
5.79233	5035
5.79300	5035
5.79367	5034
5.79433	5034
5.79500	5033
5.79567	5033
5.79633	5032
5.79700	5032
5.79767	5032
5.79833	5031
5.79900	5031
5.79967	5031
5.80033	5031
5.80100	5030
5.80167	5030
5.80233	5030
5.80300	5030
5.80367	5030
5.80433	5029
5.80500	5029
5.80567	5029
5.80633	5029
5.80700	5029
5.80767	5029
5.80833	5029
5.80900	5029
5.80967	5029
5.81033	5029
5.81100	5029
5.81167	5029
5.81233	5029
5.81300	5029
5.81367	5029
5.81433	5029
5.81500	5029
5.81567	5029
5.81633	5030
5.81700	5030
5.81767	5030
5.81833	5030
5.81900	5030
5.81967	5030
5.82033	5030
5.82100	5030
5.82167	5031
5.82233	5031
5.82300	5031
5.82367	5031
5.82433	5031
5.82500	5031
5.82567	5031
5.82633	5031
5.82700	5031
5.82767	5031
5.82833	5032
5.82900	5032
5.82967	5032
5.83033	5032
5.83100	5032
5.83167	5033
5.83233	5033
5.83300	5033
5.83367	5033
5.83433	5034
5.83500	5034
5.83567	5034
5.83633	5034
5.83700	5035
5.83767	5035
5.83833	5035
5.83900	5035
5.83967	5035
5.84033	5035
5.84100	5035
5.84167	5036
5.84233	5036
5.84300	5036
5.84367	5036
5.84433	5036
5.84500	5036
5.84567	5036
5.84633	5036
5.84700	5036
5.84767	5036
5.84833	5036
5.84900	5036
5.84967	5036
5.85033	5036
5.85100	5036
5.85167	5036
5.85233	5036
5.85300	5037
5.85367	5037
5.85433	5037
5.85500	5037
5.85567	5037
5.85633	5037
5.85700	5037
5.85767	5037
5.85833	5037
5.85900	5036
5.85967	5036
5.86033	5036
5.86100	5036
5.86167	5036
5.86233	5036
5.86300	5036
5.86367	5036
5.86433	5036
5.86500	5036
5.86567	5035
5.86633	5035
5.86700	5035
5.86767	5035
5.86833	5035
5.86900	5034
5.86967	5034
5.87033	5034
5.87100	5034
5.87167	5034
5.87233	5033
5.87300	5033
5.87367	5033
5.87433	5033
5.87500	5032
5.87567	5032
5.87633	5032
5.87700	5032
5.87767	5031
5.87833	5031
5.87900	5031
5.87967	5030
5.88033	5030
5.88100	5029
5.88167	5029
5.88233	5029
5.88300	5028
5.88367	5028
5.88433	5027
5.88500	5027
5.88567	5026
5.88633	5026
5.88700	5025
5.88767	5025
5.88833	5024
5.88900	5024
5.88967	5024
5.89033	5023
5.89100	5022
5.89167	5022
5.89233	5021
5.89300	5020
5.89367	5020
5.89433	5019
5.89500	5018
5.89567	5017
5.89633	5017
5.89700	5016
5.89767	5015
5.89833	5014
5.89900	5013
5.89967	5013
5.90033	5012
5.90100	5011
5.90167	5010
5.90233	5009
5.90300	5009
5.90367	5008
5.90433	5007
5.90500	5006
5.90567	5005
5.90633	5004
5.90700	5004
5.90767	5003
5.90833	5002
5.90900	5001
5.90967	5000
5.91033	5000
5.91100	4999
5.91167	4998
5.91233	4997
5.91300	4996
5.91367	4995
5.91433	4994
5.91500	4993
5.91567	4993
5.91633	4992
5.91700	4991
5.91767	4990
5.91833	4989
5.91900	4987
5.91967	4986
5.92033	4985
5.92100	4984
5.92167	4983
5.92233	4982
5.92300	4981
5.92367	4980
5.92433	4979
5.92500	4978
5.92567	4977
5.92633	4976
5.92700	4975
5.92767	4974
5.92833	4973
5.92900	4972
5.92967	4971
5.93033	4970
5.93100	4969
5.93167	4968
5.93233	4967
5.93300	4966
5.93367	4965
5.93433	4964
5.93500	4964
5.93567	4963
5.93633	4962
5.93700	4961
5.93767	4960
5.93833	4959
5.93900	4958
5.93967	4957
5.94033	4956
5.94100	4955
5.94167	4954
5.94233	4953
5.94300	4953
5.94367	4952
5.94433	4951
5.94500	4950
5.94567	4949
5.94633	4948
5.94700	4947
5.94767	4946
5.94833	4945
5.94900	4944
5.94967	4943
5.95033	4942
5.95100	4941
5.95167	4940
5.95233	4940
5.95300	4939
5.95367	4938
5.95433	4937
5.95500	4936
5.95567	4935
5.95633	4934
5.95700	4933
5.95767	4932
5.95833	4931
5.95900	4930
5.95967	4929
5.96033	4929
5.96100	4928
5.96167	4927
5.96233	4926
5.96300	4925
5.96367	4924
5.96433	4923
5.96500	4922
5.96567	4922
5.96633	4921
5.96700	4920
5.96767	4919
5.96833	4918
5.96900	4917
5.96967	4916
5.97033	4916
5.97100	4915
5.97167	4914
5.97233	4913
5.97300	4912
5.97367	4912
5.97433	4911
5.97500	4910
5.97567	4909
5.97633	4909
5.97700	4908
5.97767	4907
5.97833	4906
5.97900	4906
5.97967	4905
5.98033	4904
5.98100	4904
5.98167	4903
5.98233	4902
5.98300	4901
5.98367	4901
5.98433	4900
5.98500	4899
5.98567	4899
5.98633	4898
5.98700	4897
5.98767	4897
5.98833	4896
5.98900	4896
5.98967	4895
5.99033	4894
5.99100	4894
5.99167	4893
5.99233	4892
5.99300	4892
5.99367	4891
5.99433	4890
5.99500	4890
5.99567	4889
5.99633	4889
5.99700	4888
5.99767	4887
5.99833	4887
5.99900	4886
5.99967	4886
6.00033	4885
6.00100	4885
6.00167	4884
6.00233	4884
6.00300	4884
6.00367	4883
6.00433	4883
6.00500	4883
6.00567	4882
6.00633	4882
6.00700	4882
6.00767	4881
6.00833	4881
6.00900	4881
6.00967	4881
6.01033	4880
6.01100	4880
6.01167	4880
6.01233	4880
6.01300	4879
6.01367	4879
6.01433	4879
6.01500	4879
6.01567	4878
6.01633	4878
6.01700	4878
6.01767	4878
6.01833	4878
6.01900	4878
6.01967	4878
6.02033	4878
6.02100	4878
6.02167	4878
6.02233	4878
6.02300	4878
6.02367	4878
6.02433	4878
6.02500	4878
6.02567	4878
6.02633	4878
6.02700	4878
6.02767	4878
6.02833	4879
6.02900	4879
6.02967	4879
6.03033	4879
6.03100	4879
6.03167	4879
6.03233	4879
6.03300	4879
6.03367	4879
6.03433	4880
6.03500	4880
6.03567	4880
6.03633	4880
6.03700	4880
6.03767	4880
6.03833	4880
6.03900	4880
6.03967	4880
6.04033	4880
6.04100	4880
6.04167	4880
6.04233	4880
6.04300	4880
6.04367	4881
6.04433	4881
6.04500	4881
6.04567	4881
6.04633	4881
6.04700	4881
6.04767	4881
6.04833	4881
6.04900	4881
6.04967	4882
6.05033	4882
6.05100	4882
6.05167	4882
6.05233	4882
6.05300	4882
6.05367	4883
6.05433	4883
6.05500	4883
6.05567	4883
6.05633	4884
6.05700	4884
6.05767	4884
6.05833	4885
6.05900	4885
6.05967	4886
6.06033	4886
6.06100	4886
6.06167	4887
6.06233	4887
6.06300	4888
6.06367	4888
6.06433	4889
6.06500	4889
6.06567	4890
6.06633	4890
6.06700	4891
6.06767	4891
6.06833	4892
6.06900	4893
6.06967	4893
6.07033	4894
6.07100	4894
6.07167	4895
6.07233	4896
6.07300	4896
6.07367	4897
6.07433	4898
6.07500	4898
6.07567	4899
6.07633	4900
6.07700	4900
6.07767	4901
6.07833	4901
6.07900	4902
6.07967	4903
6.08033	4903
6.08100	4904
6.08167	4904
6.08233	4905
6.08300	4905
6.08367	4906
6.08433	4906
6.08500	4907
6.08567	4907
6.08633	4907
6.08700	4908
6.08767	4908
6.08833	4909
6.08900	4909
6.08967	4910
6.09033	4910
6.09100	4911
6.09167	4911
6.09233	4912
6.09300	4912
6.09367	4912
6.09433	4913
6.09500	4913
6.09567	4913
6.09633	4913
6.09700	4914
6.09767	4914
6.09833	4914
6.09900	4914
6.09967	4914
6.10033	4915
6.10100	4915
6.10167	4915
6.10233	4915
6.10300	4915
6.10367	4915
6.10433	4915
6.10500	4915
6.10567	4915
6.10633	4915
6.10700	4915
6.10767	4915
6.10833	4915
6.10900	4915
6.10967	4915
6.11033	4915
6.11100	4915
6.11167	4915
6.11233	4914
6.11300	4914
6.11367	4914
6.11433	4914
6.11500	4913
6.11567	4913
6.11633	4913
6.11700	4912
6.11767	4912
6.11833	4912
6.11900	4911
6.11967	4911
6.12033	4910
6.12100	4910
6.12167	4909
6.12233	4909
6.12300	4908
6.12367	4907
6.12433	4907
6.12500	4906
6.12567	4906
6.12633	4905
6.12700	4904
6.12767	4903
6.12833	4903
6.12900	4902
6.12967	4901
6.13033	4900
6.13100	4900
6.13167	4899
6.13233	4898
6.13300	4897
6.13367	4896
6.13433	4895
6.13500	4895
6.13567	4894
6.13633	4893
6.13700	4892
6.13767	4891
6.13833	4890
6.13900	4889
6.13967	4887
6.14033	4886
6.14100	4885
6.14167	4884
6.14233	4883
6.14300	4882
6.14367	4881
6.14433	4880
6.14500	4878
6.14567	4877
6.14633	4876
6.14700	4875
6.14767	4874
6.14833	4872
6.14900	4871
6.14967	4870
6.15033	4869
6.15100	4867
6.15167	4866
6.15233	4865
6.15300	4863
6.15367	4862
6.15433	4861
6.15500	4860
6.15567	4859
6.15633	4857
6.15700	4856
6.15767	4855
6.15833	4854
6.15900	4853
6.15967	4852
6.16033	4851
6.16100	4850
6.16167	4848
6.16233	4847
6.16300	4846
6.16367	4845
6.16433	4844
6.16500	4842
6.16567	4841
6.16633	4840
6.16700	4839
6.16767	4838
6.16833	4836
6.16900	4835
6.16967	4834
6.17033	4833
6.17100	4832
6.17167	4831
6.17233	4830
6.17300	4828
6.17367	4827
6.17433	4826
6.17500	4825
6.17567	4824
6.17633	4823
6.17700	4822
6.17767	4820
6.17833	4819
6.17900	4818
6.17967	4817
6.18033	4816
6.18100	4815
6.18167	4814
6.18233	4813
6.18300	4811
6.18367	4810
6.18433	4809
6.18500	4808
6.18567	4807
6.18633	4806
6.18700	4805
6.18767	4804
6.18833	4802
6.18900	4801
6.18967	4800
6.19033	4799
6.19100	4798
6.19167	4797
6.19233	4795
6.19300	4794
6.19367	4793
6.19433	4792
6.19500	4791
6.19567	4790
6.19633	4789
6.19700	4788
6.19767	4787
6.19833	4785
6.19900	4784
6.19967	4783
6.20033	4782
6.20100	4781
6.20167	4780
6.20233	4779
6.20300	4778
6.20367	4777
6.20433	4776
6.20500	4775
6.20567	4774
6.20633	4773
6.20700	4772
6.20767	4772
6.20833	4771
6.20900	4770
6.20967	4769
6.21033	4768
6.21100	4768
6.21167	4767
6.21233	4766
6.21300	4766
6.21367	4765
6.21433	4764
6.21500	4764
6.21567	4763
6.21633	4763
6.21700	4762
6.21767	4761
6.21833	4761
6.21900	4760
6.21967	4760
6.22033	4759
6.22100	4758
6.22167	4758
6.22233	4757
6.22300	4756
6.22367	4756
6.22433	4755
6.22500	4755
6.22567	4754
6.22633	4754
6.22700	4753
6.22767	4753
6.22833	4752
6.22900	4752
6.22967	4752
6.23033	4751
6.23100	4751
6.23167	4751
6.23233	4750
6.23300	4750
6.23367	4749
6.23433	4749
6.23500	4749
6.23567	4748
6.23633	4748
6.23700	4748
6.23767	4747
6.23833	4747
6.23900	4747
6.23967	4747
6.24033	4746
6.24100	4746
6.24167	4746
6.24233	4746
6.24300	4746
6.24367	4745
6.24433	4745
6.24500	4745
6.24567	4745
6.24633	4745
6.24700	4745
6.24767	4745
6.24833	4745
6.24900	4745
6.24967	4745
6.25033	4745
6.25100	4745
6.25167	4745
6.25233	4745
6.25300	4745
6.25367	4745
6.25433	4745
6.25500	4745
6.25567	4745
6.25633	4744
6.25700	4744
6.25767	4744
6.25833	4744
6.25900	4744
6.25967	4744
6.26033	4744
6.26100	4744
6.26167	4744
6.26233	4743
6.26300	4743
6.26367	4743
6.26433	4743
6.26500	4743
6.26567	4743
6.26633	4743
6.26700	4744
6.26767	4744
6.26833	4744
6.26900	4744
6.26967	4744
6.27033	4744
6.27100	4744
6.27167	4744
6.27233	4745
6.27300	4745
6.27367	4745
6.27433	4745
6.27500	4746
6.27567	4746
6.27633	4746
6.27700	4746
6.27767	4746
6.27833	4747
6.27900	4747
6.27967	4747
6.28033	4747
6.28100	4747
6.28167	4747
6.28233	4747
6.28300	4748
6.28367	4748
6.28433	4748
6.28500	4748
6.28567	4748
6.28633	4748
6.28700	4748
6.28767	4748
6.28833	4748
6.28900	4748
6.28967	4748
6.29033	4748
6.29100	4748
6.29167	4748
6.29233	4747
6.29300	4747
6.29367	4747
6.29433	4747
6.29500	4747
6.29567	4747
6.29633	4747
6.29700	4746
6.29767	4746
6.29833	4746
6.29900	4746
6.29967	4746
6.30033	4745
6.30100	4745
6.30167	4745
6.30233	4745
6.30300	4745
6.30367	4745
6.30433	4744
6.30500	4744
6.30567	4744
6.30633	4744
6.30700	4744
6.30767	4744
6.30833	4743
6.30900	4743
6.30967	4743
6.31033	4743
6.31100	4743
6.31167	4743
6.31233	4743
6.31300	4743
6.31367	4742
6.31433	4742
6.31500	4742
6.31567	4742
6.31633	4742
6.31700	4741
6.31767	4741
6.31833	4741
6.31900	4741
6.31967	4740
6.32033	4740
6.32100	4740
6.32167	4740
6.32233	4739
6.32300	4739
6.32367	4739
6.32433	4738
6.32500	4738
6.32567	4737
6.32633	4737
6.32700	4737
6.32767	4736
6.32833	4736
6.32900	4735
6.32967	4735
6.33033	4734
6.33100	4734
6.33167	4734
6.33233	4733
6.33300	4733
6.33367	4732
6.33433	4732
6.33500	4731
6.33567	4730
6.33633	4730
6.33700	4729
6.33767	4729
6.33833	4728
6.33900	4727
6.33967	4727
6.34033	4726
6.34100	4725
6.34167	4725
6.34233	4724
6.34300	4723
6.34367	4723
6.34433	4722
6.34500	4722
6.34567	4721
6.34633	4720
6.34700	4720
6.34767	4719
6.34833	4718
6.34900	4717
6.34967	4717
6.35033	4716
6.35100	4715
6.35167	4715
6.35233	4714
6.35300	4713
6.35367	4713
6.35433	4712
6.35500	4711
6.35567	4711
6.35633	4710
6.35700	4709
6.35767	4709
6.35833	4708
6.35900	4707
6.35967	4706
6.36033	4706
6.36100	4705
6.36167	4704
6.36233	4704
6.36300	4703
6.36367	4702
6.36433	4702
6.36500	4701
6.36567	4700
6.36633	4700
6.36700	4699
6.36767	4698
6.36833	4698
6.36900	4697
6.36967	4696
6.37033	4695
6.37100	4695
6.37167	4694
6.37233	4693
6.37300	4692
6.37367	4692
6.37433	4691
6.37500	4690
6.37567	4689
6.37633	4689
6.37700	4688
6.37767	4688
6.37833	4687
6.37900	4686
6.37967	4686
6.38033	4685
6.38100	4685
6.38167	4684
6.38233	4684
6.38300	4683
6.38367	4683
6.38433	4682
6.38500	4681
6.38567	4681
6.38633	4680
6.38700	4680
6.38767	4679
6.38833	4679
6.38900	4678
6.38967	4678
6.39033	4677
6.39100	4677
6.39167	4676
6.39233	4676
6.39300	4675
6.39367	4675
6.39433	4674
6.39500	4674
6.39567	4673
6.39633	4673
6.39700	4672
6.39767	4672
6.39833	4670
6.39900	4670
6.39967	4670

