[Header]
Application Name	LabSolutions
Version	5.73
Data File Name	C:\LabSolutions\Data\Project1\stephen\2016-01-06\90.gcd
Output Date	1/11/2016
Output Time	1:19:58 PM

[Configuration]
Instrument Name	WEISSTA-PC-Instrument1
Instrument #	1
Line #	1
# of Detectors	1
Detector ID	DET#2
Detector Name	DFID1
# of Channels	1

[Chromatogram (Ch1)]
Interval(msec)	40
# of Points	9600
Start Time(min)	0.000
End Time(min)	6.399
R.Time (min)	Intensity
0.00000	-17
0.00067	-17
0.00133	-17
0.00200	-17
0.00267	-17
0.00333	-17
0.00400	-17
0.00467	-17
0.00533	-16
0.00600	-16
0.00667	-16
0.00733	-16
0.00800	-16
0.00867	-16
0.00933	-16
0.01000	-16
0.01067	-16
0.01133	-16
0.01200	-17
0.01267	-17
0.01333	-18
0.01400	-18
0.01467	-19
0.01533	-20
0.01600	-22
0.01667	-23
0.01733	-24
0.01800	-26
0.01867	-28
0.01933	-29
0.02000	-31
0.02067	-33
0.02133	-36
0.02200	-38
0.02267	-40
0.02333	-43
0.02400	-45
0.02467	-48
0.02533	-51
0.02600	-53
0.02667	-56
0.02733	-58
0.02800	-60
0.02867	-63
0.02933	-65
0.03000	-68
0.03067	-70
0.03133	-72
0.03200	-74
0.03267	-76
0.03333	-78
0.03400	-80
0.03467	-81
0.03533	-83
0.03600	-85
0.03667	-86
0.03733	-88
0.03800	-89
0.03867	-90
0.03933	-92
0.04000	-93
0.04067	-94
0.04133	-95
0.04200	-96
0.04267	-97
0.04333	-98
0.04400	-99
0.04467	-100
0.04533	-101
0.04600	-102
0.04667	-102
0.04733	-103
0.04800	-104
0.04867	-104
0.04933	-105
0.05000	-105
0.05067	-106
0.05133	-106
0.05200	-106
0.05267	-107
0.05333	-107
0.05400	-107
0.05467	-107
0.05533	-107
0.05600	-107
0.05667	-107
0.05733	-107
0.05800	-107
0.05867	-107
0.05933	-107
0.06000	-106
0.06067	-106
0.06133	-106
0.06200	-106
0.06267	-105
0.06333	-105
0.06400	-105
0.06467	-104
0.06533	-104
0.06600	-104
0.06667	-103
0.06733	-103
0.06800	-102
0.06867	-102
0.06933	-102
0.07000	-101
0.07067	-101
0.07133	-101
0.07200	-100
0.07267	-100
0.07333	-99
0.07400	-99
0.07467	-98
0.07533	-98
0.07600	-97
0.07667	-97
0.07733	-96
0.07800	-96
0.07867	-95
0.07933	-95
0.08000	-94
0.08067	-94
0.08133	-93
0.08200	-93
0.08267	-92
0.08333	-92
0.08400	-91
0.08467	-91
0.08533	-90
0.08600	-90
0.08667	-89
0.08733	-89
0.08800	-88
0.08867	-88
0.08933	-87
0.09000	-87
0.09067	-86
0.09133	-84
0.09200	-83
0.09267	-81
0.09333	-79
0.09400	-77
0.09467	-75
0.09533	-70
0.09600	-63
0.09667	-56
0.09733	-47
0.09800	-38
0.09867	-29
0.09933	-20
0.10000	-9
0.10067	10
0.10133	33
0.10200	60
0.10267	88
0.10333	115
0.10400	146
0.10467	178
0.10533	211
0.10600	244
0.10667	276
0.10733	308
0.10800	338
0.10867	368
0.10933	397
0.11000	427
0.11067	460
0.11133	527
0.11200	601
0.11267	670
0.11333	735
0.11400	796
0.11467	852
0.11533	904
0.11600	952
0.11667	997
0.11733	1038
0.11800	1076
0.11867	1110
0.11933	1140
0.12000	1167
0.12067	1190
0.12133	1212
0.12200	1236
0.12267	1259
0.12333	1279
0.12400	1297
0.12467	1312
0.12533	1324
0.12600	1334
0.12667	1342
0.12733	1348
0.12800	1352
0.12867	1354
0.12933	1355
0.13000	1355
0.13067	1357
0.13133	1365
0.13200	1391
0.13267	1419
0.13333	1446
0.13400	1471
0.13467	1506
0.13533	1600
0.13600	1910
0.13667	2813
0.13733	5049
0.13800	9966
0.13867	19702
0.13933	37601
0.14000	68518
0.14067	119713
0.14133	201403
0.14200	328029
0.14267	517899
0.14333	792615
0.14400	1175019
0.14467	1687978
0.14533	2352739
0.14600	3189505
0.14667	4215853
0.14733	5445962
0.14800	6890228
0.14867	8555568
0.14933	10446719
0.15000	12566620
0.15067	14916318
0.15133	17489997
0.15200	20275458
0.15267	23272201
0.15333	26497896
0.15400	29963755
0.15467	33666146
0.15533	37589459
0.15600	41711563
0.15667	46007507
0.15733	50451663
0.15800	55019416
0.15867	59687262
0.15933	64432952
0.16000	69235219
0.16067	74073958
0.16133	78930179
0.16200	83785668
0.16267	88623166
0.16333	93426438
0.16400	98179904
0.16467	102868580
0.16533	107478609
0.16600	111996341
0.16667	116408594
0.16733	120702974
0.16800	124868457
0.16867	128894823
0.16933	132773448
0.17000	136496389
0.17067	140057201
0.17133	143450289
0.17200	146671440
0.17267	149717217
0.17333	152585243
0.17400	155273768
0.17467	157781817
0.17533	160108914
0.17600	162255633
0.17667	164223916
0.17733	166016725
0.17800	167636742
0.17867	169085788
0.17933	170365209
0.18000	171476187
0.18067	172420441
0.18133	173200041
0.18200	173817707
0.18267	174276596
0.18333	174580484
0.18400	174733233
0.18467	174739161
0.18533	174602621
0.18600	174328247
0.18667	173920633
0.18733	173384603
0.18800	172724933
0.18867	171946542
0.18933	171054334
0.19000	170053267
0.19067	168948266
0.19133	167744327
0.19200	166446535
0.19267	165060075
0.19333	163590144
0.19400	162041950
0.19467	160420677
0.19533	158731393
0.19600	156979134
0.19667	155168824
0.19733	153305324
0.19800	151393315
0.19867	149437403
0.19933	147441993
0.20000	145411373
0.20067	143349659
0.20133	141260828
0.20200	139148648
0.20267	137016742
0.20333	134868564
0.20400	132707412
0.20467	130536416
0.20533	128358578
0.20600	126176754
0.20667	123993695
0.20733	121812061
0.20800	119634504
0.20867	117463642
0.20933	115301870
0.21000	113151176
0.21067	111013096
0.21133	108888867
0.21200	106779539
0.21267	104686107
0.21333	102609533
0.21400	100550793
0.21467	98510840
0.21533	96490609
0.21600	94490987
0.21667	92512831
0.21733	90556942
0.21800	88624085
0.21867	86714963
0.21933	84830224
0.22000	82970453
0.22067	81136181
0.22133	79327877
0.22200	77545953
0.22267	75790761
0.22333	74062600
0.22400	72361725
0.22467	70688341
0.22533	69042611
0.22600	67424653
0.22667	65834553
0.22733	64272356
0.22800	62738075
0.22867	61231687
0.22933	59753134
0.23000	58302329
0.23067	56879162
0.23133	55483493
0.23200	54115166
0.23267	52773996
0.23333	51459780
0.23400	50172297
0.23467	48911307
0.23533	47676555
0.23600	46467773
0.23667	45284680
0.23733	44126984
0.23800	42994383
0.23867	41886563
0.23933	40803202
0.24000	39743969
0.24067	38708529
0.24133	37696541
0.24200	36707657
0.24267	35741523
0.24333	34797785
0.24400	33876081
0.24467	32976051
0.24533	32097331
0.24600	31239555
0.24667	30402354
0.24733	29585362
0.24800	28788211
0.24867	28010535
0.24933	27251967
0.25000	26512143
0.25067	25790700
0.25133	25087278
0.25200	24401518
0.25267	23733065
0.25333	23081566
0.25400	22446673
0.25467	21828039
0.25533	21225323
0.25600	20638183
0.25667	20066287
0.25733	19509300
0.25800	18966897
0.25867	18438755
0.25933	17924556
0.26000	17423985
0.26067	16936734
0.26133	16462498
0.26200	16000975
0.26267	15551869
0.26333	15114889
0.26400	14689748
0.26467	14276167
0.26533	13873868
0.26600	13482580
0.26667	13102035
0.26733	12731972
0.26800	12372132
0.26867	12022265
0.26933	11682123
0.27000	11351462
0.27067	11030044
0.27133	10717633
0.27200	10413999
0.27267	10118919
0.27333	9832171
0.27400	9553542
0.27467	9282821
0.27533	9019800
0.27600	8764278
0.27667	8516056
0.27733	8274944
0.27800	8040752
0.27867	7813297
0.27933	7592404
0.28000	7377914
0.28067	7169693
0.28133	6967635
0.28200	6771646
0.28267	6581631
0.28333	6397474
0.28400	6219039
0.28467	6046169
0.28533	5878695
0.28600	5716448
0.28667	5559266
0.28733	5406993
0.28800	5259482
0.28867	5116594
0.28933	4978194
0.29000	4844150
0.29067	4714333
0.29133	4588615
0.29200	4466866
0.29267	4348960
0.29333	4234768
0.29400	4124167
0.29467	4017033
0.29533	3913248
0.29600	3812696
0.29667	3715264
0.29733	3620843
0.29800	3529329
0.29867	3440617
0.29933	3354611
0.30000	3271215
0.30067	3190338
0.30133	3111892
0.30200	3035792
0.30267	2961956
0.30333	2890308
0.30400	2820772
0.30467	2753278
0.30533	2687756
0.30600	2624141
0.30667	2562370
0.30733	2502383
0.30800	2444120
0.30867	2387526
0.30933	2332547
0.31000	2279132
0.31067	2227230
0.31133	2176795
0.31200	2127779
0.31267	2080140
0.31333	2033833
0.31400	1988814
0.31467	1945045
0.31533	1902484
0.31600	1861095
0.31667	1820840
0.31733	1781683
0.31800	1743592
0.31867	1706537
0.31933	1670488
0.32000	1635418
0.32067	1601302
0.32133	1568117
0.32200	1535841
0.32267	1504454
0.32333	1473937
0.32400	1444273
0.32467	1415443
0.32533	1387433
0.32600	1360227
0.32667	1333814
0.32733	1308182
0.32800	1283321
0.32867	1259224
0.32933	1235883
0.33000	1213296
0.33067	1191458
0.33133	1170368
0.33200	1150027
0.33267	1130436
0.33333	1111596
0.33400	1093505
0.33467	1076165
0.33533	1059574
0.33600	1043730
0.33667	1028628
0.33733	1014262
0.33800	1000624
0.33867	987708
0.33933	975502
0.34000	963998
0.34067	953183
0.34133	943046
0.34200	933575
0.34267	924759
0.34333	916587
0.34400	909049
0.34467	902133
0.34533	895824
0.34600	890111
0.34667	884981
0.34733	880418
0.34800	876409
0.34867	872935
0.34933	869980
0.35000	867525
0.35067	865552
0.35133	864047
0.35200	862994
0.35267	862377
0.35333	862180
0.35400	862388
0.35467	862982
0.35533	863947
0.35600	865264
0.35667	866914
0.35733	868879
0.35800	871138
0.35867	873673
0.35933	876466
0.36000	879498
0.36067	882754
0.36133	886219
0.36200	889878
0.36267	893721
0.36333	897739
0.36400	901921
0.36467	906261
0.36533	910750
0.36600	915380
0.36667	920143
0.36733	925032
0.36800	930038
0.36867	935154
0.36933	940370
0.37000	945678
0.37067	951071
0.37133	956539
0.37200	962077
0.37267	967677
0.37333	973334
0.37400	979047
0.37467	984814
0.37533	990637
0.37600	996518
0.37667	1002464
0.37733	1008479
0.37800	1014571
0.37867	1020745
0.37933	1027006
0.38000	1033356
0.38067	1039797
0.38133	1046325
0.38200	1052936
0.38267	1059624
0.38333	1066383
0.38400	1073202
0.38467	1080073
0.38533	1086985
0.38600	1093926
0.38667	1100888
0.38733	1107856
0.38800	1114818
0.38867	1121764
0.38933	1128682
0.39000	1135564
0.39067	1142405
0.39133	1149195
0.39200	1155927
0.39267	1162594
0.39333	1169186
0.39400	1175689
0.39467	1182089
0.39533	1188368
0.39600	1194504
0.39667	1200475
0.39733	1206255
0.39800	1211817
0.39867	1217134
0.39933	1222180
0.40000	1226925
0.40067	1231342
0.40133	1235400
0.40200	1239067
0.40267	1242309
0.40333	1245092
0.40400	1247378
0.40467	1249131
0.40533	1250313
0.40600	1250887
0.40667	1250818
0.40733	1250072
0.40800	1248620
0.40867	1246435
0.40933	1243493
0.41000	1239778
0.41067	1235276
0.41133	1229982
0.41200	1223900
0.41267	1217039
0.41333	1209416
0.41400	1201053
0.41467	1191978
0.41533	1182224
0.41600	1171825
0.41667	1160820
0.41733	1149249
0.41800	1137150
0.41867	1124566
0.41933	1111537
0.42000	1098103
0.42067	1084301
0.42133	1070172
0.42200	1055752
0.42267	1041077
0.42333	1026179
0.42400	1011092
0.42467	995847
0.42533	980472
0.42600	964994
0.42667	949441
0.42733	933837
0.42800	918206
0.42867	902568
0.42933	886944
0.43000	871354
0.43067	855816
0.43133	840344
0.43200	824956
0.43267	809665
0.43333	794483
0.43400	779424
0.43467	764497
0.43533	749713
0.43600	735081
0.43667	720609
0.43733	706305
0.43800	692176
0.43867	678229
0.43933	664468
0.44000	650899
0.44067	637527
0.44133	624354
0.44200	611383
0.44267	598618
0.44333	586059
0.44400	573709
0.44467	561568
0.44533	549638
0.44600	537918
0.44667	526408
0.44733	515109
0.44800	504022
0.44867	493146
0.44933	482481
0.45000	472026
0.45067	461782
0.45133	451747
0.45200	441920
0.45267	432301
0.45333	422886
0.45400	413676
0.45467	404667
0.45533	395859
0.45600	387248
0.45667	378833
0.45733	370611
0.45800	362581
0.45867	354739
0.45933	347084
0.46000	339613
0.46067	332324
0.46133	325215
0.46200	318283
0.46267	311526
0.46333	304943
0.46400	298531
0.46467	292289
0.46533	286215
0.46600	280308
0.46667	274565
0.46733	268985
0.46800	263566
0.46867	258304
0.46933	253197
0.47000	248239
0.47067	243427
0.47133	238756
0.47200	234224
0.47267	229826
0.47333	225559
0.47400	221418
0.47467	217401
0.47533	213502
0.47600	209719
0.47667	206049
0.47733	202486
0.47800	199029
0.47867	195674
0.47933	192417
0.48000	189255
0.48067	186186
0.48133	183206
0.48200	180313
0.48267	177504
0.48333	174776
0.48400	172126
0.48467	169552
0.48533	167052
0.48600	164623
0.48667	162263
0.48733	159969
0.48800	157740
0.48867	155574
0.48933	153467
0.49000	151418
0.49067	149426
0.49133	147488
0.49200	145601
0.49267	143765
0.49333	141978
0.49400	140237
0.49467	138541
0.49533	136889
0.49600	135279
0.49667	133709
0.49733	132178
0.49800	130685
0.49867	129229
0.49933	127807
0.50000	126420
0.50067	125065
0.50133	123742
0.50200	122450
0.50267	121187
0.50333	119952
0.50400	118745
0.50467	117564
0.50533	116409
0.50600	115279
0.50667	114172
0.50733	113088
0.50800	112026
0.50867	110986
0.50933	109966
0.51000	108967
0.51067	107986
0.51133	107024
0.51200	106080
0.51267	105154
0.51333	104244
0.51400	103351
0.51467	102473
0.51533	101610
0.51600	100762
0.51667	99928
0.51733	99108
0.51800	98301
0.51867	97507
0.51933	96726
0.52000	95956
0.52067	95199
0.52133	94453
0.52200	93718
0.52267	92993
0.52333	92279
0.52400	91575
0.52467	90881
0.52533	90196
0.52600	89521
0.52667	88855
0.52733	88198
0.52800	87549
0.52867	86908
0.52933	86275
0.53000	85651
0.53067	85034
0.53133	84425
0.53200	83823
0.53267	83228
0.53333	82640
0.53400	82059
0.53467	81484
0.53533	80916
0.53600	80355
0.53667	79799
0.53733	79250
0.53800	78707
0.53867	78170
0.53933	77638
0.54000	77112
0.54067	76591
0.54133	76076
0.54200	75567
0.54267	75062
0.54333	74563
0.54400	74068
0.54467	73579
0.54533	73095
0.54600	72615
0.54667	72141
0.54733	71671
0.54800	71205
0.54867	70745
0.54933	70289
0.55000	69837
0.55067	69391
0.55133	68948
0.55200	68511
0.55267	68077
0.55333	67649
0.55400	67224
0.55467	66804
0.55533	66389
0.55600	65978
0.55667	65572
0.55733	65170
0.55800	64773
0.55867	64380
0.55933	63992
0.56000	63608
0.56067	63229
0.56133	62854
0.56200	62483
0.56267	62117
0.56333	61754
0.56400	61396
0.56467	61041
0.56533	60690
0.56600	60342
0.56667	59998
0.56733	59658
0.56800	59320
0.56867	58986
0.56933	58654
0.57000	58326
0.57067	58000
0.57133	57677
0.57200	57357
0.57267	57039
0.57333	56724
0.57400	56411
0.57467	56101
0.57533	55792
0.57600	55487
0.57667	55183
0.57733	54882
0.57800	54583
0.57867	54286
0.57933	53991
0.58000	53697
0.58067	53406
0.58133	53117
0.58200	52830
0.58267	52544
0.58333	52261
0.58400	51979
0.58467	51699
0.58533	51421
0.58600	51144
0.58667	50870
0.58733	50597
0.58800	50326
0.58867	50057
0.58933	49789
0.59000	49524
0.59067	49260
0.59133	48998
0.59200	48738
0.59267	48479
0.59333	48223
0.59400	47968
0.59467	47715
0.59533	47464
0.59600	47215
0.59667	46968
0.59733	46722
0.59800	46479
0.59867	46237
0.59933	45997
0.60000	45759
0.60067	45523
0.60133	45289
0.60200	45056
0.60267	44825
0.60333	44597
0.60400	44370
0.60467	44144
0.60533	43921
0.60600	43700
0.60667	43480
0.60733	43262
0.60800	43046
0.60867	42832
0.60933	42620
0.61000	42409
0.61067	42201
0.61133	41994
0.61200	41790
0.61267	41587
0.61333	41386
0.61400	41186
0.61467	40989
0.61533	40794
0.61600	40601
0.61667	40409
0.61733	40219
0.61800	40032
0.61867	39846
0.61933	39662
0.62000	39479
0.62067	39299
0.62133	39120
0.62200	38944
0.62267	38769
0.62333	38595
0.62400	38423
0.62467	38253
0.62533	38085
0.62600	37917
0.62667	37752
0.62733	37588
0.62800	37425
0.62867	37263
0.62933	37103
0.63000	36944
0.63067	36787
0.63133	36630
0.63200	36475
0.63267	36321
0.63333	36168
0.63400	36016
0.63467	35865
0.63533	35716
0.63600	35567
0.63667	35420
0.63733	35274
0.63800	35128
0.63867	34984
0.63933	34841
0.64000	34700
0.64067	34559
0.64133	34420
0.64200	34281
0.64267	34144
0.64333	34008
0.64400	33873
0.64467	33739
0.64533	33607
0.64600	33475
0.64667	33345
0.64733	33216
0.64800	33087
0.64867	32960
0.64933	32834
0.65000	32710
0.65067	32586
0.65133	32463
0.65200	32341
0.65267	32220
0.65333	32100
0.65400	31980
0.65467	31862
0.65533	31744
0.65600	31627
0.65667	31511
0.65733	31396
0.65800	31281
0.65867	31167
0.65933	31053
0.66000	30941
0.66067	30828
0.66133	30716
0.66200	30605
0.66267	30494
0.66333	30384
0.66400	30274
0.66467	30164
0.66533	30056
0.66600	29947
0.66667	29839
0.66733	29732
0.66800	29625
0.66867	29519
0.66933	29413
0.67000	29307
0.67067	29202
0.67133	29098
0.67200	28994
0.67267	28890
0.67333	28787
0.67400	28684
0.67467	28582
0.67533	28480
0.67600	28379
0.67667	28278
0.67733	28178
0.67800	28079
0.67867	27980
0.67933	27882
0.68000	27785
0.68067	27689
0.68133	27594
0.68200	27500
0.68267	27407
0.68333	27315
0.68400	27224
0.68467	27135
0.68533	27047
0.68600	26961
0.68667	26878
0.68733	26796
0.68800	26716
0.68867	26639
0.68933	26564
0.69000	26493
0.69067	26424
0.69133	26359
0.69200	26298
0.69267	26240
0.69333	26187
0.69400	26138
0.69467	26093
0.69533	26054
0.69600	26019
0.69667	25988
0.69733	25963
0.69800	25944
0.69867	25929
0.69933	25919
0.70000	25914
0.70067	25914
0.70133	25917
0.70200	25925
0.70267	25936
0.70333	25951
0.70400	25967
0.70467	25986
0.70533	26006
0.70600	26027
0.70667	26049
0.70733	26070
0.70800	26091
0.70867	26110
0.70933	26127
0.71000	26142
0.71067	26154
0.71133	26164
0.71200	26169
0.71267	26171
0.71333	26169
0.71400	26163
0.71467	26152
0.71533	26136
0.71600	26117
0.71667	26092
0.71733	26063
0.71800	26030
0.71867	25992
0.71933	25950
0.72000	25904
0.72067	25855
0.72133	25801
0.72200	25744
0.72267	25683
0.72333	25620
0.72400	25553
0.72467	25484
0.72533	25412
0.72600	25337
0.72667	25261
0.72733	25182
0.72800	25101
0.72867	25019
0.72933	24935
0.73000	24850
0.73067	24764
0.73133	24676
0.73200	24587
0.73267	24498
0.73333	24407
0.73400	24316
0.73467	24225
0.73533	24133
0.73600	24041
0.73667	23948
0.73733	23855
0.73800	23763
0.73867	23670
0.73933	23577
0.74000	23484
0.74067	23391
0.74133	23299
0.74200	23207
0.74267	23115
0.74333	23023
0.74400	22932
0.74467	22841
0.74533	22751
0.74600	22661
0.74667	22572
0.74733	22483
0.74800	22395
0.74867	22307
0.74933	22220
0.75000	22134
0.75067	22048
0.75133	21963
0.75200	21878
0.75267	21794
0.75333	21711
0.75400	21629
0.75467	21547
0.75533	21466
0.75600	21386
0.75667	21306
0.75733	21227
0.75800	21149
0.75867	21072
0.75933	20995
0.76000	20920
0.76067	20845
0.76133	20770
0.76200	20697
0.76267	20624
0.76333	20552
0.76400	20481
0.76467	20411
0.76533	20341
0.76600	20272
0.76667	20204
0.76733	20136
0.76800	20070
0.76867	20004
0.76933	19938
0.77000	19874
0.77067	19810
0.77133	19747
0.77200	19684
0.77267	19623
0.77333	19562
0.77400	19501
0.77467	19442
0.77533	19383
0.77600	19324
0.77667	19266
0.77733	19209
0.77800	19153
0.77867	19097
0.77933	19041
0.78000	18987
0.78067	18932
0.78133	18879
0.78200	18826
0.78267	18773
0.78333	18721
0.78400	18670
0.78467	18619
0.78533	18569
0.78600	18519
0.78667	18470
0.78733	18421
0.78800	18373
0.78867	18325
0.78933	18277
0.79000	18231
0.79067	18184
0.79133	18138
0.79200	18092
0.79267	18047
0.79333	18002
0.79400	17958
0.79467	17914
0.79533	17870
0.79600	17827
0.79667	17784
0.79733	17742
0.79800	17700
0.79867	17659
0.79933	17617
0.80000	17577
0.80067	17536
0.80133	17496
0.80200	17456
0.80267	17417
0.80333	17378
0.80400	17339
0.80467	17301
0.80533	17263
0.80600	17225
0.80667	17188
0.80733	17151
0.80800	17114
0.80867	17078
0.80933	17041
0.81000	17006
0.81067	16970
0.81133	16935
0.81200	16900
0.81267	16865
0.81333	16831
0.81400	16797
0.81467	16763
0.81533	16730
0.81600	16697
0.81667	16665
0.81733	16633
0.81800	16601
0.81867	16569
0.81933	16538
0.82000	16507
0.82067	16476
0.82133	16446
0.82200	16416
0.82267	16387
0.82333	16358
0.82400	16329
0.82467	16301
0.82533	16272
0.82600	16244
0.82667	16217
0.82733	16189
0.82800	16162
0.82867	16135
0.82933	16108
0.83000	16082
0.83067	16055
0.83133	16029
0.83200	16003
0.83267	15977
0.83333	15952
0.83400	15926
0.83467	15901
0.83533	15876
0.83600	15850
0.83667	15825
0.83733	15800
0.83800	15775
0.83867	15750
0.83933	15725
0.84000	15700
0.84067	15675
0.84133	15651
0.84200	15626
0.84267	15601
0.84333	15577
0.84400	15552
0.84467	15528
0.84533	15504
0.84600	15479
0.84667	15455
0.84733	15431
0.84800	15407
0.84867	15383
0.84933	15358
0.85000	15334
0.85067	15310
0.85133	15286
0.85200	15262
0.85267	15238
0.85333	15214
0.85400	15191
0.85467	15167
0.85533	15143
0.85600	15119
0.85667	15095
0.85733	15072
0.85800	15048
0.85867	15025
0.85933	15001
0.86000	14978
0.86067	14954
0.86133	14931
0.86200	14907
0.86267	14884
0.86333	14860
0.86400	14837
0.86467	14814
0.86533	14790
0.86600	14767
0.86667	14744
0.86733	14721
0.86800	14698
0.86867	14675
0.86933	14652
0.87000	14629
0.87067	14607
0.87133	14584
0.87200	14562
0.87267	14539
0.87333	14517
0.87400	14495
0.87467	14473
0.87533	14451
0.87600	14429
0.87667	14407
0.87733	14385
0.87800	14363
0.87867	14342
0.87933	14320
0.88000	14299
0.88067	14277
0.88133	14256
0.88200	14235
0.88267	14214
0.88333	14193
0.88400	14172
0.88467	14151
0.88533	14131
0.88600	14110
0.88667	14090
0.88733	14069
0.88800	14049
0.88867	14029
0.88933	14009
0.89000	13989
0.89067	13970
0.89133	13950
0.89200	13930
0.89267	13911
0.89333	13892
0.89400	13872
0.89467	13853
0.89533	13834
0.89600	13815
0.89667	13797
0.89733	13778
0.89800	13759
0.89867	13740
0.89933	13722
0.90000	13703
0.90067	13685
0.90133	13667
0.90200	13648
0.90267	13630
0.90333	13612
0.90400	13594
0.90467	13576
0.90533	13559
0.90600	13541
0.90667	13523
0.90733	13506
0.90800	13488
0.90867	13471
0.90933	13454
0.91000	13437
0.91067	13419
0.91133	13402
0.91200	13386
0.91267	13369
0.91333	13352
0.91400	13335
0.91467	13319
0.91533	13302
0.91600	13286
0.91667	13269
0.91733	13253
0.91800	13236
0.91867	13220
0.91933	13204
0.92000	13188
0.92067	13172
0.92133	13156
0.92200	13140
0.92267	13124
0.92333	13108
0.92400	13092
0.92467	13076
0.92533	13060
0.92600	13045
0.92667	13029
0.92733	13014
0.92800	12998
0.92867	12983
0.92933	12968
0.93000	12953
0.93067	12938
0.93133	12923
0.93200	12908
0.93267	12893
0.93333	12879
0.93400	12864
0.93467	12849
0.93533	12835
0.93600	12821
0.93667	12806
0.93733	12792
0.93800	12778
0.93867	12764
0.93933	12750
0.94000	12736
0.94067	12722
0.94133	12708
0.94200	12694
0.94267	12680
0.94333	12666
0.94400	12652
0.94467	12638
0.94533	12625
0.94600	12611
0.94667	12597
0.94733	12584
0.94800	12570
0.94867	12557
0.94933	12543
0.95000	12529
0.95067	12516
0.95133	12502
0.95200	12489
0.95267	12476
0.95333	12462
0.95400	12449
0.95467	12436
0.95533	12423
0.95600	12410
0.95667	12396
0.95733	12383
0.95800	12370
0.95867	12357
0.95933	12345
0.96000	12332
0.96067	12319
0.96133	12306
0.96200	12294
0.96267	12281
0.96333	12269
0.96400	12256
0.96467	12244
0.96533	12232
0.96600	12219
0.96667	12207
0.96733	12195
0.96800	12183
0.96867	12171
0.96933	12159
0.97000	12147
0.97067	12135
0.97133	12123
0.97200	12112
0.97267	12100
0.97333	12088
0.97400	12076
0.97467	12064
0.97533	12052
0.97600	12040
0.97667	12028
0.97733	12016
0.97800	12004
0.97867	11992
0.97933	11980
0.98000	11968
0.98067	11956
0.98133	11944
0.98200	11932
0.98267	11919
0.98333	11907
0.98400	11895
0.98467	11882
0.98533	11870
0.98600	11857
0.98667	11844
0.98733	11832
0.98800	11819
0.98867	11806
0.98933	11794
0.99000	11781
0.99067	11768
0.99133	11755
0.99200	11742
0.99267	11730
0.99333	11717
0.99400	11704
0.99467	11691
0.99533	11678
0.99600	11665
0.99667	11652
0.99733	11640
0.99800	11627
0.99867	11614
0.99933	11602
1.00000	11589
1.00067	11577
1.00133	11564
1.00200	11552
1.00267	11539
1.00333	11527
1.00400	11515
1.00467	11503
1.00533	11491
1.00600	11478
1.00667	11466
1.00733	11455
1.00800	11443
1.00867	11431
1.00933	11420
1.01000	11408
1.01067	11397
1.01133	11385
1.01200	11374
1.01267	11363
1.01333	11352
1.01400	11341
1.01467	11331
1.01533	11320
1.01600	11310
1.01667	11300
1.01733	11290
1.01800	11281
1.01867	11272
1.01933	11263
1.02000	11254
1.02067	11246
1.02133	11238
1.02200	11230
1.02267	11223
1.02333	11216
1.02400	11209
1.02467	11203
1.02533	11196
1.02600	11191
1.02667	11185
1.02733	11180
1.02800	11175
1.02867	11170
1.02933	11165
1.03000	11161
1.03067	11156
1.03133	11152
1.03200	11148
1.03267	11144
1.03333	11140
1.03400	11136
1.03467	11132
1.03533	11127
1.03600	11123
1.03667	11119
1.03733	11114
1.03800	11110
1.03867	11105
1.03933	11100
1.04000	11094
1.04067	11089
1.04133	11083
1.04200	11077
1.04267	11071
1.04333	11064
1.04400	11057
1.04467	11050
1.04533	11043
1.04600	11036
1.04667	11028
1.04733	11020
1.04800	11012
1.04867	11004
1.04933	10995
1.05000	10986
1.05067	10977
1.05133	10968
1.05200	10959
1.05267	10950
1.05333	10940
1.05400	10930
1.05467	10921
1.05533	10911
1.05600	10901
1.05667	10891
1.05733	10880
1.05800	10870
1.05867	10860
1.05933	10849
1.06000	10839
1.06067	10828
1.06133	10817
1.06200	10806
1.06267	10796
1.06333	10785
1.06400	10774
1.06467	10763
1.06533	10752
1.06600	10740
1.06667	10729
1.06733	10718
1.06800	10707
1.06867	10696
1.06933	10685
1.07000	10674
1.07067	10662
1.07133	10651
1.07200	10640
1.07267	10629
1.07333	10618
1.07400	10607
1.07467	10596
1.07533	10585
1.07600	10574
1.07667	10562
1.07733	10551
1.07800	10540
1.07867	10529
1.07933	10518
1.08000	10508
1.08067	10497
1.08133	10486
1.08200	10475
1.08267	10465
1.08333	10454
1.08400	10444
1.08467	10433
1.08533	10423
1.08600	10412
1.08667	10402
1.08733	10392
1.08800	10382
1.08867	10371
1.08933	10361
1.09000	10351
1.09067	10341
1.09133	10331
1.09200	10322
1.09267	10312
1.09333	10302
1.09400	10292
1.09467	10283
1.09533	10273
1.09600	10264
1.09667	10254
1.09733	10245
1.09800	10235
1.09867	10226
1.09933	10216
1.10000	10207
1.10067	10198
1.10133	10188
1.10200	10179
1.10267	10170
1.10333	10161
1.10400	10151
1.10467	10142
1.10533	10133
1.10600	10124
1.10667	10115
1.10733	10105
1.10800	10096
1.10867	10087
1.10933	10078
1.11000	10070
1.11067	10061
1.11133	10052
1.11200	10043
1.11267	10034
1.11333	10026
1.11400	10017
1.11467	10008
1.11533	10000
1.11600	9991
1.11667	9983
1.11733	9974
1.11800	9966
1.11867	9958
1.11933	9950
1.12000	9942
1.12067	9934
1.12133	9926
1.12200	9918
1.12267	9910
1.12333	9902
1.12400	9895
1.12467	9887
1.12533	9880
1.12600	9873
1.12667	9866
1.12733	9859
1.12800	9853
1.12867	9846
1.12933	9840
1.13000	9834
1.13067	9828
1.13133	9822
1.13200	9817
1.13267	9812
1.13333	9807
1.13400	9802
1.13467	9798
1.13533	9794
1.13600	9790
1.13667	9786
1.13733	9783
1.13800	9779
1.13867	9776
1.13933	9773
1.14000	9770
1.14067	9768
1.14133	9765
1.14200	9763
1.14267	9761
1.14333	9759
1.14400	9757
1.14467	9755
1.14533	9753
1.14600	9750
1.14667	9748
1.14733	9746
1.14800	9744
1.14867	9741
1.14933	9739
1.15000	9736
1.15067	9734
1.15133	9731
1.15200	9728
1.15267	9725
1.15333	9722
1.15400	9718
1.15467	9715
1.15533	9711
1.15600	9707
1.15667	9703
1.15733	9699
1.15800	9694
1.15867	9690
1.15933	9685
1.16000	9680
1.16067	9675
1.16133	9670
1.16200	9665
1.16267	9659
1.16333	9654
1.16400	9648
1.16467	9642
1.16533	9636
1.16600	9630
1.16667	9623
1.16733	9617
1.16800	9611
1.16867	9604
1.16933	9597
1.17000	9590
1.17067	9584
1.17133	9577
1.17200	9570
1.17267	9563
1.17333	9556
1.17400	9548
1.17467	9541
1.17533	9534
1.17600	9527
1.17667	9519
1.17733	9512
1.17800	9505
1.17867	9497
1.17933	9490
1.18000	9483
1.18067	9475
1.18133	9468
1.18200	9460
1.18267	9453
1.18333	9445
1.18400	9438
1.18467	9431
1.18533	9424
1.18600	9417
1.18667	9409
1.18733	9402
1.18800	9395
1.18867	9388
1.18933	9381
1.19000	9374
1.19067	9367
1.19133	9360
1.19200	9353
1.19267	9346
1.19333	9340
1.19400	9333
1.19467	9326
1.19533	9320
1.19600	9313
1.19667	9307
1.19733	9301
1.19800	9294
1.19867	9288
1.19933	9282
1.20000	9276
1.20067	9270
1.20133	9264
1.20200	9259
1.20267	9253
1.20333	9248
1.20400	9242
1.20467	9237
1.20533	9232
1.20600	9227
1.20667	9222
1.20733	9217
1.20800	9212
1.20867	9207
1.20933	9203
1.21000	9198
1.21067	9194
1.21133	9190
1.21200	9185
1.21267	9181
1.21333	9177
1.21400	9174
1.21467	9170
1.21533	9166
1.21600	9163
1.21667	9159
1.21733	9156
1.21800	9152
1.21867	9149
1.21933	9145
1.22000	9142
1.22067	9139
1.22133	9136
1.22200	9133
1.22267	9130
1.22333	9127
1.22400	9123
1.22467	9120
1.22533	9117
1.22600	9114
1.22667	9111
1.22733	9108
1.22800	9105
1.22867	9102
1.22933	9099
1.23000	9096
1.23067	9093
1.23133	9090
1.23200	9087
1.23267	9085
1.23333	9082
1.23400	9079
1.23467	9076
1.23533	9073
1.23600	9070
1.23667	9068
1.23733	9065
1.23800	9062
1.23867	9060
1.23933	9057
1.24000	9054
1.24067	9051
1.24133	9049
1.24200	9046
1.24267	9043
1.24333	9041
1.24400	9038
1.24467	9035
1.24533	9033
1.24600	9030
1.24667	9028
1.24733	9025
1.24800	9023
1.24867	9020
1.24933	9017
1.25000	9015
1.25067	9012
1.25133	9010
1.25200	9007
1.25267	9005
1.25333	9003
1.25400	9000
1.25467	8998
1.25533	8996
1.25600	8994
1.25667	8992
1.25733	8990
1.25800	8988
1.25867	8986
1.25933	8984
1.26000	8983
1.26067	8981
1.26133	8980
1.26200	8978
1.26267	8977
1.26333	8976
1.26400	8974
1.26467	8973
1.26533	8972
1.26600	8972
1.26667	8971
1.26733	8971
1.26800	8970
1.26867	8970
1.26933	8970
1.27000	8970
1.27067	8970
1.27133	8971
1.27200	8972
1.27267	8972
1.27333	8973
1.27400	8975
1.27467	8976
1.27533	8978
1.27600	8980
1.27667	8982
1.27733	8985
1.27800	8987
1.27867	8990
1.27933	8994
1.28000	8997
1.28067	9001
1.28133	9005
1.28200	9009
1.28267	9013
1.28333	9018
1.28400	9023
1.28467	9028
1.28533	9033
1.28600	9038
1.28667	9043
1.28733	9048
1.28800	9053
1.28867	9058
1.28933	9063
1.29000	9068
1.29067	9073
1.29133	9077
1.29200	9082
1.29267	9086
1.29333	9090
1.29400	9093
1.29467	9097
1.29533	9100
1.29600	9103
1.29667	9106
1.29733	9108
1.29800	9110
1.29867	9112
1.29933	9113
1.30000	9114
1.30067	9115
1.30133	9115
1.30200	9115
1.30267	9115
1.30333	9114
1.30400	9113
1.30467	9112
1.30533	9110
1.30600	9109
1.30667	9107
1.30733	9104
1.30800	9102
1.30867	9099
1.30933	9096
1.31000	9092
1.31067	9089
1.31133	9085
1.31200	9081
1.31267	9077
1.31333	9072
1.31400	9068
1.31467	9063
1.31533	9058
1.31600	9053
1.31667	9047
1.31733	9042
1.31800	9036
1.31867	9030
1.31933	9024
1.32000	9018
1.32067	9012
1.32133	9006
1.32200	9000
1.32267	8993
1.32333	8987
1.32400	8980
1.32467	8974
1.32533	8967
1.32600	8960
1.32667	8953
1.32733	8946
1.32800	8939
1.32867	8932
1.32933	8925
1.33000	8918
1.33067	8910
1.33133	8903
1.33200	8895
1.33267	8888
1.33333	8881
1.33400	8873
1.33467	8865
1.33533	8858
1.33600	8850
1.33667	8842
1.33733	8835
1.33800	8827
1.33867	8819
1.33933	8811
1.34000	8803
1.34067	8795
1.34133	8787
1.34200	8779
1.34267	8771
1.34333	8763
1.34400	8755
1.34467	8747
1.34533	8739
1.34600	8731
1.34667	8723
1.34733	8715
1.34800	8707
1.34867	8700
1.34933	8692
1.35000	8684
1.35067	8676
1.35133	8668
1.35200	8660
1.35267	8652
1.35333	8645
1.35400	8637
1.35467	8629
1.35533	8622
1.35600	8614
1.35667	8606
1.35733	8599
1.35800	8591
1.35867	8584
1.35933	8577
1.36000	8569
1.36067	8562
1.36133	8555
1.36200	8547
1.36267	8540
1.36333	8533
1.36400	8526
1.36467	8519
1.36533	8512
1.36600	8505
1.36667	8499
1.36733	8492
1.36800	8485
1.36867	8479
1.36933	8472
1.37000	8466
1.37067	8460
1.37133	8454
1.37200	8447
1.37267	8441
1.37333	8436
1.37400	8430
1.37467	8424
1.37533	8418
1.37600	8413
1.37667	8407
1.37733	8402
1.37800	8397
1.37867	8392
1.37933	8386
1.38000	8381
1.38067	8376
1.38133	8371
1.38200	8366
1.38267	8361
1.38333	8356
1.38400	8351
1.38467	8346
1.38533	8342
1.38600	8337
1.38667	8332
1.38733	8327
1.38800	8322
1.38867	8318
1.38933	8313
1.39000	8308
1.39067	8303
1.39133	8299
1.39200	8294
1.39267	8289
1.39333	8284
1.39400	8280
1.39467	8275
1.39533	8270
1.39600	8265
1.39667	8261
1.39733	8256
1.39800	8251
1.39867	8246
1.39933	8241
1.40000	8237
1.40067	8232
1.40133	8227
1.40200	8222
1.40267	8218
1.40333	8213
1.40400	8209
1.40467	8204
1.40533	8199
1.40600	8195
1.40667	8190
1.40733	8186
1.40800	8181
1.40867	8176
1.40933	8172
1.41000	8167
1.41067	8162
1.41133	8158
1.41200	8153
1.41267	8149
1.41333	8144
1.41400	8140
1.41467	8135
1.41533	8131
1.41600	8126
1.41667	8122
1.41733	8117
1.41800	8113
1.41867	8108
1.41933	8104
1.42000	8100
1.42067	8095
1.42133	8091
1.42200	8087
1.42267	8083
1.42333	8078
1.42400	8074
1.42467	8070
1.42533	8066
1.42600	8062
1.42667	8058
1.42733	8054
1.42800	8050
1.42867	8046
1.42933	8042
1.43000	8039
1.43067	8035
1.43133	8031
1.43200	8027
1.43267	8024
1.43333	8020
1.43400	8016
1.43467	8013
1.43533	8009
1.43600	8006
1.43667	8003
1.43733	7999
1.43800	7996
1.43867	7993
1.43933	7989
1.44000	7986
1.44067	7983
1.44133	7980
1.44200	7977
1.44267	7974
1.44333	7970
1.44400	7967
1.44467	7964
1.44533	7961
1.44600	7958
1.44667	7955
1.44733	7952
1.44800	7949
1.44867	7946
1.44933	7943
1.45000	7940
1.45067	7937
1.45133	7935
1.45200	7932
1.45267	7929
1.45333	7926
1.45400	7923
1.45467	7921
1.45533	7918
1.45600	7915
1.45667	7912
1.45733	7909
1.45800	7907
1.45867	7904
1.45933	7901
1.46000	7899
1.46067	7896
1.46133	7893
1.46200	7891
1.46267	7888
1.46333	7885
1.46400	7883
1.46467	7880
1.46533	7877
1.46600	7875
1.46667	7872
1.46733	7870
1.46800	7867
1.46867	7865
1.46933	7862
1.47000	7860
1.47067	7857
1.47133	7855
1.47200	7852
1.47267	7849
1.47333	7847
1.47400	7844
1.47467	7842
1.47533	7839
1.47600	7837
1.47667	7834
1.47733	7832
1.47800	7829
1.47867	7827
1.47933	7824
1.48000	7822
1.48067	7819
1.48133	7817
1.48200	7814
1.48267	7812
1.48333	7809
1.48400	7807
1.48467	7805
1.48533	7802
1.48600	7800
1.48667	7797
1.48733	7795
1.48800	7792
1.48867	7789
1.48933	7787
1.49000	7784
1.49067	7782
1.49133	7779
1.49200	7776
1.49267	7773
1.49333	7771
1.49400	7768
1.49467	7765
1.49533	7762
1.49600	7760
1.49667	7757
1.49733	7754
1.49800	7751
1.49867	7748
1.49933	7745
1.50000	7743
1.50067	7740
1.50133	7737
1.50200	7734
1.50267	7731
1.50333	7728
1.50400	7726
1.50467	7723
1.50533	7720
1.50600	7717
1.50667	7714
1.50733	7711
1.50800	7708
1.50867	7705
1.50933	7702
1.51000	7699
1.51067	7696
1.51133	7693
1.51200	7690
1.51267	7686
1.51333	7683
1.51400	7680
1.51467	7677
1.51533	7674
1.51600	7670
1.51667	7667
1.51733	7664
1.51800	7661
1.51867	7657
1.51933	7654
1.52000	7651
1.52067	7648
1.52133	7645
1.52200	7642
1.52267	7638
1.52333	7635
1.52400	7632
1.52467	7629
1.52533	7626
1.52600	7623
1.52667	7620
1.52733	7617
1.52800	7614
1.52867	7611
1.52933	7608
1.53000	7606
1.53067	7603
1.53133	7600
1.53200	7597
1.53267	7594
1.53333	7591
1.53400	7588
1.53467	7585
1.53533	7583
1.53600	7580
1.53667	7577
1.53733	7574
1.53800	7572
1.53867	7569
1.53933	7566
1.54000	7564
1.54067	7561
1.54133	7559
1.54200	7556
1.54267	7554
1.54333	7551
1.54400	7549
1.54467	7546
1.54533	7544
1.54600	7542
1.54667	7539
1.54733	7537
1.54800	7534
1.54867	7532
1.54933	7529
1.55000	7527
1.55067	7524
1.55133	7521
1.55200	7519
1.55267	7516
1.55333	7514
1.55400	7511
1.55467	7509
1.55533	7506
1.55600	7503
1.55667	7501
1.55733	7498
1.55800	7496
1.55867	7493
1.55933	7490
1.56000	7488
1.56067	7485
1.56133	7483
1.56200	7480
1.56267	7478
1.56333	7475
1.56400	7472
1.56467	7470
1.56533	7467
1.56600	7465
1.56667	7462
1.56733	7460
1.56800	7457
1.56867	7455
1.56933	7453
1.57000	7450
1.57067	7448
1.57133	7445
1.57200	7443
1.57267	7440
1.57333	7438
1.57400	7435
1.57467	7433
1.57533	7431
1.57600	7428
1.57667	7426
1.57733	7424
1.57800	7422
1.57867	7420
1.57933	7417
1.58000	7415
1.58067	7413
1.58133	7411
1.58200	7409
1.58267	7407
1.58333	7405
1.58400	7403
1.58467	7401
1.58533	7399
1.58600	7397
1.58667	7396
1.58733	7394
1.58800	7392
1.58867	7390
1.58933	7388
1.59000	7386
1.59067	7384
1.59133	7382
1.59200	7381
1.59267	7379
1.59333	7377
1.59400	7375
1.59467	7373
1.59533	7372
1.59600	7370
1.59667	7368
1.59733	7366
1.59800	7364
1.59867	7362
1.59933	7360
1.60000	7358
1.60067	7356
1.60133	7354
1.60200	7352
1.60267	7350
1.60333	7348
1.60400	7346
1.60467	7344
1.60533	7342
1.60600	7340
1.60667	7338
1.60733	7336
1.60800	7334
1.60867	7332
1.60933	7330
1.61000	7328
1.61067	7326
1.61133	7325
1.61200	7323
1.61267	7321
1.61333	7319
1.61400	7317
1.61467	7315
1.61533	7313
1.61600	7311
1.61667	7309
1.61733	7307
1.61800	7305
1.61867	7303
1.61933	7302
1.62000	7300
1.62067	7298
1.62133	7296
1.62200	7294
1.62267	7292
1.62333	7290
1.62400	7288
1.62467	7286
1.62533	7284
1.62600	7282
1.62667	7281
1.62733	7279
1.62800	7277
1.62867	7275
1.62933	7274
1.63000	7272
1.63067	7270
1.63133	7269
1.63200	7267
1.63267	7265
1.63333	7264
1.63400	7262
1.63467	7260
1.63533	7259
1.63600	7257
1.63667	7255
1.63733	7254
1.63800	7252
1.63867	7250
1.63933	7249
1.64000	7247
1.64067	7246
1.64133	7244
1.64200	7243
1.64267	7241
1.64333	7240
1.64400	7238
1.64467	7237
1.64533	7235
1.64600	7234
1.64667	7233
1.64733	7231
1.64800	7230
1.64867	7229
1.64933	7227
1.65000	7226
1.65067	7225
1.65133	7223
1.65200	7222
1.65267	7221
1.65333	7220
1.65400	7218
1.65467	7217
1.65533	7216
1.65600	7215
1.65667	7214
1.65733	7213
1.65800	7211
1.65867	7210
1.65933	7209
1.66000	7208
1.66067	7207
1.66133	7205
1.66200	7204
1.66267	7203
1.66333	7202
1.66400	7200
1.66467	7199
1.66533	7198
1.66600	7197
1.66667	7195
1.66733	7194
1.66800	7193
1.66867	7191
1.66933	7190
1.67000	7188
1.67067	7187
1.67133	7186
1.67200	7184
1.67267	7183
1.67333	7181
1.67400	7179
1.67467	7178
1.67533	7176
1.67600	7174
1.67667	7173
1.67733	7171
1.67800	7169
1.67867	7167
1.67933	7165
1.68000	7164
1.68067	7162
1.68133	7160
1.68200	7158
1.68267	7156
1.68333	7154
1.68400	7152
1.68467	7150
1.68533	7148
1.68600	7146
1.68667	7144
1.68733	7142
1.68800	7140
1.68867	7138
1.68933	7135
1.69000	7133
1.69067	7131
1.69133	7129
1.69200	7127
1.69267	7125
1.69333	7123
1.69400	7120
1.69467	7118
1.69533	7116
1.69600	7114
1.69667	7111
1.69733	7109
1.69800	7107
1.69867	7104
1.69933	7102
1.70000	7100
1.70067	7098
1.70133	7095
1.70200	7093
1.70267	7091
1.70333	7089
1.70400	7087
1.70467	7085
1.70533	7082
1.70600	7080
1.70667	7078
1.70733	7076
1.70800	7074
1.70867	7072
1.70933	7070
1.71000	7069
1.71067	7067
1.71133	7065
1.71200	7064
1.71267	7062
1.71333	7061
1.71400	7059
1.71467	7058
1.71533	7057
1.71600	7056
1.71667	7056
1.71733	7056
1.71800	7056
1.71867	7057
1.71933	7058
1.72000	7061
1.72067	7064
1.72133	7069
1.72200	7075
1.72267	7083
1.72333	7093
1.72400	7106
1.72467	7122
1.72533	7141
1.72600	7166
1.72667	7196
1.72733	7232
1.72800	7276
1.72867	7330
1.72933	7394
1.73000	7471
1.73067	7562
1.73133	7670
1.73200	7798
1.73267	7949
1.73333	8126
1.73400	8331
1.73467	8571
1.73533	8848
1.73600	9168
1.73667	9537
1.73733	9959
1.73800	10443
1.73867	10993
1.73933	11616
1.74000	12321
1.74067	13114
1.74133	14005
1.74200	15002
1.74267	16113
1.74333	17348
1.74400	18713
1.74467	20218
1.74533	21870
1.74600	23676
1.74667	25644
1.74733	27782
1.74800	30098
1.74867	32598
1.74933	35287
1.75000	38169
1.75067	41244
1.75133	44516
1.75200	47984
1.75267	51648
1.75333	55507
1.75400	59557
1.75467	63792
1.75533	68205
1.75600	72789
1.75667	77534
1.75733	82429
1.75800	87463
1.75867	92622
1.75933	97890
1.76000	103252
1.76067	108689
1.76133	114183
1.76200	119712
1.76267	125254
1.76333	130788
1.76400	136292
1.76467	141745
1.76533	147124
1.76600	152408
1.76667	157574
1.76733	162604
1.76800	167476
1.76867	172171
1.76933	176672
1.77000	180960
1.77067	185020
1.77133	188841
1.77200	192412
1.77267	195725
1.77333	198773
1.77400	201553
1.77467	204060
1.77533	206292
1.77600	208249
1.77667	209932
1.77733	211344
1.77800	212489
1.77867	213372
1.77933	214000
1.78000	214380
1.78067	214521
1.78133	214431
1.78200	214119
1.78267	213596
1.78333	212872
1.78400	211957
1.78467	210861
1.78533	209596
1.78600	208172
1.78667	206599
1.78733	204888
1.78800	203049
1.78867	201091
1.78933	199025
1.79000	196858
1.79067	194601
1.79133	192261
1.79200	189847
1.79267	187366
1.79333	184827
1.79400	182235
1.79467	179598
1.79533	176922
1.79600	174213
1.79667	171477
1.79733	168719
1.79800	165945
1.79867	163158
1.79933	160363
1.80000	157565
1.80067	154767
1.80133	151973
1.80200	149185
1.80267	146409
1.80333	143645
1.80400	140897
1.80467	138167
1.80533	135458
1.80600	132771
1.80667	130109
1.80733	127473
1.80800	124865
1.80867	122286
1.80933	119738
1.81000	117221
1.81067	114737
1.81133	112287
1.81200	109871
1.81267	107491
1.81333	105147
1.81400	102839
1.81467	100567
1.81533	98334
1.81600	96137
1.81667	93979
1.81733	91858
1.81800	89775
1.81867	87731
1.81933	85725
1.82000	83756
1.82067	81826
1.82133	79934
1.82200	78079
1.82267	76261
1.82333	74480
1.82400	72737
1.82467	71030
1.82533	69359
1.82600	67724
1.82667	66124
1.82733	64560
1.82800	63030
1.82867	61534
1.82933	60072
1.83000	58643
1.83067	57247
1.83133	55883
1.83200	54552
1.83267	53251
1.83333	51982
1.83400	50743
1.83467	49533
1.83533	48353
1.83600	47202
1.83667	46079
1.83733	44984
1.83800	43916
1.83867	42875
1.83933	41860
1.84000	40871
1.84067	39907
1.84133	38968
1.84200	38053
1.84267	37162
1.84333	36294
1.84400	35448
1.84467	34625
1.84533	33824
1.84600	33044
1.84667	32284
1.84733	31545
1.84800	30826
1.84867	30127
1.84933	29446
1.85000	28784
1.85067	28139
1.85133	27513
1.85200	26903
1.85267	26311
1.85333	25734
1.85400	25174
1.85467	24629
1.85533	24099
1.85600	23584
1.85667	23084
1.85733	22597
1.85800	22125
1.85867	21665
1.85933	21219
1.86000	20785
1.86067	20363
1.86133	19953
1.86200	19555
1.86267	19168
1.86333	18793
1.86400	18427
1.86467	18073
1.86533	17728
1.86600	17394
1.86667	17069
1.86733	16753
1.86800	16446
1.86867	16149
1.86933	15860
1.87000	15579
1.87067	15306
1.87133	15041
1.87200	14784
1.87267	14535
1.87333	14292
1.87400	14057
1.87467	13828
1.87533	13607
1.87600	13391
1.87667	13182
1.87733	12979
1.87800	12782
1.87867	12591
1.87933	12405
1.88000	12224
1.88067	12049
1.88133	11880
1.88200	11715
1.88267	11555
1.88333	11399
1.88400	11248
1.88467	11102
1.88533	10960
1.88600	10822
1.88667	10689
1.88733	10559
1.88800	10433
1.88867	10311
1.88933	10192
1.89000	10077
1.89067	9965
1.89133	9857
1.89200	9752
1.89267	9650
1.89333	9551
1.89400	9455
1.89467	9361
1.89533	9271
1.89600	9183
1.89667	9098
1.89733	9016
1.89800	8936
1.89867	8858
1.89933	8783
1.90000	8709
1.90067	8638
1.90133	8570
1.90200	8503
1.90267	8438
1.90333	8375
1.90400	8314
1.90467	8254
1.90533	8197
1.90600	8141
1.90667	8087
1.90733	8034
1.90800	7983
1.90867	7933
1.90933	7885
1.91000	7838
1.91067	7792
1.91133	7748
1.91200	7705
1.91267	7663
1.91333	7622
1.91400	7582
1.91467	7544
1.91533	7506
1.91600	7469
1.91667	7434
1.91733	7399
1.91800	7365
1.91867	7333
1.91933	7301
1.92000	7269
1.92067	7239
1.92133	7210
1.92200	7181
1.92267	7153
1.92333	7125
1.92400	7099
1.92467	7073
1.92533	7047
1.92600	7023
1.92667	6999
1.92733	6975
1.92800	6952
1.92867	6930
1.92933	6908
1.93000	6887
1.93067	6866
1.93133	6846
1.93200	6826
1.93267	6807
1.93333	6788
1.93400	6769
1.93467	6751
1.93533	6734
1.93600	6717
1.93667	6700
1.93733	6684
1.93800	6668
1.93867	6652
1.93933	6637
1.94000	6622
1.94067	6608
1.94133	6593
1.94200	6580
1.94267	6566
1.94333	6553
1.94400	6540
1.94467	6528
1.94533	6515
1.94600	6504
1.94667	6492
1.94733	6480
1.94800	6469
1.94867	6458
1.94933	6448
1.95000	6437
1.95067	6427
1.95133	6417
1.95200	6407
1.95267	6398
1.95333	6388
1.95400	6379
1.95467	6370
1.95533	6361
1.95600	6353
1.95667	6345
1.95733	6336
1.95800	6328
1.95867	6320
1.95933	6313
1.96000	6305
1.96067	6298
1.96133	6290
1.96200	6283
1.96267	6276
1.96333	6269
1.96400	6262
1.96467	6255
1.96533	6249
1.96600	6242
1.96667	6236
1.96733	6229
1.96800	6223
1.96867	6217
1.96933	6210
1.97000	6204
1.97067	6198
1.97133	6192
1.97200	6186
1.97267	6180
1.97333	6174
1.97400	6168
1.97467	6162
1.97533	6157
1.97600	6151
1.97667	6145
1.97733	6140
1.97800	6135
1.97867	6129
1.97933	6124
1.98000	6119
1.98067	6114
1.98133	6109
1.98200	6104
1.98267	6099
1.98333	6094
1.98400	6090
1.98467	6085
1.98533	6080
1.98600	6076
1.98667	6071
1.98733	6067
1.98800	6063
1.98867	6058
1.98933	6054
1.99000	6050
1.99067	6046
1.99133	6042
1.99200	6038
1.99267	6034
1.99333	6030
1.99400	6026
1.99467	6022
1.99533	6018
1.99600	6014
1.99667	6010
1.99733	6006
1.99800	6002
1.99867	5998
1.99933	5995
2.00000	5991
2.00067	5987
2.00133	5984
2.00200	5980
2.00267	5977
2.00333	5973
2.00400	5969
2.00467	5966
2.00533	5962
2.00600	5959
2.00667	5955
2.00733	5952
2.00800	5948
2.00867	5945
2.00933	5941
2.01000	5938
2.01067	5934
2.01133	5930
2.01200	5927
2.01267	5923
2.01333	5920
2.01400	5916
2.01467	5913
2.01533	5910
2.01600	5906
2.01667	5903
2.01733	5899
2.01800	5896
2.01867	5892
2.01933	5889
2.02000	5886
2.02067	5882
2.02133	5879
2.02200	5875
2.02267	5872
2.02333	5868
2.02400	5865
2.02467	5862
2.02533	5859
2.02600	5855
2.02667	5852
2.02733	5849
2.02800	5846
2.02867	5843
2.02933	5839
2.03000	5836
2.03067	5833
2.03133	5830
2.03200	5827
2.03267	5824
2.03333	5820
2.03400	5817
2.03467	5814
2.03533	5811
2.03600	5808
2.03667	5805
2.03733	5802
2.03800	5799
2.03867	5796
2.03933	5793
2.04000	5790
2.04067	5787
2.04133	5784
2.04200	5781
2.04267	5779
2.04333	5776
2.04400	5773
2.04467	5770
2.04533	5767
2.04600	5764
2.04667	5762
2.04733	5759
2.04800	5756
2.04867	5754
2.04933	5751
2.05000	5748
2.05067	5746
2.05133	5743
2.05200	5741
2.05267	5738
2.05333	5736
2.05400	5733
2.05467	5731
2.05533	5728
2.05600	5726
2.05667	5724
2.05733	5721
2.05800	5719
2.05867	5716
2.05933	5714
2.06000	5711
2.06067	5708
2.06133	5706
2.06200	5703
2.06267	5701
2.06333	5698
2.06400	5696
2.06467	5693
2.06533	5691
2.06600	5689
2.06667	5686
2.06733	5684
2.06800	5681
2.06867	5679
2.06933	5676
2.07000	5674
2.07067	5672
2.07133	5669
2.07200	5667
2.07267	5664
2.07333	5662
2.07400	5659
2.07467	5657
2.07533	5655
2.07600	5652
2.07667	5650
2.07733	5648
2.07800	5645
2.07867	5643
2.07933	5641
2.08000	5638
2.08067	5636
2.08133	5634
2.08200	5632
2.08267	5629
2.08333	5627
2.08400	5625
2.08467	5623
2.08533	5620
2.08600	5618
2.08667	5616
2.08733	5614
2.08800	5612
2.08867	5610
2.08933	5607
2.09000	5605
2.09067	5603
2.09133	5601
2.09200	5599
2.09267	5596
2.09333	5594
2.09400	5592
2.09467	5590
2.09533	5588
2.09600	5585
2.09667	5583
2.09733	5581
2.09800	5579
2.09867	5577
2.09933	5575
2.10000	5573
2.10067	5571
2.10133	5569
2.10200	5567
2.10267	5564
2.10333	5562
2.10400	5560
2.10467	5558
2.10533	5556
2.10600	5554
2.10667	5552
2.10733	5550
2.10800	5548
2.10867	5546
2.10933	5544
2.11000	5542
2.11067	5540
2.11133	5538
2.11200	5536
2.11267	5534
2.11333	5532
2.11400	5531
2.11467	5529
2.11533	5527
2.11600	5525
2.11667	5523
2.11733	5521
2.11800	5519
2.11867	5517
2.11933	5515
2.12000	5513
2.12067	5511
2.12133	5509
2.12200	5507
2.12267	5505
2.12333	5503
2.12400	5501
2.12467	5499
2.12533	5497
2.12600	5495
2.12667	5493
2.12733	5491
2.12800	5489
2.12867	5487
2.12933	5485
2.13000	5483
2.13067	5481
2.13133	5479
2.13200	5477
2.13267	5475
2.13333	5473
2.13400	5472
2.13467	5470
2.13533	5468
2.13600	5466
2.13667	5464
2.13733	5463
2.13800	5461
2.13867	5459
2.13933	5458
2.14000	5456
2.14067	5454
2.14133	5453
2.14200	5451
2.14267	5449
2.14333	5447
2.14400	5446
2.14467	5444
2.14533	5442
2.14600	5440
2.14667	5438
2.14733	5437
2.14800	5435
2.14867	5433
2.14933	5431
2.15000	5429
2.15067	5428
2.15133	5426
2.15200	5424
2.15267	5422
2.15333	5420
2.15400	5419
2.15467	5417
2.15533	5415
2.15600	5413
2.15667	5411
2.15733	5410
2.15800	5408
2.15867	5406
2.15933	5404
2.16000	5403
2.16067	5401
2.16133	5399
2.16200	5398
2.16267	5396
2.16333	5395
2.16400	5393
2.16467	5391
2.16533	5390
2.16600	5388
2.16667	5386
2.16733	5385
2.16800	5383
2.16867	5381
2.16933	5380
2.17000	5378
2.17067	5376
2.17133	5375
2.17200	5373
2.17267	5371
2.17333	5370
2.17400	5368
2.17467	5367
2.17533	5365
2.17600	5363
2.17667	5362
2.17733	5360
2.17800	5359
2.17867	5357
2.17933	5356
2.18000	5354
2.18067	5353
2.18133	5351
2.18200	5350
2.18267	5348
2.18333	5347
2.18400	5345
2.18467	5344
2.18533	5342
2.18600	5341
2.18667	5339
2.18733	5338
2.18800	5336
2.18867	5335
2.18933	5333
2.19000	5332
2.19067	5330
2.19133	5329
2.19200	5327
2.19267	5326
2.19333	5324
2.19400	5323
2.19467	5322
2.19533	5320
2.19600	5319
2.19667	5317
2.19733	5316
2.19800	5315
2.19867	5314
2.19933	5312
2.20000	5311
2.20067	5310
2.20133	5309
2.20200	5307
2.20267	5306
2.20333	5305
2.20400	5304
2.20467	5303
2.20533	5303
2.20600	5302
2.20667	5301
2.20733	5300
2.20800	5299
2.20867	5299
2.20933	5298
2.21000	5297
2.21067	5297
2.21133	5296
2.21200	5295
2.21267	5295
2.21333	5295
2.21400	5294
2.21467	5294
2.21533	5293
2.21600	5293
2.21667	5293
2.21733	5293
2.21800	5292
2.21867	5292
2.21933	5292
2.22000	5292
2.22067	5292
2.22133	5292
2.22200	5292
2.22267	5292
2.22333	5291
2.22400	5291
2.22467	5291
2.22533	5291
2.22600	5291
2.22667	5291
2.22733	5291
2.22800	5291
2.22867	5291
2.22933	5291
2.23000	5290
2.23067	5290
2.23133	5290
2.23200	5290
2.23267	5290
2.23333	5289
2.23400	5289
2.23467	5289
2.23533	5288
2.23600	5288
2.23667	5287
2.23733	5287
2.23800	5286
2.23867	5286
2.23933	5285
2.24000	5284
2.24067	5284
2.24133	5283
2.24200	5282
2.24267	5282
2.24333	5281
2.24400	5280
2.24467	5280
2.24533	5279
2.24600	5278
2.24667	5278
2.24733	5277
2.24800	5276
2.24867	5275
2.24933	5275
2.25000	5274
2.25067	5273
2.25133	5273
2.25200	5272
2.25267	5271
2.25333	5270
2.25400	5270
2.25467	5269
2.25533	5268
2.25600	5267
2.25667	5266
2.25733	5265
2.25800	5265
2.25867	5264
2.25933	5263
2.26000	5262
2.26067	5261
2.26133	5260
2.26200	5258
2.26267	5257
2.26333	5256
2.26400	5255
2.26467	5254
2.26533	5253
2.26600	5252
2.26667	5250
2.26733	5249
2.26800	5248
2.26867	5247
2.26933	5245
2.27000	5244
2.27067	5243
2.27133	5242
2.27200	5240
2.27267	5239
2.27333	5238
2.27400	5236
2.27467	5235
2.27533	5233
2.27600	5232
2.27667	5230
2.27733	5229
2.27800	5227
2.27867	5226
2.27933	5224
2.28000	5223
2.28067	5221
2.28133	5220
2.28200	5218
2.28267	5216
2.28333	5215
2.28400	5213
2.28467	5211
2.28533	5210
2.28600	5208
2.28667	5207
2.28733	5205
2.28800	5203
2.28867	5202
2.28933	5200
2.29000	5199
2.29067	5197
2.29133	5196
2.29200	5194
2.29267	5193
2.29333	5191
2.29400	5190
2.29467	5188
2.29533	5187
2.29600	5186
2.29667	5184
2.29733	5183
2.29800	5182
2.29867	5180
2.29933	5179
2.30000	5178
2.30067	5177
2.30133	5175
2.30200	5174
2.30267	5173
2.30333	5172
2.30400	5171
2.30467	5169
2.30533	5168
2.30600	5167
2.30667	5166
2.30733	5165
2.30800	5164
2.30867	5163
2.30933	5162
2.31000	5161
2.31067	5160
2.31133	5159
2.31200	5158
2.31267	5157
2.31333	5156
2.31400	5155
2.31467	5154
2.31533	5154
2.31600	5153
2.31667	5152
2.31733	5151
2.31800	5151
2.31867	5150
2.31933	5149
2.32000	5149
2.32067	5148
2.32133	5147
2.32200	5147
2.32267	5146
2.32333	5145
2.32400	5145
2.32467	5144
2.32533	5144
2.32600	5143
2.32667	5143
2.32733	5143
2.32800	5142
2.32867	5142
2.32933	5142
2.33000	5141
2.33067	5141
2.33133	5141
2.33200	5141
2.33267	5141
2.33333	5140
2.33400	5140
2.33467	5140
2.33533	5140
2.33600	5140
2.33667	5140
2.33733	5140
2.33800	5140
2.33867	5141
2.33933	5141
2.34000	5141
2.34067	5141
2.34133	5141
2.34200	5142
2.34267	5142
2.34333	5143
2.34400	5143
2.34467	5144
2.34533	5144
2.34600	5145
2.34667	5145
2.34733	5146
2.34800	5147
2.34867	5148
2.34933	5148
2.35000	5149
2.35067	5150
2.35133	5151
2.35200	5152
2.35267	5152
2.35333	5153
2.35400	5154
2.35467	5155
2.35533	5156
2.35600	5157
2.35667	5158
2.35733	5159
2.35800	5160
2.35867	5160
2.35933	5161
2.36000	5162
2.36067	5163
2.36133	5164
2.36200	5165
2.36267	5166
2.36333	5167
2.36400	5168
2.36467	5169
2.36533	5170
2.36600	5171
2.36667	5172
2.36733	5172
2.36800	5173
2.36867	5174
2.36933	5174
2.37000	5175
2.37067	5175
2.37133	5176
2.37200	5176
2.37267	5176
2.37333	5177
2.37400	5177
2.37467	5177
2.37533	5177
2.37600	5177
2.37667	5177
2.37733	5177
2.37800	5177
2.37867	5177
2.37933	5176
2.38000	5176
2.38067	5176
2.38133	5175
2.38200	5175
2.38267	5174
2.38333	5173
2.38400	5173
2.38467	5172
2.38533	5171
2.38600	5171
2.38667	5170
2.38733	5169
2.38800	5168
2.38867	5168
2.38933	5167
2.39000	5166
2.39067	5165
2.39133	5164
2.39200	5163
2.39267	5162
2.39333	5161
2.39400	5160
2.39467	5159
2.39533	5158
2.39600	5157
2.39667	5156
2.39733	5155
2.39800	5153
2.39867	5152
2.39933	5151
2.40000	5150
2.40067	5149
2.40133	5147
2.40200	5146
2.40267	5145
2.40333	5143
2.40400	5142
2.40467	5141
2.40533	5139
2.40600	5138
2.40667	5136
2.40733	5135
2.40800	5134
2.40867	5132
2.40933	5131
2.41000	5129
2.41067	5128
2.41133	5126
2.41200	5125
2.41267	5123
2.41333	5121
2.41400	5120
2.41467	5118
2.41533	5116
2.41600	5114
2.41667	5113
2.41733	5111
2.41800	5109
2.41867	5107
2.41933	5105
2.42000	5103
2.42067	5101
2.42133	5100
2.42200	5098
2.42267	5096
2.42333	5094
2.42400	5092
2.42467	5090
2.42533	5088
2.42600	5086
2.42667	5084
2.42733	5082
2.42800	5080
2.42867	5078
2.42933	5075
2.43000	5073
2.43067	5071
2.43133	5069
2.43200	5067
2.43267	5065
2.43333	5063
2.43400	5061
2.43467	5059
2.43533	5056
2.43600	5054
2.43667	5052
2.43733	5050
2.43800	5047
2.43867	5045
2.43933	5043
2.44000	5041
2.44067	5038
2.44133	5036
2.44200	5034
2.44267	5032
2.44333	5029
2.44400	5027
2.44467	5024
2.44533	5022
2.44600	5019
2.44667	5017
2.44733	5015
2.44800	5012
2.44867	5010
2.44933	5008
2.45000	5005
2.45067	5003
2.45133	5001
2.45200	4998
2.45267	4996
2.45333	4994
2.45400	4991
2.45467	4989
2.45533	4987
2.45600	4985
2.45667	4982
2.45733	4980
2.45800	4978
2.45867	4976
2.45933	4974
2.46000	4971
2.46067	4969
2.46133	4967
2.46200	4965
2.46267	4963
2.46333	4961
2.46400	4959
2.46467	4956
2.46533	4954
2.46600	4952
2.46667	4950
2.46733	4948
2.46800	4945
2.46867	4943
2.46933	4941
2.47000	4939
2.47067	4936
2.47133	4934
2.47200	4932
2.47267	4930
2.47333	4928
2.47400	4925
2.47467	4923
2.47533	4921
2.47600	4919
2.47667	4917
2.47733	4915
2.47800	4912
2.47867	4910
2.47933	4908
2.48000	4906
2.48067	4904
2.48133	4902
2.48200	4900
2.48267	4898
2.48333	4896
2.48400	4894
2.48467	4892
2.48533	4890
2.48600	4888
2.48667	4886
2.48733	4884
2.48800	4882
2.48867	4880
2.48933	4878
2.49000	4877
2.49067	4875
2.49133	4873
2.49200	4871
2.49267	4870
2.49333	4868
2.49400	4866
2.49467	4864
2.49533	4863
2.49600	4861
2.49667	4859
2.49733	4858
2.49800	4856
2.49867	4854
2.49933	4852
2.50000	4851
2.50067	4849
2.50133	4847
2.50200	4846
2.50267	4844
2.50333	4842
2.50400	4840
2.50467	4838
2.50533	4837
2.50600	4835
2.50667	4833
2.50733	4831
2.50800	4830
2.50867	4828
2.50933	4826
2.51000	4824
2.51067	4823
2.51133	4821
2.51200	4819
2.51267	4817
2.51333	4816
2.51400	4814
2.51467	4812
2.51533	4810
2.51600	4809
2.51667	4807
2.51733	4805
2.51800	4803
2.51867	4802
2.51933	4800
2.52000	4798
2.52067	4796
2.52133	4794
2.52200	4792
2.52267	4791
2.52333	4789
2.52400	4787
2.52467	4785
2.52533	4783
2.52600	4781
2.52667	4780
2.52733	4778
2.52800	4776
2.52867	4774
2.52933	4772
2.53000	4770
2.53067	4768
2.53133	4767
2.53200	4765
2.53267	4763
2.53333	4761
2.53400	4759
2.53467	4757
2.53533	4755
2.53600	4754
2.53667	4752
2.53733	4750
2.53800	4748
2.53867	4747
2.53933	4745
2.54000	4743
2.54067	4742
2.54133	4740
2.54200	4739
2.54267	4737
2.54333	4735
2.54400	4734
2.54467	4732
2.54533	4731
2.54600	4729
2.54667	4728
2.54733	4726
2.54800	4725
2.54867	4723
2.54933	4721
2.55000	4720
2.55067	4718
2.55133	4717
2.55200	4716
2.55267	4714
2.55333	4713
2.55400	4711
2.55467	4710
2.55533	4709
2.55600	4707
2.55667	4706
2.55733	4704
2.55800	4703
2.55867	4701
2.55933	4700
2.56000	4699
2.56067	4697
2.56133	4696
2.56200	4694
2.56267	4693
2.56333	4692
2.56400	4690
2.56467	4689
2.56533	4688
2.56600	4686
2.56667	4685
2.56733	4684
2.56800	4682
2.56867	4681
2.56933	4680
2.57000	4678
2.57067	4677
2.57133	4676
2.57200	4674
2.57267	4673
2.57333	4672
2.57400	4670
2.57467	4669
2.57533	4668
2.57600	4667
2.57667	4665
2.57733	4664
2.57800	4663
2.57867	4662
2.57933	4661
2.58000	4660
2.58067	4658
2.58133	4657
2.58200	4656
2.58267	4655
2.58333	4654
2.58400	4652
2.58467	4651
2.58533	4650
2.58600	4649
2.58667	4647
2.58733	4646
2.58800	4645
2.58867	4644
2.58933	4642
2.59000	4641
2.59067	4640
2.59133	4639
2.59200	4637
2.59267	4636
2.59333	4635
2.59400	4634
2.59467	4633
2.59533	4631
2.59600	4630
2.59667	4629
2.59733	4628
2.59800	4627
2.59867	4626
2.59933	4624
2.60000	4623
2.60067	4622
2.60133	4621
2.60200	4620
2.60267	4618
2.60333	4617
2.60400	4616
2.60467	4615
2.60533	4613
2.60600	4612
2.60667	4611
2.60733	4609
2.60800	4608
2.60867	4607
2.60933	4605
2.61000	4604
2.61067	4603
2.61133	4602
2.61200	4600
2.61267	4599
2.61333	4598
2.61400	4596
2.61467	4595
2.61533	4594
2.61600	4592
2.61667	4591
2.61733	4590
2.61800	4588
2.61867	4587
2.61933	4586
2.62000	4584
2.62067	4583
2.62133	4581
2.62200	4580
2.62267	4579
2.62333	4577
2.62400	4576
2.62467	4574
2.62533	4573
2.62600	4572
2.62667	4570
2.62733	4569
2.62800	4567
2.62867	4566
2.62933	4564
2.63000	4563
2.63067	4561
2.63133	4560
2.63200	4558
2.63267	4557
2.63333	4555
2.63400	4554
2.63467	4552
2.63533	4551
2.63600	4549
2.63667	4547
2.63733	4546
2.63800	4544
2.63867	4543
2.63933	4541
2.64000	4540
2.64067	4538
2.64133	4536
2.64200	4535
2.64267	4533
2.64333	4532
2.64400	4530
2.64467	4529
2.64533	4527
2.64600	4526
2.64667	4524
2.64733	4523
2.64800	4521
2.64867	4520
2.64933	4518
2.65000	4517
2.65067	4515
2.65133	4514
2.65200	4512
2.65267	4511
2.65333	4509
2.65400	4508
2.65467	4507
2.65533	4505
2.65600	4504
2.65667	4502
2.65733	4501
2.65800	4499
2.65867	4498
2.65933	4496
2.66000	4495
2.66067	4493
2.66133	4492
2.66200	4490
2.66267	4489
2.66333	4488
2.66400	4486
2.66467	4485
2.66533	4483
2.66600	4482
2.66667	4480
2.66733	4479
2.66800	4478
2.66867	4476
2.66933	4475
2.67000	4473
2.67067	4472
2.67133	4471
2.67200	4469
2.67267	4468
2.67333	4467
2.67400	4465
2.67467	4464
2.67533	4463
2.67600	4461
2.67667	4460
2.67733	4459
2.67800	4458
2.67867	4456
2.67933	4455
2.68000	4454
2.68067	4452
2.68133	4451
2.68200	4450
2.68267	4449
2.68333	4448
2.68400	4446
2.68467	4445
2.68533	4444
2.68600	4443
2.68667	4442
2.68733	4441
2.68800	4440
2.68867	4439
2.68933	4438
2.69000	4437
2.69067	4436
2.69133	4435
2.69200	4434
2.69267	4433
2.69333	4432
2.69400	4431
2.69467	4430
2.69533	4429
2.69600	4428
2.69667	4427
2.69733	4426
2.69800	4425
2.69867	4424
2.69933	4424
2.70000	4423
2.70067	4422
2.70133	4421
2.70200	4420
2.70267	4419
2.70333	4418
2.70400	4417
2.70467	4416
2.70533	4416
2.70600	4415
2.70667	4414
2.70733	4413
2.70800	4413
2.70867	4412
2.70933	4411
2.71000	4411
2.71067	4410
2.71133	4409
2.71200	4409
2.71267	4408
2.71333	4407
2.71400	4407
2.71467	4406
2.71533	4406
2.71600	4405
2.71667	4405
2.71733	4404
2.71800	4404
2.71867	4404
2.71933	4403
2.72000	4403
2.72067	4402
2.72133	4402
2.72200	4402
2.72267	4401
2.72333	4401
2.72400	4400
2.72467	4400
2.72533	4399
2.72600	4399
2.72667	4399
2.72733	4398
2.72800	4398
2.72867	4397
2.72933	4397
2.73000	4396
2.73067	4396
2.73133	4396
2.73200	4395
2.73267	4395
2.73333	4394
2.73400	4394
2.73467	4394
2.73533	4393
2.73600	4393
2.73667	4392
2.73733	4392
2.73800	4392
2.73867	4391
2.73933	4391
2.74000	4390
2.74067	4390
2.74133	4389
2.74200	4389
2.74267	4389
2.74333	4388
2.74400	4388
2.74467	4387
2.74533	4387
2.74600	4386
2.74667	4386
2.74733	4385
2.74800	4384
2.74867	4384
2.74933	4383
2.75000	4383
2.75067	4382
2.75133	4381
2.75200	4381
2.75267	4380
2.75333	4380
2.75400	4379
2.75467	4379
2.75533	4378
2.75600	4378
2.75667	4377
2.75733	4377
2.75800	4376
2.75867	4376
2.75933	4376
2.76000	4375
2.76067	4375
2.76133	4375
2.76200	4374
2.76267	4374
2.76333	4374
2.76400	4374
2.76467	4373
2.76533	4373
2.76600	4373
2.76667	4373
2.76733	4373
2.76800	4372
2.76867	4372
2.76933	4372
2.77000	4372
2.77067	4372
2.77133	4372
2.77200	4372
2.77267	4372
2.77333	4372
2.77400	4372
2.77467	4372
2.77533	4372
2.77600	4372
2.77667	4373
2.77733	4373
2.77800	4373
2.77867	4373
2.77933	4373
2.78000	4373
2.78067	4374
2.78133	4374
2.78200	4374
2.78267	4375
2.78333	4375
2.78400	4376
2.78467	4376
2.78533	4377
2.78600	4377
2.78667	4378
2.78733	4379
2.78800	4379
2.78867	4380
2.78933	4381
2.79000	4381
2.79067	4382
2.79133	4383
2.79200	4383
2.79267	4384
2.79333	4385
2.79400	4386
2.79467	4386
2.79533	4387
2.79600	4388
2.79667	4389
2.79733	4389
2.79800	4390
2.79867	4391
2.79933	4392
2.80000	4392
2.80067	4393
2.80133	4394
2.80200	4395
2.80267	4396
2.80333	4397
2.80400	4397
2.80467	4398
2.80533	4399
2.80600	4400
2.80667	4401
2.80733	4401
2.80800	4402
2.80867	4403
2.80933	4404
2.81000	4404
2.81067	4405
2.81133	4406
2.81200	4406
2.81267	4407
2.81333	4408
2.81400	4408
2.81467	4409
2.81533	4410
2.81600	4410
2.81667	4411
2.81733	4411
2.81800	4412
2.81867	4412
2.81933	4413
2.82000	4413
2.82067	4414
2.82133	4414
2.82200	4414
2.82267	4415
2.82333	4415
2.82400	4415
2.82467	4416
2.82533	4416
2.82600	4416
2.82667	4416
2.82733	4416
2.82800	4416
2.82867	4416
2.82933	4416
2.83000	4416
2.83067	4416
2.83133	4416
2.83200	4416
2.83267	4415
2.83333	4415
2.83400	4415
2.83467	4414
2.83533	4414
2.83600	4414
2.83667	4413
2.83733	4413
2.83800	4413
2.83867	4412
2.83933	4412
2.84000	4411
2.84067	4411
2.84133	4410
2.84200	4410
2.84267	4409
2.84333	4408
2.84400	4408
2.84467	4407
2.84533	4407
2.84600	4406
2.84667	4406
2.84733	4405
2.84800	4405
2.84867	4405
2.84933	4404
2.85000	4404
2.85067	4403
2.85133	4403
2.85200	4403
2.85267	4402
2.85333	4402
2.85400	4401
2.85467	4401
2.85533	4400
2.85600	4400
2.85667	4399
2.85733	4399
2.85800	4399
2.85867	4398
2.85933	4398
2.86000	4397
2.86067	4397
2.86133	4397
2.86200	4396
2.86267	4396
2.86333	4396
2.86400	4395
2.86467	4395
2.86533	4395
2.86600	4394
2.86667	4394
2.86733	4394
2.86800	4394
2.86867	4394
2.86933	4394
2.87000	4394
2.87067	4394
2.87133	4394
2.87200	4394
2.87267	4394
2.87333	4394
2.87400	4394
2.87467	4394
2.87533	4394
2.87600	4394
2.87667	4395
2.87733	4395
2.87800	4395
2.87867	4396
2.87933	4396
2.88000	4397
2.88067	4397
2.88133	4398
2.88200	4398
2.88267	4399
2.88333	4399
2.88400	4400
2.88467	4400
2.88533	4401
2.88600	4402
2.88667	4402
2.88733	4403
2.88800	4404
2.88867	4405
2.88933	4406
2.89000	4406
2.89067	4407
2.89133	4408
2.89200	4410
2.89267	4411
2.89333	4412
2.89400	4413
2.89467	4414
2.89533	4415
2.89600	4416
2.89667	4417
2.89733	4418
2.89800	4419
2.89867	4420
2.89933	4421
2.90000	4422
2.90067	4423
2.90133	4424
2.90200	4424
2.90267	4425
2.90333	4426
2.90400	4427
2.90467	4427
2.90533	4428
2.90600	4428
2.90667	4428
2.90733	4429
2.90800	4429
2.90867	4429
2.90933	4429
2.91000	4429
2.91067	4429
2.91133	4428
2.91200	4428
2.91267	4427
2.91333	4427
2.91400	4426
2.91467	4425
2.91533	4424
2.91600	4423
2.91667	4421
2.91733	4420
2.91800	4418
2.91867	4417
2.91933	4415
2.92000	4413
2.92067	4411
2.92133	4409
2.92200	4406
2.92267	4404
2.92333	4401
2.92400	4398
2.92467	4395
2.92533	4392
2.92600	4389
2.92667	4386
2.92733	4383
2.92800	4379
2.92867	4376
2.92933	4372
2.93000	4368
2.93067	4364
2.93133	4360
2.93200	4356
2.93267	4352
2.93333	4348
2.93400	4344
2.93467	4340
2.93533	4335
2.93600	4331
2.93667	4327
2.93733	4322
2.93800	4317
2.93867	4313
2.93933	4308
2.94000	4304
2.94067	4299
2.94133	4294
2.94200	4289
2.94267	4285
2.94333	4280
2.94400	4275
2.94467	4270
2.94533	4266
2.94600	4261
2.94667	4256
2.94733	4251
2.94800	4246
2.94867	4242
2.94933	4237
2.95000	4232
2.95067	4227
2.95133	4223
2.95200	4218
2.95267	4213
2.95333	4209
2.95400	4204
2.95467	4200
2.95533	4195
2.95600	4191
2.95667	4187
2.95733	4182
2.95800	4178
2.95867	4174
2.95933	4170
2.96000	4165
2.96067	4161
2.96133	4157
2.96200	4153
2.96267	4149
2.96333	4145
2.96400	4141
2.96467	4138
2.96533	4134
2.96600	4130
2.96667	4126
2.96733	4122
2.96800	4119
2.96867	4115
2.96933	4112
2.97000	4108
2.97067	4105
2.97133	4101
2.97200	4098
2.97267	4095
2.97333	4091
2.97400	4088
2.97467	4085
2.97533	4082
2.97600	4079
2.97667	4076
2.97733	4073
2.97800	4070
2.97867	4068
2.97933	4065
2.98000	4062
2.98067	4059
2.98133	4057
2.98200	4054
2.98267	4052
2.98333	4049
2.98400	4046
2.98467	4044
2.98533	4041
2.98600	4039
2.98667	4037
2.98733	4034
2.98800	4032
2.98867	4029
2.98933	4027
2.99000	4025
2.99067	4022
2.99133	4020
2.99200	4018
2.99267	4015
2.99333	4013
2.99400	4011
2.99467	4008
2.99533	4006
2.99600	4004
2.99667	4002
2.99733	3999
2.99800	3997
2.99867	3995
2.99933	3993
3.00000	3991
3.00067	3989
3.00133	3987
3.00200	3985
3.00267	3983
3.00333	3981
3.00400	3979
3.00467	3977
3.00533	3975
3.00600	3973
3.00667	3971
3.00733	3969
3.00800	3967
3.00867	3965
3.00933	3964
3.01000	3962
3.01067	3960
3.01133	3958
3.01200	3957
3.01267	3955
3.01333	3953
3.01400	3952
3.01467	3950
3.01533	3948
3.01600	3947
3.01667	3945
3.01733	3944
3.01800	3942
3.01867	3940
3.01933	3939
3.02000	3937
3.02067	3936
3.02133	3934
3.02200	3933
3.02267	3931
3.02333	3930
3.02400	3929
3.02467	3927
3.02533	3926
3.02600	3924
3.02667	3923
3.02733	3922
3.02800	3920
3.02867	3919
3.02933	3918
3.03000	3916
3.03067	3915
3.03133	3914
3.03200	3913
3.03267	3911
3.03333	3910
3.03400	3909
3.03467	3907
3.03533	3906
3.03600	3905
3.03667	3903
3.03733	3902
3.03800	3901
3.03867	3900
3.03933	3898
3.04000	3897
3.04067	3896
3.04133	3895
3.04200	3894
3.04267	3892
3.04333	3891
3.04400	3890
3.04467	3889
3.04533	3888
3.04600	3887
3.04667	3886
3.04733	3885
3.04800	3885
3.04867	3884
3.04933	3883
3.05000	3882
3.05067	3881
3.05133	3880
3.05200	3880
3.05267	3879
3.05333	3878
3.05400	3877
3.05467	3877
3.05533	3876
3.05600	3875
3.05667	3875
3.05733	3874
3.05800	3874
3.05867	3873
3.05933	3873
3.06000	3872
3.06067	3872
3.06133	3871
3.06200	3871
3.06267	3870
3.06333	3870
3.06400	3870
3.06467	3869
3.06533	3869
3.06600	3868
3.06667	3868
3.06733	3867
3.06800	3867
3.06867	3867
3.06933	3866
3.07000	3866
3.07067	3866
3.07133	3865
3.07200	3865
3.07267	3865
3.07333	3865
3.07400	3864
3.07467	3864
3.07533	3864
3.07600	3863
3.07667	3863
3.07733	3863
3.07800	3863
3.07867	3862
3.07933	3862
3.08000	3862
3.08067	3862
3.08133	3861
3.08200	3861
3.08267	3861
3.08333	3861
3.08400	3860
3.08467	3860
3.08533	3860
3.08600	3860
3.08667	3859
3.08733	3859
3.08800	3859
3.08867	3859
3.08933	3858
3.09000	3858
3.09067	3858
3.09133	3858
3.09200	3857
3.09267	3857
3.09333	3857
3.09400	3857
3.09467	3856
3.09533	3856
3.09600	3856
3.09667	3855
3.09733	3855
3.09800	3854
3.09867	3854
3.09933	3853
3.10000	3853
3.10067	3852
3.10133	3852
3.10200	3851
3.10267	3850
3.10333	3850
3.10400	3849
3.10467	3848
3.10533	3847
3.10600	3847
3.10667	3846
3.10733	3845
3.10800	3844
3.10867	3843
3.10933	3842
3.11000	3841
3.11067	3840
3.11133	3839
3.11200	3838
3.11267	3837
3.11333	3836
3.11400	3835
3.11467	3834
3.11533	3833
3.11600	3832
3.11667	3830
3.11733	3829
3.11800	3828
3.11867	3827
3.11933	3826
3.12000	3825
3.12067	3824
3.12133	3822
3.12200	3821
3.12267	3820
3.12333	3819
3.12400	3818
3.12467	3817
3.12533	3816
3.12600	3814
3.12667	3813
3.12733	3812
3.12800	3811
3.12867	3810
3.12933	3809
3.13000	3808
3.13067	3807
3.13133	3806
3.13200	3805
3.13267	3804
3.13333	3803
3.13400	3802
3.13467	3801
3.13533	3800
3.13600	3799
3.13667	3798
3.13733	3797
3.13800	3796
3.13867	3795
3.13933	3794
3.14000	3793
3.14067	3792
3.14133	3791
3.14200	3790
3.14267	3789
3.14333	3789
3.14400	3788
3.14467	3787
3.14533	3786
3.14600	3786
3.14667	3785
3.14733	3784
3.14800	3783
3.14867	3783
3.14933	3782
3.15000	3782
3.15067	3781
3.15133	3780
3.15200	3780
3.15267	3779
3.15333	3778
3.15400	3778
3.15467	3777
3.15533	3776
3.15600	3776
3.15667	3775
3.15733	3775
3.15800	3774
3.15867	3773
3.15933	3773
3.16000	3772
3.16067	3771
3.16133	3771
3.16200	3770
3.16267	3769
3.16333	3769
3.16400	3768
3.16467	3768
3.16533	3767
3.16600	3767
3.16667	3766
3.16733	3765
3.16800	3765
3.16867	3764
3.16933	3764
3.17000	3763
3.17067	3762
3.17133	3762
3.17200	3761
3.17267	3760
3.17333	3760
3.17400	3759
3.17467	3759
3.17533	3758
3.17600	3757
3.17667	3757
3.17733	3756
3.17800	3755
3.17867	3755
3.17933	3754
3.18000	3753
3.18067	3752
3.18133	3752
3.18200	3751
3.18267	3750
3.18333	3750
3.18400	3749
3.18467	3748
3.18533	3747
3.18600	3747
3.18667	3746
3.18733	3745
3.18800	3745
3.18867	3744
3.18933	3743
3.19000	3743
3.19067	3742
3.19133	3741
3.19200	3741
3.19267	3740
3.19333	3739
3.19400	3739
3.19467	3738
3.19533	3737
3.19600	3736
3.19667	3736
3.19733	3735
3.19800	3734
3.19867	3734
3.19933	3733
3.20000	3732
3.20067	3731
3.20133	3731
3.20200	3730
3.20267	3729
3.20333	3729
3.20400	3728
3.20467	3728
3.20533	3727
3.20600	3727
3.20667	3726
3.20733	3726
3.20800	3725
3.20867	3725
3.20933	3724
3.21000	3724
3.21067	3723
3.21133	3723
3.21200	3722
3.21267	3722
3.21333	3721
3.21400	3720
3.21467	3720
3.21533	3720
3.21600	3719
3.21667	3719
3.21733	3718
3.21800	3718
3.21867	3717
3.21933	3717
3.22000	3717
3.22067	3716
3.22133	3716
3.22200	3715
3.22267	3715
3.22333	3715
3.22400	3714
3.22467	3714
3.22533	3714
3.22600	3713
3.22667	3713
3.22733	3712
3.22800	3712
3.22867	3711
3.22933	3711
3.23000	3711
3.23067	3710
3.23133	3710
3.23200	3709
3.23267	3709
3.23333	3709
3.23400	3708
3.23467	3708
3.23533	3707
3.23600	3707
3.23667	3707
3.23733	3706
3.23800	3706
3.23867	3706
3.23933	3705
3.24000	3705
3.24067	3705
3.24133	3704
3.24200	3704
3.24267	3704
3.24333	3704
3.24400	3703
3.24467	3703
3.24533	3703
3.24600	3703
3.24667	3702
3.24733	3702
3.24800	3702
3.24867	3702
3.24933	3701
3.25000	3701
3.25067	3701
3.25133	3701
3.25200	3700
3.25267	3700
3.25333	3700
3.25400	3700
3.25467	3700
3.25533	3699
3.25600	3699
3.25667	3699
3.25733	3699
3.25800	3699
3.25867	3699
3.25933	3699
3.26000	3698
3.26067	3698
3.26133	3698
3.26200	3698
3.26267	3698
3.26333	3698
3.26400	3698
3.26467	3698
3.26533	3698
3.26600	3698
3.26667	3698
3.26733	3698
3.26800	3698
3.26867	3698
3.26933	3698
3.27000	3698
3.27067	3698
3.27133	3698
3.27200	3698
3.27267	3698
3.27333	3698
3.27400	3698
3.27467	3698
3.27533	3698
3.27600	3698
3.27667	3698
3.27733	3698
3.27800	3698
3.27867	3698
3.27933	3698
3.28000	3698
3.28067	3698
3.28133	3698
3.28200	3698
3.28267	3698
3.28333	3699
3.28400	3699
3.28467	3699
3.28533	3699
3.28600	3699
3.28667	3699
3.28733	3699
3.28800	3699
3.28867	3699
3.28933	3699
3.29000	3699
3.29067	3700
3.29133	3700
3.29200	3700
3.29267	3700
3.29333	3700
3.29400	3700
3.29467	3700
3.29533	3700
3.29600	3700
3.29667	3700
3.29733	3700
3.29800	3700
3.29867	3700
3.29933	3700
3.30000	3700
3.30067	3700
3.30133	3700
3.30200	3700
3.30267	3700
3.30333	3700
3.30400	3700
3.30467	3700
3.30533	3700
3.30600	3700
3.30667	3700
3.30733	3700
3.30800	3700
3.30867	3700
3.30933	3700
3.31000	3700
3.31067	3700
3.31133	3700
3.31200	3699
3.31267	3699
3.31333	3699
3.31400	3699
3.31467	3699
3.31533	3699
3.31600	3699
3.31667	3699
3.31733	3699
3.31800	3699
3.31867	3699
3.31933	3698
3.32000	3698
3.32067	3698
3.32133	3698
3.32200	3698
3.32267	3698
3.32333	3698
3.32400	3698
3.32467	3698
3.32533	3698
3.32600	3697
3.32667	3697
3.32733	3697
3.32800	3697
3.32867	3697
3.32933	3697
3.33000	3697
3.33067	3696
3.33133	3696
3.33200	3696
3.33267	3696
3.33333	3696
3.33400	3695
3.33467	3695
3.33533	3695
3.33600	3694
3.33667	3694
3.33733	3694
3.33800	3694
3.33867	3693
3.33933	3693
3.34000	3693
3.34067	3693
3.34133	3692
3.34200	3692
3.34267	3692
3.34333	3692
3.34400	3692
3.34467	3692
3.34533	3691
3.34600	3691
3.34667	3691
3.34733	3691
3.34800	3691
3.34867	3691
3.34933	3691
3.35000	3691
3.35067	3691
3.35133	3691
3.35200	3690
3.35267	3690
3.35333	3690
3.35400	3690
3.35467	3690
3.35533	3690
3.35600	3690
3.35667	3690
3.35733	3690
3.35800	3690
3.35867	3689
3.35933	3689
3.36000	3689
3.36067	3689
3.36133	3689
3.36200	3689
3.36267	3689
3.36333	3689
3.36400	3689
3.36467	3689
3.36533	3689
3.36600	3689
3.36667	3689
3.36733	3689
3.36800	3690
3.36867	3690
3.36933	3690
3.37000	3690
3.37067	3690
3.37133	3690
3.37200	3691
3.37267	3691
3.37333	3691
3.37400	3691
3.37467	3691
3.37533	3691
3.37600	3692
3.37667	3692
3.37733	3692
3.37800	3692
3.37867	3692
3.37933	3692
3.38000	3692
3.38067	3692
3.38133	3692
3.38200	3693
3.38267	3693
3.38333	3693
3.38400	3693
3.38467	3693
3.38533	3693
3.38600	3694
3.38667	3694
3.38733	3694
3.38800	3694
3.38867	3695
3.38933	3695
3.39000	3695
3.39067	3695
3.39133	3696
3.39200	3696
3.39267	3696
3.39333	3696
3.39400	3697
3.39467	3697
3.39533	3697
3.39600	3697
3.39667	3698
3.39733	3698
3.39800	3698
3.39867	3698
3.39933	3698
3.40000	3698
3.40067	3699
3.40133	3699
3.40200	3699
3.40267	3699
3.40333	3699
3.40400	3700
3.40467	3700
3.40533	3700
3.40600	3700
3.40667	3700
3.40733	3701
3.40800	3701
3.40867	3701
3.40933	3701
3.41000	3702
3.41067	3702
3.41133	3702
3.41200	3702
3.41267	3702
3.41333	3702
3.41400	3702
3.41467	3703
3.41533	3703
3.41600	3703
3.41667	3703
3.41733	3703
3.41800	3703
3.41867	3703
3.41933	3703
3.42000	3703
3.42067	3703
3.42133	3703
3.42200	3703
3.42267	3703
3.42333	3703
3.42400	3703
3.42467	3703
3.42533	3703
3.42600	3703
3.42667	3703
3.42733	3704
3.42800	3704
3.42867	3704
3.42933	3704
3.43000	3704
3.43067	3705
3.43133	3705
3.43200	3705
3.43267	3705
3.43333	3706
3.43400	3706
3.43467	3706
3.43533	3706
3.43600	3707
3.43667	3707
3.43733	3707
3.43800	3708
3.43867	3708
3.43933	3709
3.44000	3709
3.44067	3709
3.44133	3710
3.44200	3710
3.44267	3711
3.44333	3711
3.44400	3712
3.44467	3713
3.44533	3713
3.44600	3714
3.44667	3714
3.44733	3715
3.44800	3715
3.44867	3716
3.44933	3716
3.45000	3717
3.45067	3717
3.45133	3718
3.45200	3719
3.45267	3719
3.45333	3720
3.45400	3721
3.45467	3721
3.45533	3722
3.45600	3723
3.45667	3724
3.45733	3724
3.45800	3725
3.45867	3726
3.45933	3727
3.46000	3728
3.46067	3729
3.46133	3730
3.46200	3731
3.46267	3732
3.46333	3733
3.46400	3734
3.46467	3735
3.46533	3736
3.46600	3737
3.46667	3739
3.46733	3740
3.46800	3741
3.46867	3743
3.46933	3744
3.47000	3745
3.47067	3747
3.47133	3748
3.47200	3750
3.47267	3752
3.47333	3753
3.47400	3755
3.47467	3757
3.47533	3759
3.47600	3760
3.47667	3762
3.47733	3764
3.47800	3766
3.47867	3768
3.47933	3771
3.48000	3773
3.48067	3775
3.48133	3778
3.48200	3780
3.48267	3783
3.48333	3785
3.48400	3788
3.48467	3791
3.48533	3794
3.48600	3797
3.48667	3800
3.48733	3803
3.48800	3807
3.48867	3810
3.48933	3814
3.49000	3818
3.49067	3822
3.49133	3826
3.49200	3830
3.49267	3835
3.49333	3839
3.49400	3844
3.49467	3849
3.49533	3855
3.49600	3860
3.49667	3866
3.49733	3872
3.49800	3879
3.49867	3886
3.49933	3893
3.50000	3900
3.50067	3907
3.50133	3915
3.50200	3924
3.50267	3933
3.50333	3942
3.50400	3951
3.50467	3961
3.50533	3971
3.50600	3982
3.50667	3993
3.50733	4005
3.50800	4018
3.50867	4030
3.50933	4044
3.51000	4058
3.51067	4072
3.51133	4088
3.51200	4103
3.51267	4120
3.51333	4137
3.51400	4154
3.51467	4173
3.51533	4192
3.51600	4212
3.51667	4232
3.51733	4254
3.51800	4276
3.51867	4299
3.51933	4323
3.52000	4347
3.52067	4372
3.52133	4399
3.52200	4425
3.52267	4453
3.52333	4482
3.52400	4511
3.52467	4542
3.52533	4573
3.52600	4605
3.52667	4637
3.52733	4671
3.52800	4706
3.52867	4741
3.52933	4777
3.53000	4814
3.53067	4852
3.53133	4890
3.53200	4929
3.53267	4969
3.53333	5010
3.53400	5051
3.53467	5093
3.53533	5136
3.53600	5180
3.53667	5224
3.53733	5268
3.53800	5313
3.53867	5359
3.53933	5405
3.54000	5452
3.54067	5499
3.54133	5547
3.54200	5595
3.54267	5643
3.54333	5691
3.54400	5740
3.54467	5789
3.54533	5838
3.54600	5887
3.54667	5936
3.54733	5985
3.54800	6034
3.54867	6083
3.54933	6132
3.55000	6181
3.55067	6230
3.55133	6278
3.55200	6326
3.55267	6374
3.55333	6421
3.55400	6468
3.55467	6514
3.55533	6560
3.55600	6605
3.55667	6649
3.55733	6693
3.55800	6736
3.55867	6778
3.55933	6820
3.56000	6861
3.56067	6900
3.56133	6939
3.56200	6977
3.56267	7014
3.56333	7050
3.56400	7085
3.56467	7119
3.56533	7152
3.56600	7184
3.56667	7215
3.56733	7245
3.56800	7274
3.56867	7302
3.56933	7329
3.57000	7354
3.57067	7379
3.57133	7402
3.57200	7425
3.57267	7446
3.57333	7466
3.57400	7485
3.57467	7503
3.57533	7520
3.57600	7536
3.57667	7551
3.57733	7564
3.57800	7577
3.57867	7589
3.57933	7600
3.58000	7610
3.58067	7619
3.58133	7627
3.58200	7634
3.58267	7641
3.58333	7646
3.58400	7651
3.58467	7655
3.58533	7658
3.58600	7661
3.58667	7662
3.58733	7664
3.58800	7664
3.58867	7664
3.58933	7663
3.59000	7661
3.59067	7659
3.59133	7656
3.59200	7652
3.59267	7648
3.59333	7643
3.59400	7638
3.59467	7632
3.59533	7625
3.59600	7619
3.59667	7611
3.59733	7603
3.59800	7595
3.59867	7586
3.59933	7577
3.60000	7567
3.60067	7557
3.60133	7547
3.60200	7536
3.60267	7525
3.60333	7513
3.60400	7501
3.60467	7489
3.60533	7476
3.60600	7463
3.60667	7450
3.60733	7437
3.60800	7423
3.60867	7408
3.60933	7394
3.61000	7379
3.61067	7364
3.61133	7348
3.61200	7333
3.61267	7317
3.61333	7300
3.61400	7283
3.61467	7266
3.61533	7249
3.61600	7231
3.61667	7213
3.61733	7194
3.61800	7175
3.61867	7156
3.61933	7137
3.62000	7117
3.62067	7096
3.62133	7075
3.62200	7054
3.62267	7033
3.62333	7011
3.62400	6988
3.62467	6966
3.62533	6943
3.62600	6919
3.62667	6895
3.62733	6871
3.62800	6846
3.62867	6821
3.62933	6796
3.63000	6770
3.63067	6744
3.63133	6717
3.63200	6690
3.63267	6663
3.63333	6636
3.63400	6608
3.63467	6579
3.63533	6551
3.63600	6522
3.63667	6493
3.63733	6464
3.63800	6434
3.63867	6404
3.63933	6374
3.64000	6344
3.64067	6313
3.64133	6282
3.64200	6251
3.64267	6220
3.64333	6189
3.64400	6157
3.64467	6126
3.64533	6094
3.64600	6062
3.64667	6030
3.64733	5998
3.64800	5966
3.64867	5934
3.64933	5902
3.65000	5870
3.65067	5838
3.65133	5806
3.65200	5775
3.65267	5743
3.65333	5711
3.65400	5680
3.65467	5648
3.65533	5617
3.65600	5586
3.65667	5555
3.65733	5524
3.65800	5493
3.65867	5462
3.65933	5432
3.66000	5402
3.66067	5372
3.66133	5342
3.66200	5312
3.66267	5283
3.66333	5253
3.66400	5224
3.66467	5196
3.66533	5167
3.66600	5139
3.66667	5111
3.66733	5083
3.66800	5056
3.66867	5029
3.66933	5002
3.67000	4975
3.67067	4949
3.67133	4923
3.67200	4897
3.67267	4872
3.67333	4847
3.67400	4822
3.67467	4798
3.67533	4774
3.67600	4750
3.67667	4726
3.67733	4703
3.67800	4680
3.67867	4658
3.67933	4636
3.68000	4614
3.68067	4592
3.68133	4571
3.68200	4550
3.68267	4530
3.68333	4510
3.68400	4490
3.68467	4470
3.68533	4451
3.68600	4432
3.68667	4414
3.68733	4396
3.68800	4378
3.68867	4360
3.68933	4343
3.69000	4326
3.69067	4309
3.69133	4293
3.69200	4277
3.69267	4261
3.69333	4246
3.69400	4230
3.69467	4215
3.69533	4201
3.69600	4186
3.69667	4172
3.69733	4158
3.69800	4144
3.69867	4131
3.69933	4118
3.70000	4105
3.70067	4092
3.70133	4079
3.70200	4067
3.70267	4055
3.70333	4043
3.70400	4031
3.70467	4020
3.70533	4009
3.70600	3998
3.70667	3987
3.70733	3977
3.70800	3966
3.70867	3956
3.70933	3946
3.71000	3936
3.71067	3926
3.71133	3917
3.71200	3907
3.71267	3898
3.71333	3889
3.71400	3880
3.71467	3871
3.71533	3863
3.71600	3854
3.71667	3846
3.71733	3838
3.71800	3830
3.71867	3822
3.71933	3814
3.72000	3807
3.72067	3799
3.72133	3792
3.72200	3785
3.72267	3778
3.72333	3771
3.72400	3764
3.72467	3757
3.72533	3751
3.72600	3744
3.72667	3738
3.72733	3731
3.72800	3725
3.72867	3719
3.72933	3713
3.73000	3707
3.73067	3701
3.73133	3696
3.73200	3690
3.73267	3685
3.73333	3679
3.73400	3674
3.73467	3669
3.73533	3664
3.73600	3659
3.73667	3654
3.73733	3649
3.73800	3644
3.73867	3639
3.73933	3635
3.74000	3630
3.74067	3625
3.74133	3621
3.74200	3617
3.74267	3612
3.74333	3608
3.74400	3604
3.74467	3600
3.74533	3596
3.74600	3592
3.74667	3588
3.74733	3585
3.74800	3581
3.74867	3577
3.74933	3574
3.75000	3570
3.75067	3567
3.75133	3564
3.75200	3560
3.75267	3557
3.75333	3554
3.75400	3551
3.75467	3548
3.75533	3544
3.75600	3541
3.75667	3538
3.75733	3535
3.75800	3532
3.75867	3529
3.75933	3527
3.76000	3524
3.76067	3521
3.76133	3518
3.76200	3515
3.76267	3513
3.76333	3510
3.76400	3507
3.76467	3505
3.76533	3502
3.76600	3499
3.76667	3497
3.76733	3494
3.76800	3492
3.76867	3489
3.76933	3487
3.77000	3485
3.77067	3482
3.77133	3480
3.77200	3478
3.77267	3476
3.77333	3473
3.77400	3471
3.77467	3469
3.77533	3467
3.77600	3465
3.77667	3462
3.77733	3460
3.77800	3458
3.77867	3456
3.77933	3454
3.78000	3452
3.78067	3450
3.78133	3448
3.78200	3446
3.78267	3444
3.78333	3441
3.78400	3439
3.78467	3437
3.78533	3435
3.78600	3433
3.78667	3431
3.78733	3429
3.78800	3427
3.78867	3425
3.78933	3423
3.79000	3421
3.79067	3419
3.79133	3417
3.79200	3415
3.79267	3413
3.79333	3411
3.79400	3410
3.79467	3408
3.79533	3406
3.79600	3404
3.79667	3402
3.79733	3401
3.79800	3399
3.79867	3397
3.79933	3396
3.80000	3394
3.80067	3392
3.80133	3390
3.80200	3389
3.80267	3387
3.80333	3386
3.80400	3384
3.80467	3383
3.80533	3381
3.80600	3380
3.80667	3378
3.80733	3377
3.80800	3375
3.80867	3374
3.80933	3373
3.81000	3371
3.81067	3370
3.81133	3369
3.81200	3367
3.81267	3366
3.81333	3365
3.81400	3363
3.81467	3362
3.81533	3361
3.81600	3359
3.81667	3358
3.81733	3357
3.81800	3356
3.81867	3354
3.81933	3353
3.82000	3352
3.82067	3351
3.82133	3349
3.82200	3348
3.82267	3347
3.82333	3346
3.82400	3344
3.82467	3343
3.82533	3342
3.82600	3341
3.82667	3340
3.82733	3338
3.82800	3337
3.82867	3336
3.82933	3335
3.83000	3334
3.83067	3333
3.83133	3332
3.83200	3330
3.83267	3329
3.83333	3328
3.83400	3327
3.83467	3326
3.83533	3325
3.83600	3324
3.83667	3323
3.83733	3322
3.83800	3321
3.83867	3320
3.83933	3319
3.84000	3318
3.84067	3317
3.84133	3316
3.84200	3315
3.84267	3314
3.84333	3313
3.84400	3312
3.84467	3311
3.84533	3309
3.84600	3308
3.84667	3307
3.84733	3306
3.84800	3305
3.84867	3304
3.84933	3303
3.85000	3302
3.85067	3301
3.85133	3300
3.85200	3299
3.85267	3298
3.85333	3297
3.85400	3296
3.85467	3295
3.85533	3294
3.85600	3293
3.85667	3292
3.85733	3291
3.85800	3289
3.85867	3288
3.85933	3287
3.86000	3286
3.86067	3285
3.86133	3284
3.86200	3284
3.86267	3283
3.86333	3282
3.86400	3281
3.86467	3280
3.86533	3279
3.86600	3278
3.86667	3277
3.86733	3276
3.86800	3276
3.86867	3275
3.86933	3274
3.87000	3273
3.87067	3272
3.87133	3271
3.87200	3271
3.87267	3270
3.87333	3269
3.87400	3268
3.87467	3268
3.87533	3267
3.87600	3266
3.87667	3265
3.87733	3265
3.87800	3264
3.87867	3263
3.87933	3262
3.88000	3262
3.88067	3261
3.88133	3260
3.88200	3260
3.88267	3259
3.88333	3258
3.88400	3258
3.88467	3257
3.88533	3256
3.88600	3256
3.88667	3255
3.88733	3254
3.88800	3253
3.88867	3253
3.88933	3252
3.89000	3251
3.89067	3250
3.89133	3250
3.89200	3249
3.89267	3248
3.89333	3248
3.89400	3247
3.89467	3246
3.89533	3245
3.89600	3245
3.89667	3244
3.89733	3243
3.89800	3243
3.89867	3242
3.89933	3241
3.90000	3240
3.90067	3240
3.90133	3239
3.90200	3238
3.90267	3237
3.90333	3236
3.90400	3236
3.90467	3235
3.90533	3234
3.90600	3233
3.90667	3232
3.90733	3231
3.90800	3230
3.90867	3230
3.90933	3229
3.91000	3228
3.91067	3227
3.91133	3226
3.91200	3225
3.91267	3224
3.91333	3223
3.91400	3223
3.91467	3222
3.91533	3221
3.91600	3220
3.91667	3219
3.91733	3218
3.91800	3218
3.91867	3217
3.91933	3216
3.92000	3216
3.92067	3215
3.92133	3214
3.92200	3214
3.92267	3213
3.92333	3213
3.92400	3212
3.92467	3212
3.92533	3211
3.92600	3211
3.92667	3210
3.92733	3209
3.92800	3209
3.92867	3208
3.92933	3208
3.93000	3207
3.93067	3207
3.93133	3206
3.93200	3206
3.93267	3205
3.93333	3204
3.93400	3204
3.93467	3203
3.93533	3203
3.93600	3202
3.93667	3201
3.93733	3201
3.93800	3200
3.93867	3200
3.93933	3199
3.94000	3198
3.94067	3198
3.94133	3197
3.94200	3197
3.94267	3196
3.94333	3195
3.94400	3195
3.94467	3194
3.94533	3194
3.94600	3193
3.94667	3192
3.94733	3192
3.94800	3191
3.94867	3191
3.94933	3190
3.95000	3190
3.95067	3189
3.95133	3188
3.95200	3188
3.95267	3187
3.95333	3187
3.95400	3186
3.95467	3186
3.95533	3186
3.95600	3185
3.95667	3185
3.95733	3184
3.95800	3184
3.95867	3183
3.95933	3183
3.96000	3182
3.96067	3182
3.96133	3181
3.96200	3181
3.96267	3180
3.96333	3180
3.96400	3179
3.96467	3179
3.96533	3178
3.96600	3178
3.96667	3178
3.96733	3177
3.96800	3177
3.96867	3176
3.96933	3176
3.97000	3175
3.97067	3175
3.97133	3175
3.97200	3174
3.97267	3174
3.97333	3173
3.97400	3173
3.97467	3173
3.97533	3172
3.97600	3172
3.97667	3172
3.97733	3171
3.97800	3171
3.97867	3171
3.97933	3171
3.98000	3170
3.98067	3170
3.98133	3170
3.98200	3170
3.98267	3170
3.98333	3169
3.98400	3169
3.98467	3169
3.98533	3169
3.98600	3169
3.98667	3169
3.98733	3169
3.98800	3169
3.98867	3168
3.98933	3168
3.99000	3168
3.99067	3168
3.99133	3168
3.99200	3168
3.99267	3168
3.99333	3168
3.99400	3168
3.99467	3168
3.99533	3168
3.99600	3167
3.99667	3168
3.99733	3168
3.99800	3168
3.99867	3168
3.99933	3168
4.00000	3168
4.00067	3168
4.00133	3168
4.00200	3168
4.00267	3168
4.00333	3168
4.00400	3169
4.00467	3169
4.00533	3169
4.00600	3169
4.00667	3169
4.00733	3169
4.00800	3170
4.00867	3170
4.00933	3170
4.01000	3170
4.01067	3171
4.01133	3171
4.01200	3171
4.01267	3172
4.01333	3172
4.01400	3173
4.01467	3173
4.01533	3173
4.01600	3174
4.01667	3175
4.01733	3175
4.01800	3176
4.01867	3176
4.01933	3177
4.02000	3177
4.02067	3178
4.02133	3178
4.02200	3179
4.02267	3180
4.02333	3180
4.02400	3181
4.02467	3182
4.02533	3183
4.02600	3183
4.02667	3184
4.02733	3185
4.02800	3186
4.02867	3186
4.02933	3187
4.03000	3188
4.03067	3189
4.03133	3190
4.03200	3191
4.03267	3192
4.03333	3193
4.03400	3194
4.03467	3195
4.03533	3197
4.03600	3198
4.03667	3199
4.03733	3201
4.03800	3202
4.03867	3203
4.03933	3205
4.04000	3206
4.04067	3208
4.04133	3209
4.04200	3211
4.04267	3212
4.04333	3214
4.04400	3215
4.04467	3217
4.04533	3219
4.04600	3220
4.04667	3222
4.04733	3224
4.04800	3226
4.04867	3228
4.04933	3229
4.05000	3231
4.05067	3233
4.05133	3235
4.05200	3237
4.05267	3239
4.05333	3241
4.05400	3243
4.05467	3245
4.05533	3247
4.05600	3250
4.05667	3252
4.05733	3254
4.05800	3256
4.05867	3258
4.05933	3261
4.06000	3263
4.06067	3266
4.06133	3268
4.06200	3270
4.06267	3273
4.06333	3275
4.06400	3278
4.06467	3281
4.06533	3283
4.06600	3286
4.06667	3288
4.06733	3291
4.06800	3294
4.06867	3297
4.06933	3300
4.07000	3303
4.07067	3306
4.07133	3308
4.07200	3311
4.07267	3314
4.07333	3318
4.07400	3321
4.07467	3324
4.07533	3327
4.07600	3330
4.07667	3333
4.07733	3336
4.07800	3340
4.07867	3343
4.07933	3346
4.08000	3350
4.08067	3353
4.08133	3356
4.08200	3360
4.08267	3363
4.08333	3367
4.08400	3371
4.08467	3374
4.08533	3378
4.08600	3381
4.08667	3385
4.08733	3389
4.08800	3392
4.08867	3396
4.08933	3400
4.09000	3404
4.09067	3408
4.09133	3411
4.09200	3415
4.09267	3419
4.09333	3423
4.09400	3427
4.09467	3430
4.09533	3434
4.09600	3438
4.09667	3442
4.09733	3446
4.09800	3450
4.09867	3454
4.09933	3458
4.10000	3461
4.10067	3465
4.10133	3469
4.10200	3473
4.10267	3476
4.10333	3480
4.10400	3483
4.10467	3487
4.10533	3491
4.10600	3494
4.10667	3498
4.10733	3501
4.10800	3505
4.10867	3508
4.10933	3511
4.11000	3515
4.11067	3518
4.11133	3521
4.11200	3524
4.11267	3527
4.11333	3530
4.11400	3533
4.11467	3536
4.11533	3539
4.11600	3542
4.11667	3544
4.11733	3547
4.11800	3550
4.11867	3552
4.11933	3555
4.12000	3557
4.12067	3559
4.12133	3562
4.12200	3564
4.12267	3566
4.12333	3568
4.12400	3570
4.12467	3572
4.12533	3574
4.12600	3575
4.12667	3577
4.12733	3578
4.12800	3580
4.12867	3581
4.12933	3583
4.13000	3584
4.13067	3585
4.13133	3586
4.13200	3587
4.13267	3588
4.13333	3589
4.13400	3589
4.13467	3590
4.13533	3591
4.13600	3591
4.13667	3592
4.13733	3592
4.13800	3592
4.13867	3593
4.13933	3593
4.14000	3593
4.14067	3593
4.14133	3593
4.14200	3593
4.14267	3593
4.14333	3593
4.14400	3592
4.14467	3592
4.14533	3592
4.14600	3592
4.14667	3591
4.14733	3591
4.14800	3590
4.14867	3590
4.14933	3589
4.15000	3588
4.15067	3588
4.15133	3587
4.15200	3586
4.15267	3586
4.15333	3585
4.15400	3584
4.15467	3584
4.15533	3583
4.15600	3582
4.15667	3581
4.15733	3581
4.15800	3580
4.15867	3579
4.15933	3579
4.16000	3578
4.16067	3578
4.16133	3577
4.16200	3576
4.16267	3576
4.16333	3575
4.16400	3575
4.16467	3574
4.16533	3574
4.16600	3574
4.16667	3573
4.16733	3573
4.16800	3573
4.16867	3572
4.16933	3572
4.17000	3572
4.17067	3572
4.17133	3572
4.17200	3572
4.17267	3573
4.17333	3573
4.17400	3573
4.17467	3574
4.17533	3574
4.17600	3575
4.17667	3576
4.17733	3576
4.17800	3577
4.17867	3578
4.17933	3580
4.18000	3581
4.18067	3582
4.18133	3584
4.18200	3585
4.18267	3587
4.18333	3588
4.18400	3590
4.18467	3592
4.18533	3594
4.18600	3596
4.18667	3599
4.18733	3601
4.18800	3604
4.18867	3607
4.18933	3609
4.19000	3612
4.19067	3615
4.19133	3619
4.19200	3622
4.19267	3626
4.19333	3629
4.19400	3633
4.19467	3637
4.19533	3641
4.19600	3646
4.19667	3650
4.19733	3655
4.19800	3660
4.19867	3665
4.19933	3670
4.20000	3676
4.20067	3682
4.20133	3688
4.20200	3694
4.20267	3701
4.20333	3708
4.20400	3715
4.20467	3722
4.20533	3730
4.20600	3738
4.20667	3746
4.20733	3754
4.20800	3763
4.20867	3771
4.20933	3780
4.21000	3790
4.21067	3799
4.21133	3809
4.21200	3819
4.21267	3830
4.21333	3841
4.21400	3852
4.21467	3863
4.21533	3875
4.21600	3887
4.21667	3899
4.21733	3912
4.21800	3924
4.21867	3938
4.21933	3951
4.22000	3966
4.22067	3980
4.22133	3995
4.22200	4010
4.22267	4026
4.22333	4042
4.22400	4058
4.22467	4075
4.22533	4092
4.22600	4110
4.22667	4128
4.22733	4147
4.22800	4166
4.22867	4186
4.22933	4206
4.23000	4226
4.23067	4247
4.23133	4268
4.23200	4290
4.23267	4313
4.23333	4335
4.23400	4358
4.23467	4382
4.23533	4406
4.23600	4431
4.23667	4456
4.23733	4482
4.23800	4508
4.23867	4534
4.23933	4561
4.24000	4589
4.24067	4617
4.24133	4645
4.24200	4675
4.24267	4704
4.24333	4734
4.24400	4765
4.24467	4796
4.24533	4828
4.24600	4861
4.24667	4894
4.24733	4927
4.24800	4961
4.24867	4996
4.24933	5031
4.25000	5067
4.25067	5103
4.25133	5140
4.25200	5177
4.25267	5215
4.25333	5254
4.25400	5293
4.25467	5333
4.25533	5373
4.25600	5414
4.25667	5455
4.25733	5497
4.25800	5540
4.25867	5583
4.25933	5626
4.26000	5670
4.26067	5714
4.26133	5759
4.26200	5804
4.26267	5849
4.26333	5895
4.26400	5942
4.26467	5989
4.26533	6036
4.26600	6083
4.26667	6131
4.26733	6179
4.26800	6227
4.26867	6276
4.26933	6324
4.27000	6373
4.27067	6422
4.27133	6471
4.27200	6521
4.27267	6570
4.27333	6620
4.27400	6669
4.27467	6719
4.27533	6769
4.27600	6819
4.27667	6869
4.27733	6919
4.27800	6970
4.27867	7020
4.27933	7070
4.28000	7121
4.28067	7172
4.28133	7222
4.28200	7273
4.28267	7323
4.28333	7374
4.28400	7425
4.28467	7476
4.28533	7527
4.28600	7578
4.28667	7628
4.28733	7679
4.28800	7730
4.28867	7781
4.28933	7832
4.29000	7883
4.29067	7934
4.29133	7984
4.29200	8035
4.29267	8085
4.29333	8135
4.29400	8185
4.29467	8235
4.29533	8284
4.29600	8333
4.29667	8382
4.29733	8430
4.29800	8478
4.29867	8526
4.29933	8573
4.30000	8620
4.30067	8666
4.30133	8712
4.30200	8757
4.30267	8802
4.30333	8847
4.30400	8890
4.30467	8934
4.30533	8977
4.30600	9019
4.30667	9061
4.30733	9102
4.30800	9143
4.30867	9183
4.30933	9222
4.31000	9261
4.31067	9299
4.31133	9337
4.31200	9374
4.31267	9410
4.31333	9445
4.31400	9480
4.31467	9514
4.31533	9547
4.31600	9579
4.31667	9610
4.31733	9641
4.31800	9670
4.31867	9699
4.31933	9727
4.32000	9754
4.32067	9780
4.32133	9805
4.32200	9829
4.32267	9852
4.32333	9874
4.32400	9895
4.32467	9914
4.32533	9933
4.32600	9951
4.32667	9967
4.32733	9983
4.32800	9998
4.32867	10011
4.32933	10023
4.33000	10035
4.33067	10045
4.33133	10055
4.33200	10063
4.33267	10071
4.33333	10077
4.33400	10082
4.33467	10087
4.33533	10090
4.33600	10093
4.33667	10094
4.33733	10095
4.33800	10095
4.33867	10093
4.33933	10090
4.34000	10087
4.34067	10082
4.34133	10077
4.34200	10070
4.34267	10062
4.34333	10054
4.34400	10044
4.34467	10033
4.34533	10022
4.34600	10009
4.34667	9995
4.34733	9981
4.34800	9965
4.34867	9949
4.34933	9931
4.35000	9912
4.35067	9893
4.35133	9872
4.35200	9851
4.35267	9829
4.35333	9806
4.35400	9782
4.35467	9757
4.35533	9731
4.35600	9705
4.35667	9677
4.35733	9649
4.35800	9621
4.35867	9591
4.35933	9561
4.36000	9530
4.36067	9498
4.36133	9465
4.36200	9432
4.36267	9398
4.36333	9364
4.36400	9329
4.36467	9294
4.36533	9258
4.36600	9222
4.36667	9185
4.36733	9148
4.36800	9110
4.36867	9072
4.36933	9034
4.37000	8995
4.37067	8956
4.37133	8917
4.37200	8878
4.37267	8838
4.37333	8798
4.37400	8758
4.37467	8718
4.37533	8678
4.37600	8638
4.37667	8598
4.37733	8558
4.37800	8517
4.37867	8477
4.37933	8437
4.38000	8397
4.38067	8356
4.38133	8316
4.38200	8276
4.38267	8236
4.38333	8196
4.38400	8156
4.38467	8117
4.38533	8077
4.38600	8038
4.38667	7999
4.38733	7960
4.38800	7921
4.38867	7883
4.38933	7844
4.39000	7806
4.39067	7768
4.39133	7731
4.39200	7694
4.39267	7656
4.39333	7620
4.39400	7583
4.39467	7547
4.39533	7511
4.39600	7475
4.39667	7440
4.39733	7405
4.39800	7371
4.39867	7336
4.39933	7302
4.40000	7269
4.40067	7236
4.40133	7203
4.40200	7170
4.40267	7138
4.40333	7106
4.40400	7074
4.40467	7043
4.40533	7012
4.40600	6982
4.40667	6951
4.40733	6921
4.40800	6892
4.40867	6863
4.40933	6834
4.41000	6806
4.41067	6777
4.41133	6750
4.41200	6722
4.41267	6696
4.41333	6669
4.41400	6643
4.41467	6617
4.41533	6592
4.41600	6567
4.41667	6543
4.41733	6519
4.41800	6495
4.41867	6472
4.41933	6449
4.42000	6427
4.42067	6405
4.42133	6383
4.42200	6362
4.42267	6341
4.42333	6320
4.42400	6300
4.42467	6280
4.42533	6260
4.42600	6241
4.42667	6222
4.42733	6203
4.42800	6185
4.42867	6167
4.42933	6150
4.43000	6132
4.43067	6115
4.43133	6098
4.43200	6082
4.43267	6066
4.43333	6050
4.43400	6035
4.43467	6019
4.43533	6005
4.43600	5990
4.43667	5976
4.43733	5962
4.43800	5948
4.43867	5935
4.43933	5922
4.44000	5909
4.44067	5896
4.44133	5884
4.44200	5872
4.44267	5860
4.44333	5849
4.44400	5838
4.44467	5827
4.44533	5816
4.44600	5806
4.44667	5796
4.44733	5786
4.44800	5776
4.44867	5767
4.44933	5758
4.45000	5749
4.45067	5741
4.45133	5733
4.45200	5725
4.45267	5718
4.45333	5710
4.45400	5703
4.45467	5697
4.45533	5690
4.45600	5684
4.45667	5678
4.45733	5672
4.45800	5667
4.45867	5662
4.45933	5657
4.46000	5652
4.46067	5648
4.46133	5643
4.46200	5639
4.46267	5636
4.46333	5632
4.46400	5629
4.46467	5626
4.46533	5623
4.46600	5621
4.46667	5619
4.46733	5617
4.46800	5615
4.46867	5613
4.46933	5612
4.47000	5611
4.47067	5610
4.47133	5609
4.47200	5608
4.47267	5608
4.47333	5608
4.47400	5608
4.47467	5608
4.47533	5608
4.47600	5608
4.47667	5609
4.47733	5609
4.47800	5610
4.47867	5611
4.47933	5612
4.48000	5613
4.48067	5614
4.48133	5616
4.48200	5617
4.48267	5619
4.48333	5621
4.48400	5623
4.48467	5625
4.48533	5627
4.48600	5629
4.48667	5631
4.48733	5634
4.48800	5636
4.48867	5638
4.48933	5641
4.49000	5643
4.49067	5646
4.49133	5648
4.49200	5651
4.49267	5653
4.49333	5656
4.49400	5659
4.49467	5661
4.49533	5664
4.49600	5667
4.49667	5669
4.49733	5672
4.49800	5674
4.49867	5677
4.49933	5680
4.50000	5682
4.50067	5685
4.50133	5687
4.50200	5690
4.50267	5692
4.50333	5694
4.50400	5697
4.50467	5699
4.50533	5701
4.50600	5703
4.50667	5706
4.50733	5708
4.50800	5710
4.50867	5712
4.50933	5714
4.51000	5716
4.51067	5717
4.51133	5719
4.51200	5721
4.51267	5723
4.51333	5724
4.51400	5726
4.51467	5728
4.51533	5730
4.51600	5731
4.51667	5733
4.51733	5735
4.51800	5736
4.51867	5738
4.51933	5739
4.52000	5741
4.52067	5743
4.52133	5744
4.52200	5746
4.52267	5748
4.52333	5749
4.52400	5751
4.52467	5753
4.52533	5755
4.52600	5756
4.52667	5758
4.52733	5760
4.52800	5762
4.52867	5765
4.52933	5767
4.53000	5769
4.53067	5772
4.53133	5774
4.53200	5777
4.53267	5780
4.53333	5783
4.53400	5786
4.53467	5789
4.53533	5793
4.53600	5797
4.53667	5800
4.53733	5805
4.53800	5809
4.53867	5813
4.53933	5818
4.54000	5823
4.54067	5828
4.54133	5834
4.54200	5839
4.54267	5845
4.54333	5851
4.54400	5857
4.54467	5864
4.54533	5871
4.54600	5878
4.54667	5885
4.54733	5892
4.54800	5900
4.54867	5908
4.54933	5916
4.55000	5925
4.55067	5934
4.55133	5943
4.55200	5953
4.55267	5962
4.55333	5973
4.55400	5983
4.55467	5994
4.55533	6005
4.55600	6016
4.55667	6028
4.55733	6040
4.55800	6053
4.55867	6066
4.55933	6079
4.56000	6092
4.56067	6106
4.56133	6119
4.56200	6133
4.56267	6148
4.56333	6162
4.56400	6177
4.56467	6192
4.56533	6207
4.56600	6222
4.56667	6237
4.56733	6253
4.56800	6269
4.56867	6285
4.56933	6301
4.57000	6317
4.57067	6334
4.57133	6350
4.57200	6367
4.57267	6384
4.57333	6402
4.57400	6419
4.57467	6436
4.57533	6454
4.57600	6472
4.57667	6490
4.57733	6508
4.57800	6526
4.57867	6545
4.57933	6563
4.58000	6581
4.58067	6600
4.58133	6619
4.58200	6637
4.58267	6656
4.58333	6675
4.58400	6694
4.58467	6713
4.58533	6731
4.58600	6750
4.58667	6769
4.58733	6788
4.58800	6806
4.58867	6825
4.58933	6843
4.59000	6862
4.59067	6880
4.59133	6898
4.59200	6916
4.59267	6934
4.59333	6952
4.59400	6970
4.59467	6987
4.59533	7004
4.59600	7021
4.59667	7038
4.59733	7055
4.59800	7071
4.59867	7087
4.59933	7103
4.60000	7118
4.60067	7133
4.60133	7148
4.60200	7162
4.60267	7176
4.60333	7190
4.60400	7203
4.60467	7216
4.60533	7229
4.60600	7241
4.60667	7253
4.60733	7265
4.60800	7276
4.60867	7287
4.60933	7297
4.61000	7308
4.61067	7317
4.61133	7327
4.61200	7336
4.61267	7344
4.61333	7352
4.61400	7360
4.61467	7367
4.61533	7374
4.61600	7380
4.61667	7386
4.61733	7392
4.61800	7397
4.61867	7402
4.61933	7406
4.62000	7410
4.62067	7414
4.62133	7417
4.62200	7420
4.62267	7422
4.62333	7424
4.62400	7426
4.62467	7427
4.62533	7428
4.62600	7429
4.62667	7429
4.62733	7429
4.62800	7429
4.62867	7429
4.62933	7428
4.63000	7427
4.63067	7425
4.63133	7423
4.63200	7421
4.63267	7418
4.63333	7416
4.63400	7412
4.63467	7409
4.63533	7405
4.63600	7401
4.63667	7396
4.63733	7392
4.63800	7387
4.63867	7382
4.63933	7376
4.64000	7370
4.64067	7364
4.64133	7358
4.64200	7351
4.64267	7345
4.64333	7338
4.64400	7331
4.64467	7323
4.64533	7316
4.64600	7308
4.64667	7300
4.64733	7292
4.64800	7284
4.64867	7275
4.64933	7267
4.65000	7258
4.65067	7249
4.65133	7240
4.65200	7231
4.65267	7222
4.65333	7212
4.65400	7203
4.65467	7193
4.65533	7183
4.65600	7174
4.65667	7164
4.65733	7154
4.65800	7144
4.65867	7134
4.65933	7124
4.66000	7114
4.66067	7103
4.66133	7093
4.66200	7083
4.66267	7072
4.66333	7062
4.66400	7051
4.66467	7041
4.66533	7030
4.66600	7020
4.66667	7009
4.66733	6998
4.66800	6987
4.66867	6976
4.66933	6966
4.67000	6955
4.67067	6944
4.67133	6933
4.67200	6922
4.67267	6912
4.67333	6901
4.67400	6890
4.67467	6879
4.67533	6868
4.67600	6857
4.67667	6847
4.67733	6836
4.67800	6825
4.67867	6814
4.67933	6803
4.68000	6793
4.68067	6782
4.68133	6771
4.68200	6760
4.68267	6750
4.68333	6739
4.68400	6728
4.68467	6718
4.68533	6707
4.68600	6697
4.68667	6686
4.68733	6676
4.68800	6665
4.68867	6655
4.68933	6645
4.69000	6634
4.69067	6624
4.69133	6614
4.69200	6604
4.69267	6594
4.69333	6584
4.69400	6574
4.69467	6565
4.69533	6555
4.69600	6545
4.69667	6536
4.69733	6526
4.69800	6517
4.69867	6508
4.69933	6499
4.70000	6489
4.70067	6480
4.70133	6471
4.70200	6462
4.70267	6454
4.70333	6445
4.70400	6436
4.70467	6427
4.70533	6419
4.70600	6410
4.70667	6402
4.70733	6393
4.70800	6385
4.70867	6377
4.70933	6369
4.71000	6361
4.71067	6353
4.71133	6345
4.71200	6337
4.71267	6329
4.71333	6322
4.71400	6314
4.71467	6307
4.71533	6299
4.71600	6292
4.71667	6284
4.71733	6277
4.71800	6270
4.71867	6262
4.71933	6255
4.72000	6248
4.72067	6241
4.72133	6234
4.72200	6227
4.72267	6220
4.72333	6213
4.72400	6207
4.72467	6200
4.72533	6193
4.72600	6186
4.72667	6180
4.72733	6173
4.72800	6167
4.72867	6160
4.72933	6153
4.73000	6147
4.73067	6140
4.73133	6134
4.73200	6128
4.73267	6121
4.73333	6115
4.73400	6109
4.73467	6102
4.73533	6096
4.73600	6090
4.73667	6084
4.73733	6078
4.73800	6072
4.73867	6066
4.73933	6060
4.74000	6054
4.74067	6048
4.74133	6042
4.74200	6036
4.74267	6030
4.74333	6025
4.74400	6019
4.74467	6013
4.74533	6008
4.74600	6002
4.74667	5997
4.74733	5991
4.74800	5986
4.74867	5980
4.74933	5975
4.75000	5969
4.75067	5964
4.75133	5959
4.75200	5953
4.75267	5948
4.75333	5943
4.75400	5938
4.75467	5933
4.75533	5928
4.75600	5923
4.75667	5917
4.75733	5912
4.75800	5907
4.75867	5902
4.75933	5898
4.76000	5893
4.76067	5888
4.76133	5883
4.76200	5878
4.76267	5873
4.76333	5869
4.76400	5864
4.76467	5859
4.76533	5855
4.76600	5850
4.76667	5846
4.76733	5841
4.76800	5837
4.76867	5833
4.76933	5828
4.77000	5824
4.77067	5820
4.77133	5816
4.77200	5811
4.77267	5807
4.77333	5803
4.77400	5799
4.77467	5795
4.77533	5791
4.77600	5787
4.77667	5783
4.77733	5779
4.77800	5775
4.77867	5771
4.77933	5767
4.78000	5764
4.78067	5760
4.78133	5756
4.78200	5752
4.78267	5748
4.78333	5744
4.78400	5740
4.78467	5737
4.78533	5733
4.78600	5729
4.78667	5726
4.78733	5722
4.78800	5718
4.78867	5715
4.78933	5712
4.79000	5708
4.79067	5705
4.79133	5702
4.79200	5699
4.79267	5695
4.79333	5692
4.79400	5689
4.79467	5686
4.79533	5683
4.79600	5680
4.79667	5677
4.79733	5674
4.79800	5671
4.79867	5669
4.79933	5666
4.80000	5663
4.80067	5660
4.80133	5657
4.80200	5654
4.80267	5652
4.80333	5649
4.80400	5646
4.80467	5643
4.80533	5640
4.80600	5638
4.80667	5635
4.80733	5632
4.80800	5630
4.80867	5627
4.80933	5624
4.81000	5622
4.81067	5619
4.81133	5617
4.81200	5614
4.81267	5611
4.81333	5609
4.81400	5606
4.81467	5604
4.81533	5601
4.81600	5599
4.81667	5596
4.81733	5593
4.81800	5591
4.81867	5588
4.81933	5586
4.82000	5583
4.82067	5580
4.82133	5577
4.82200	5575
4.82267	5572
4.82333	5569
4.82400	5566
4.82467	5563
4.82533	5560
4.82600	5558
4.82667	5555
4.82733	5552
4.82800	5549
4.82867	5546
4.82933	5543
4.83000	5540
4.83067	5537
4.83133	5534
4.83200	5531
4.83267	5527
4.83333	5524
4.83400	5521
4.83467	5518
4.83533	5515
4.83600	5512
4.83667	5508
4.83733	5505
4.83800	5502
4.83867	5499
4.83933	5495
4.84000	5492
4.84067	5489
4.84133	5486
4.84200	5483
4.84267	5479
4.84333	5476
4.84400	5473
4.84467	5470
4.84533	5467
4.84600	5463
4.84667	5460
4.84733	5457
4.84800	5453
4.84867	5450
4.84933	5447
4.85000	5444
4.85067	5440
4.85133	5437
4.85200	5434
4.85267	5431
4.85333	5427
4.85400	5424
4.85467	5421
4.85533	5417
4.85600	5414
4.85667	5411
4.85733	5407
4.85800	5404
4.85867	5400
4.85933	5397
4.86000	5394
4.86067	5390
4.86133	5387
4.86200	5384
4.86267	5380
4.86333	5377
4.86400	5373
4.86467	5370
4.86533	5366
4.86600	5363
4.86667	5359
4.86733	5356
4.86800	5353
4.86867	5349
4.86933	5346
4.87000	5343
4.87067	5339
4.87133	5336
4.87200	5333
4.87267	5329
4.87333	5326
4.87400	5323
4.87467	5319
4.87533	5316
4.87600	5313
4.87667	5310
4.87733	5307
4.87800	5304
4.87867	5301
4.87933	5298
4.88000	5295
4.88067	5292
4.88133	5289
4.88200	5286
4.88267	5283
4.88333	5280
4.88400	5277
4.88467	5275
4.88533	5272
4.88600	5269
4.88667	5266
4.88733	5264
4.88800	5261
4.88867	5258
4.88933	5256
4.89000	5253
4.89067	5251
4.89133	5248
4.89200	5246
4.89267	5243
4.89333	5241
4.89400	5238
4.89467	5236
4.89533	5234
4.89600	5231
4.89667	5229
4.89733	5227
4.89800	5225
4.89867	5222
4.89933	5220
4.90000	5218
4.90067	5216
4.90133	5214
4.90200	5211
4.90267	5209
4.90333	5207
4.90400	5205
4.90467	5203
4.90533	5201
4.90600	5199
4.90667	5197
4.90733	5195
4.90800	5193
4.90867	5191
4.90933	5189
4.91000	5187
4.91067	5185
4.91133	5183
4.91200	5182
4.91267	5180
4.91333	5178
4.91400	5176
4.91467	5174
4.91533	5173
4.91600	5171
4.91667	5169
4.91733	5167
4.91800	5165
4.91867	5164
4.91933	5162
4.92000	5160
4.92067	5158
4.92133	5156
4.92200	5155
4.92267	5153
4.92333	5151
4.92400	5150
4.92467	5148
4.92533	5147
4.92600	5145
4.92667	5143
4.92733	5142
4.92800	5140
4.92867	5139
4.92933	5137
4.93000	5136
4.93067	5134
4.93133	5132
4.93200	5131
4.93267	5129
4.93333	5127
4.93400	5126
4.93467	5124
4.93533	5122
4.93600	5120
4.93667	5119
4.93733	5117
4.93800	5115
4.93867	5113
4.93933	5111
4.94000	5109
4.94067	5108
4.94133	5106
4.94200	5104
4.94267	5102
4.94333	5100
4.94400	5098
4.94467	5096
4.94533	5094
4.94600	5092
4.94667	5090
4.94733	5088
4.94800	5086
4.94867	5084
4.94933	5082
4.95000	5080
4.95067	5078
4.95133	5076
4.95200	5075
4.95267	5073
4.95333	5071
4.95400	5069
4.95467	5067
4.95533	5065
4.95600	5063
4.95667	5061
4.95733	5059
4.95800	5058
4.95867	5056
4.95933	5054
4.96000	5052
4.96067	5051
4.96133	5049
4.96200	5047
4.96267	5045
4.96333	5044
4.96400	5042
4.96467	5040
4.96533	5039
4.96600	5037
4.96667	5035
4.96733	5034
4.96800	5032
4.96867	5031
4.96933	5029
4.97000	5027
4.97067	5026
4.97133	5024
4.97200	5023
4.97267	5021
4.97333	5020
4.97400	5018
4.97467	5017
4.97533	5015
4.97600	5014
4.97667	5012
4.97733	5011
4.97800	5009
4.97867	5008
4.97933	5007
4.98000	5005
4.98067	5004
4.98133	5003
4.98200	5001
4.98267	5000
4.98333	4999
4.98400	4998
4.98467	4996
4.98533	4995
4.98600	4994
4.98667	4992
4.98733	4991
4.98800	4990
4.98867	4989
4.98933	4987
4.99000	4986
4.99067	4985
4.99133	4984
4.99200	4983
4.99267	4981
4.99333	4980
4.99400	4979
4.99467	4978
4.99533	4977
4.99600	4976
4.99667	4974
4.99733	4973
4.99800	4972
4.99867	4971
4.99933	4970
5.00000	4968
5.00067	4967
5.00133	4966
5.00200	4964
5.00267	4963
5.00333	4961
5.00400	4960
5.00467	4958
5.00533	4957
5.00600	4955
5.00667	4954
5.00733	4952
5.00800	4950
5.00867	4949
5.00933	4947
5.01000	4945
5.01067	4943
5.01133	4942
5.01200	4940
5.01267	4938
5.01333	4936
5.01400	4934
5.01467	4932
5.01533	4930
5.01600	4928
5.01667	4926
5.01733	4924
5.01800	4922
5.01867	4920
5.01933	4918
5.02000	4916
5.02067	4914
5.02133	4912
5.02200	4909
5.02267	4907
5.02333	4905
5.02400	4903
5.02467	4901
5.02533	4899
5.02600	4897
5.02667	4894
5.02733	4892
5.02800	4890
5.02867	4888
5.02933	4886
5.03000	4884
5.03067	4881
5.03133	4879
5.03200	4877
5.03267	4875
5.03333	4873
5.03400	4871
5.03467	4868
5.03533	4866
5.03600	4864
5.03667	4862
5.03733	4860
5.03800	4858
5.03867	4856
5.03933	4853
5.04000	4851
5.04067	4849
5.04133	4847
5.04200	4845
5.04267	4843
5.04333	4841
5.04400	4838
5.04467	4836
5.04533	4834
5.04600	4832
5.04667	4830
5.04733	4828
5.04800	4826
5.04867	4824
5.04933	4822
5.05000	4820
5.05067	4818
5.05133	4816
5.05200	4814
5.05267	4812
5.05333	4810
5.05400	4809
5.05467	4807
5.05533	4805
5.05600	4803
5.05667	4802
5.05733	4800
5.05800	4799
5.05867	4797
5.05933	4795
5.06000	4794
5.06067	4792
5.06133	4791
5.06200	4789
5.06267	4788
5.06333	4786
5.06400	4785
5.06467	4784
5.06533	4782
5.06600	4781
5.06667	4779
5.06733	4778
5.06800	4777
5.06867	4775
5.06933	4774
5.07000	4773
5.07067	4771
5.07133	4770
5.07200	4769
5.07267	4767
5.07333	4766
5.07400	4764
5.07467	4763
5.07533	4762
5.07600	4760
5.07667	4759
5.07733	4758
5.07800	4756
5.07867	4755
5.07933	4754
5.08000	4752
5.08067	4751
5.08133	4750
5.08200	4749
5.08267	4747
5.08333	4746
5.08400	4745
5.08467	4744
5.08533	4743
5.08600	4742
5.08667	4741
5.08733	4740
5.08800	4739
5.08867	4738
5.08933	4737
5.09000	4737
5.09067	4736
5.09133	4735
5.09200	4734
5.09267	4733
5.09333	4733
5.09400	4732
5.09467	4731
5.09533	4730
5.09600	4730
5.09667	4729
5.09733	4728
5.09800	4727
5.09867	4727
5.09933	4726
5.10000	4725
5.10067	4724
5.10133	4724
5.10200	4723
5.10267	4722
5.10333	4722
5.10400	4721
5.10467	4721
5.10533	4720
5.10600	4719
5.10667	4719
5.10733	4718
5.10800	4718
5.10867	4717
5.10933	4717
5.11000	4716
5.11067	4715
5.11133	4715
5.11200	4714
5.11267	4714
5.11333	4714
5.11400	4713
5.11467	4713
5.11533	4712
5.11600	4712
5.11667	4712
5.11733	4712
5.11800	4711
5.11867	4711
5.11933	4711
5.12000	4711
5.12067	4711
5.12133	4711
5.12200	4711
5.12267	4711
5.12333	4711
5.12400	4711
5.12467	4711
5.12533	4711
5.12600	4712
5.12667	4712
5.12733	4712
5.12800	4712
5.12867	4712
5.12933	4713
5.13000	4713
5.13067	4714
5.13133	4714
5.13200	4715
5.13267	4715
5.13333	4716
5.13400	4717
5.13467	4718
5.13533	4718
5.13600	4719
5.13667	4720
5.13733	4721
5.13800	4722
5.13867	4724
5.13933	4725
5.14000	4726
5.14067	4728
5.14133	4729
5.14200	4731
5.14267	4733
5.14333	4734
5.14400	4736
5.14467	4738
5.14533	4740
5.14600	4743
5.14667	4745
5.14733	4747
5.14800	4749
5.14867	4752
5.14933	4754
5.15000	4757
5.15067	4760
5.15133	4763
5.15200	4766
5.15267	4769
5.15333	4772
5.15400	4775
5.15467	4778
5.15533	4782
5.15600	4785
5.15667	4789
5.15733	4793
5.15800	4796
5.15867	4800
5.15933	4804
5.16000	4808
5.16067	4812
5.16133	4816
5.16200	4821
5.16267	4825
5.16333	4829
5.16400	4834
5.16467	4839
5.16533	4844
5.16600	4848
5.16667	4853
5.16733	4858
5.16800	4864
5.16867	4869
5.16933	4874
5.17000	4880
5.17067	4885
5.17133	4891
5.17200	4896
5.17267	4902
5.17333	4908
5.17400	4914
5.17467	4920
5.17533	4926
5.17600	4932
5.17667	4939
5.17733	4945
5.17800	4952
5.17867	4958
5.17933	4965
5.18000	4971
5.18067	4978
5.18133	4985
5.18200	4992
5.18267	4999
5.18333	5006
5.18400	5013
5.18467	5020
5.18533	5027
5.18600	5035
5.18667	5042
5.18733	5049
5.18800	5056
5.18867	5064
5.18933	5071
5.19000	5079
5.19067	5086
5.19133	5094
5.19200	5101
5.19267	5109
5.19333	5116
5.19400	5124
5.19467	5131
5.19533	5138
5.19600	5146
5.19667	5153
5.19733	5161
5.19800	5168
5.19867	5175
5.19933	5182
5.20000	5190
5.20067	5197
5.20133	5204
5.20200	5211
5.20267	5218
5.20333	5225
5.20400	5232
5.20467	5239
5.20533	5246
5.20600	5253
5.20667	5260
5.20733	5267
5.20800	5273
5.20867	5280
5.20933	5286
5.21000	5292
5.21067	5298
5.21133	5304
5.21200	5310
5.21267	5316
5.21333	5322
5.21400	5327
5.21467	5333
5.21533	5338
5.21600	5343
5.21667	5349
5.21733	5354
5.21800	5359
5.21867	5363
5.21933	5368
5.22000	5373
5.22067	5377
5.22133	5382
5.22200	5386
5.22267	5390
5.22333	5395
5.22400	5399
5.22467	5402
5.22533	5406
5.22600	5410
5.22667	5413
5.22733	5416
5.22800	5419
5.22867	5422
5.22933	5425
5.23000	5428
5.23067	5431
5.23133	5433
5.23200	5435
5.23267	5438
5.23333	5440
5.23400	5442
5.23467	5443
5.23533	5445
5.23600	5446
5.23667	5448
5.23733	5449
5.23800	5450
5.23867	5451
5.23933	5452
5.24000	5453
5.24067	5453
5.24133	5454
5.24200	5454
5.24267	5454
5.24333	5454
5.24400	5454
5.24467	5454
5.24533	5454
5.24600	5453
5.24667	5453
5.24733	5452
5.24800	5451
5.24867	5450
5.24933	5449
5.25000	5447
5.25067	5446
5.25133	5444
5.25200	5443
5.25267	5441
5.25333	5439
5.25400	5437
5.25467	5435
5.25533	5433
5.25600	5430
5.25667	5428
5.25733	5426
5.25800	5423
5.25867	5420
5.25933	5418
5.26000	5415
5.26067	5412
5.26133	5409
5.26200	5406
5.26267	5403
5.26333	5400
5.26400	5397
5.26467	5393
5.26533	5390
5.26600	5386
5.26667	5383
5.26733	5379
5.26800	5376
5.26867	5372
5.26933	5368
5.27000	5364
5.27067	5360
5.27133	5356
5.27200	5352
5.27267	5348
5.27333	5344
5.27400	5340
5.27467	5336
5.27533	5331
5.27600	5327
5.27667	5323
5.27733	5318
5.27800	5314
5.27867	5309
5.27933	5305
5.28000	5300
5.28067	5295
5.28133	5291
5.28200	5286
5.28267	5281
5.28333	5277
5.28400	5272
5.28467	5267
5.28533	5262
5.28600	5257
5.28667	5252
5.28733	5247
5.28800	5243
5.28867	5238
5.28933	5233
5.29000	5228
5.29067	5223
5.29133	5218
5.29200	5213
5.29267	5208
5.29333	5203
5.29400	5198
5.29467	5193
5.29533	5188
5.29600	5183
5.29667	5178
5.29733	5173
5.29800	5168
5.29867	5164
5.29933	5159
5.30000	5154
5.30067	5150
5.30133	5145
5.30200	5140
5.30267	5136
5.30333	5132
5.30400	5127
5.30467	5123
5.30533	5119
5.30600	5114
5.30667	5110
5.30733	5106
5.30800	5102
5.30867	5097
5.30933	5093
5.31000	5089
5.31067	5085
5.31133	5080
5.31200	5076
5.31267	5072
5.31333	5068
5.31400	5064
5.31467	5060
5.31533	5056
5.31600	5052
5.31667	5048
5.31733	5044
5.31800	5040
5.31867	5036
5.31933	5032
5.32000	5029
5.32067	5025
5.32133	5021
5.32200	5017
5.32267	5014
5.32333	5010
5.32400	5006
5.32467	5003
5.32533	4999
5.32600	4995
5.32667	4992
5.32733	4989
5.32800	4985
5.32867	4982
5.32933	4978
5.33000	4975
5.33067	4972
5.33133	4968
5.33200	4965
5.33267	4962
5.33333	4959
5.33400	4956
5.33467	4952
5.33533	4949
5.33600	4946
5.33667	4943
5.33733	4940
5.33800	4937
5.33867	4934
5.33933	4932
5.34000	4929
5.34067	4926
5.34133	4923
5.34200	4920
5.34267	4917
5.34333	4915
5.34400	4912
5.34467	4909
5.34533	4906
5.34600	4904
5.34667	4901
5.34733	4898
5.34800	4896
5.34867	4893
5.34933	4890
5.35000	4888
5.35067	4885
5.35133	4882
5.35200	4880
5.35267	4877
5.35333	4875
5.35400	4872
5.35467	4870
5.35533	4868
5.35600	4865
5.35667	4863
5.35733	4861
5.35800	4859
5.35867	4856
5.35933	4854
5.36000	4852
5.36067	4850
5.36133	4848
5.36200	4846
5.36267	4844
5.36333	4842
5.36400	4840
5.36467	4838
5.36533	4836
5.36600	4834
5.36667	4833
5.36733	4831
5.36800	4829
5.36867	4827
5.36933	4825
5.37000	4824
5.37067	4822
5.37133	4820
5.37200	4819
5.37267	4817
5.37333	4815
5.37400	4813
5.37467	4812
5.37533	4810
5.37600	4808
5.37667	4807
5.37733	4805
5.37800	4804
5.37867	4802
5.37933	4800
5.38000	4799
5.38067	4798
5.38133	4796
5.38200	4795
5.38267	4793
5.38333	4792
5.38400	4790
5.38467	4789
5.38533	4788
5.38600	4787
5.38667	4785
5.38733	4784
5.38800	4783
5.38867	4782
5.38933	4781
5.39000	4779
5.39067	4778
5.39133	4777
5.39200	4776
5.39267	4775
5.39333	4774
5.39400	4773
5.39467	4772
5.39533	4771
5.39600	4770
5.39667	4769
5.39733	4768
5.39800	4767
5.39867	4766
5.39933	4765
5.40000	4764
5.40067	4763
5.40133	4762
5.40200	4761
5.40267	4760
5.40333	4759
5.40400	4758
5.40467	4756
5.40533	4755
5.40600	4754
5.40667	4753
5.40733	4753
5.40800	4752
5.40867	4751
5.40933	4750
5.41000	4749
5.41067	4748
5.41133	4747
5.41200	4746
5.41267	4745
5.41333	4745
5.41400	4744
5.41467	4743
5.41533	4742
5.41600	4741
5.41667	4740
5.41733	4740
5.41800	4739
5.41867	4738
5.41933	4737
5.42000	4736
5.42067	4736
5.42133	4735
5.42200	4734
5.42267	4733
5.42333	4732
5.42400	4732
5.42467	4731
5.42533	4730
5.42600	4729
5.42667	4728
5.42733	4727
5.42800	4727
5.42867	4726
5.42933	4725
5.43000	4724
5.43067	4723
5.43133	4722
5.43200	4721
5.43267	4720
5.43333	4719
5.43400	4718
5.43467	4716
5.43533	4715
5.43600	4714
5.43667	4713
5.43733	4712
5.43800	4711
5.43867	4709
5.43933	4708
5.44000	4707
5.44067	4705
5.44133	4704
5.44200	4703
5.44267	4702
5.44333	4700
5.44400	4699
5.44467	4697
5.44533	4696
5.44600	4695
5.44667	4693
5.44733	4692
5.44800	4690
5.44867	4689
5.44933	4687
5.45000	4686
5.45067	4684
5.45133	4683
5.45200	4681
5.45267	4679
5.45333	4678
5.45400	4676
5.45467	4674
5.45533	4673
5.45600	4671
5.45667	4669
5.45733	4667
5.45800	4665
5.45867	4663
5.45933	4661
5.46000	4659
5.46067	4657
5.46133	4656
5.46200	4654
5.46267	4652
5.46333	4650
5.46400	4648
5.46467	4646
5.46533	4645
5.46600	4643
5.46667	4641
5.46733	4639
5.46800	4637
5.46867	4635
5.46933	4634
5.47000	4632
5.47067	4630
5.47133	4628
5.47200	4627
5.47267	4625
5.47333	4623
5.47400	4621
5.47467	4620
5.47533	4618
5.47600	4616
5.47667	4615
5.47733	4613
5.47800	4611
5.47867	4610
5.47933	4608
5.48000	4606
5.48067	4605
5.48133	4603
5.48200	4601
5.48267	4600
5.48333	4598
5.48400	4596
5.48467	4595
5.48533	4593
5.48600	4592
5.48667	4590
5.48733	4588
5.48800	4587
5.48867	4585
5.48933	4583
5.49000	4582
5.49067	4580
5.49133	4579
5.49200	4577
5.49267	4576
5.49333	4574
5.49400	4572
5.49467	4571
5.49533	4569
5.49600	4568
5.49667	4566
5.49733	4565
5.49800	4563
5.49867	4562
5.49933	4560
5.50000	4559
5.50067	4557
5.50133	4556
5.50200	4554
5.50267	4553
5.50333	4551
5.50400	4550
5.50467	4548
5.50533	4547
5.50600	4545
5.50667	4544
5.50733	4542
5.50800	4541
5.50867	4539
5.50933	4538
5.51000	4536
5.51067	4535
5.51133	4533
5.51200	4532
5.51267	4530
5.51333	4528
5.51400	4527
5.51467	4525
5.51533	4524
5.51600	4522
5.51667	4521
5.51733	4520
5.51800	4518
5.51867	4517
5.51933	4516
5.52000	4515
5.52067	4513
5.52133	4512
5.52200	4511
5.52267	4510
5.52333	4508
5.52400	4507
5.52467	4506
5.52533	4505
5.52600	4503
5.52667	4502
5.52733	4501
5.52800	4500
5.52867	4498
5.52933	4497
5.53000	4496
5.53067	4495
5.53133	4493
5.53200	4492
5.53267	4491
5.53333	4490
5.53400	4489
5.53467	4487
5.53533	4486
5.53600	4485
5.53667	4484
5.53733	4483
5.53800	4482
5.53867	4481
5.53933	4480
5.54000	4479
5.54067	4478
5.54133	4477
5.54200	4476
5.54267	4475
5.54333	4474
5.54400	4473
5.54467	4472
5.54533	4471
5.54600	4470
5.54667	4468
5.54733	4468
5.54800	4467
5.54867	4466
5.54933	4465
5.55000	4464
5.55067	4463
5.55133	4462
5.55200	4461
5.55267	4460
5.55333	4459
5.55400	4458
5.55467	4457
5.55533	4456
5.55600	4455
5.55667	4454
5.55733	4453
5.55800	4452
5.55867	4452
5.55933	4451
5.56000	4450
5.56067	4449
5.56133	4448
5.56200	4448
5.56267	4447
5.56333	4446
5.56400	4445
5.56467	4445
5.56533	4444
5.56600	4443
5.56667	4442
5.56733	4442
5.56800	4441
5.56867	4440
5.56933	4440
5.57000	4439
5.57067	4439
5.57133	4438
5.57200	4437
5.57267	4437
5.57333	4436
5.57400	4436
5.57467	4435
5.57533	4435
5.57600	4434
5.57667	4433
5.57733	4433
5.57800	4432
5.57867	4432
5.57933	4431
5.58000	4430
5.58067	4430
5.58133	4429
5.58200	4429
5.58267	4428
5.58333	4427
5.58400	4427
5.58467	4426
5.58533	4425
5.58600	4425
5.58667	4424
5.58733	4424
5.58800	4423
5.58867	4423
5.58933	4422
5.59000	4421
5.59067	4421
5.59133	4420
5.59200	4420
5.59267	4420
5.59333	4419
5.59400	4418
5.59467	4418
5.59533	4417
5.59600	4417
5.59667	4416
5.59733	4415
5.59800	4415
5.59867	4414
5.59933	4414
5.60000	4413
5.60067	4412
5.60133	4412
5.60200	4411
5.60267	4411
5.60333	4410
5.60400	4409
5.60467	4409
5.60533	4408
5.60600	4408
5.60667	4407
5.60733	4406
5.60800	4406
5.60867	4405
5.60933	4404
5.61000	4404
5.61067	4403
5.61133	4403
5.61200	4402
5.61267	4401
5.61333	4401
5.61400	4400
5.61467	4399
5.61533	4399
5.61600	4398
5.61667	4398
5.61733	4397
5.61800	4396
5.61867	4395
5.61933	4395
5.62000	4394
5.62067	4393
5.62133	4392
5.62200	4392
5.62267	4391
5.62333	4390
5.62400	4389
5.62467	4389
5.62533	4388
5.62600	4387
5.62667	4386
5.62733	4386
5.62800	4385
5.62867	4384
5.62933	4383
5.63000	4383
5.63067	4382
5.63133	4381
5.63200	4381
5.63267	4380
5.63333	4379
5.63400	4378
5.63467	4378
5.63533	4377
5.63600	4376
5.63667	4375
5.63733	4374
5.63800	4374
5.63867	4373
5.63933	4372
5.64000	4371
5.64067	4370
5.64133	4369
5.64200	4368
5.64267	4367
5.64333	4366
5.64400	4365
5.64467	4364
5.64533	4363
5.64600	4362
5.64667	4361
5.64733	4360
5.64800	4359
5.64867	4358
5.64933	4357
5.65000	4356
5.65067	4355
5.65133	4354
5.65200	4352
5.65267	4351
5.65333	4350
5.65400	4349
5.65467	4348
5.65533	4347
5.65600	4346
5.65667	4345
5.65733	4344
5.65800	4343
5.65867	4341
5.65933	4340
5.66000	4339
5.66067	4338
5.66133	4337
5.66200	4336
5.66267	4335
5.66333	4334
5.66400	4333
5.66467	4332
5.66533	4331
5.66600	4330
5.66667	4329
5.66733	4328
5.66800	4327
5.66867	4326
5.66933	4325
5.67000	4324
5.67067	4323
5.67133	4321
5.67200	4320
5.67267	4319
5.67333	4318
5.67400	4317
5.67467	4316
5.67533	4315
5.67600	4314
5.67667	4313
5.67733	4312
5.67800	4311
5.67867	4310
5.67933	4309
5.68000	4308
5.68067	4308
5.68133	4307
5.68200	4306
5.68267	4305
5.68333	4304
5.68400	4303
5.68467	4302
5.68533	4301
5.68600	4300
5.68667	4299
5.68733	4298
5.68800	4297
5.68867	4296
5.68933	4295
5.69000	4295
5.69067	4294
5.69133	4293
5.69200	4292
5.69267	4291
5.69333	4290
5.69400	4289
5.69467	4288
5.69533	4287
5.69600	4286
5.69667	4285
5.69733	4284
5.69800	4284
5.69867	4283
5.69933	4282
5.70000	4281
5.70067	4280
5.70133	4279
5.70200	4279
5.70267	4278
5.70333	4277
5.70400	4276
5.70467	4275
5.70533	4274
5.70600	4273
5.70667	4272
5.70733	4271
5.70800	4271
5.70867	4270
5.70933	4269
5.71000	4268
5.71067	4267
5.71133	4266
5.71200	4265
5.71267	4264
5.71333	4263
5.71400	4262
5.71467	4262
5.71533	4261
5.71600	4260
5.71667	4259
5.71733	4259
5.71800	4258
5.71867	4257
5.71933	4256
5.72000	4256
5.72067	4255
5.72133	4254
5.72200	4253
5.72267	4253
5.72333	4252
5.72400	4251
5.72467	4250
5.72533	4250
5.72600	4249
5.72667	4248
5.72733	4247
5.72800	4246
5.72867	4246
5.72933	4245
5.73000	4244
5.73067	4243
5.73133	4242
5.73200	4241
5.73267	4241
5.73333	4240
5.73400	4239
5.73467	4238
5.73533	4237
5.73600	4237
5.73667	4236
5.73733	4235
5.73800	4235
5.73867	4234
5.73933	4233
5.74000	4233
5.74067	4232
5.74133	4232
5.74200	4231
5.74267	4231
5.74333	4231
5.74400	4230
5.74467	4230
5.74533	4229
5.74600	4229
5.74667	4229
5.74733	4228
5.74800	4228
5.74867	4228
5.74933	4227
5.75000	4227
5.75067	4227
5.75133	4226
5.75200	4226
5.75267	4226
5.75333	4226
5.75400	4226
5.75467	4225
5.75533	4225
5.75600	4225
5.75667	4225
5.75733	4224
5.75800	4224
5.75867	4224
5.75933	4224
5.76000	4224
5.76067	4223
5.76133	4223
5.76200	4223
5.76267	4223
5.76333	4223
5.76400	4223
5.76467	4222
5.76533	4222
5.76600	4222
5.76667	4222
5.76733	4222
5.76800	4222
5.76867	4222
5.76933	4222
5.77000	4222
5.77067	4222
5.77133	4222
5.77200	4222
5.77267	4222
5.77333	4222
5.77400	4222
5.77467	4222
5.77533	4222
5.77600	4222
5.77667	4222
5.77733	4222
5.77800	4222
5.77867	4222
5.77933	4221
5.78000	4221
5.78067	4221
5.78133	4221
5.78200	4221
5.78267	4221
5.78333	4221
5.78400	4221
5.78467	4221
5.78533	4221
5.78600	4221
5.78667	4221
5.78733	4222
5.78800	4222
5.78867	4222
5.78933	4222
5.79000	4222
5.79067	4222
5.79133	4222
5.79200	4222
5.79267	4222
5.79333	4223
5.79400	4223
5.79467	4223
5.79533	4223
5.79600	4223
5.79667	4223
5.79733	4224
5.79800	4224
5.79867	4224
5.79933	4224
5.80000	4224
5.80067	4224
5.80133	4225
5.80200	4225
5.80267	4225
5.80333	4226
5.80400	4226
5.80467	4226
5.80533	4226
5.80600	4227
5.80667	4227
5.80733	4227
5.80800	4228
5.80867	4228
5.80933	4228
5.81000	4229
5.81067	4229
5.81133	4230
5.81200	4230
5.81267	4230
5.81333	4230
5.81400	4231
5.81467	4231
5.81533	4231
5.81600	4231
5.81667	4232
5.81733	4232
5.81800	4232
5.81867	4232
5.81933	4232
5.82000	4233
5.82067	4233
5.82133	4233
5.82200	4233
5.82267	4233
5.82333	4233
5.82400	4233
5.82467	4233
5.82533	4233
5.82600	4234
5.82667	4234
5.82733	4234
5.82800	4234
5.82867	4234
5.82933	4234
5.83000	4234
5.83067	4234
5.83133	4234
5.83200	4234
5.83267	4234
5.83333	4233
5.83400	4233
5.83467	4233
5.83533	4233
5.83600	4233
5.83667	4233
5.83733	4233
5.83800	4232
5.83867	4232
5.83933	4232
5.84000	4231
5.84067	4231
5.84133	4231
5.84200	4230
5.84267	4230
5.84333	4230
5.84400	4229
5.84467	4229
5.84533	4229
5.84600	4228
5.84667	4228
5.84733	4228
5.84800	4227
5.84867	4227
5.84933	4227
5.85000	4227
5.85067	4226
5.85133	4226
5.85200	4226
5.85267	4226
5.85333	4226
5.85400	4225
5.85467	4225
5.85533	4225
5.85600	4225
5.85667	4225
5.85733	4225
5.85800	4225
5.85867	4224
5.85933	4224
5.86000	4224
5.86067	4224
5.86133	4224
5.86200	4224
5.86267	4224
5.86333	4224
5.86400	4224
5.86467	4223
5.86533	4223
5.86600	4223
5.86667	4223
5.86733	4223
5.86800	4222
5.86867	4222
5.86933	4222
5.87000	4222
5.87067	4222
5.87133	4221
5.87200	4221
5.87267	4221
5.87333	4221
5.87400	4221
5.87467	4220
5.87533	4220
5.87600	4220
5.87667	4220
5.87733	4220
5.87800	4219
5.87867	4219
5.87933	4219
5.88000	4219
5.88067	4219
5.88133	4218
5.88200	4218
5.88267	4218
5.88333	4218
5.88400	4218
5.88467	4218
5.88533	4217
5.88600	4217
5.88667	4217
5.88733	4217
5.88800	4216
5.88867	4216
5.88933	4216
5.89000	4216
5.89067	4215
5.89133	4215
5.89200	4215
5.89267	4215
5.89333	4214
5.89400	4214
5.89467	4214
5.89533	4214
5.89600	4213
5.89667	4213
5.89733	4213
5.89800	4213
5.89867	4213
5.89933	4212
5.90000	4212
5.90067	4212
5.90133	4211
5.90200	4211
5.90267	4211
5.90333	4210
5.90400	4210
5.90467	4210
5.90533	4209
5.90600	4209
5.90667	4209
5.90733	4209
5.90800	4208
5.90867	4208
5.90933	4208
5.91000	4208
5.91067	4208
5.91133	4207
5.91200	4207
5.91267	4207
5.91333	4207
5.91400	4207
5.91467	4207
5.91533	4207
5.91600	4207
5.91667	4206
5.91733	4206
5.91800	4206
5.91867	4206
5.91933	4206
5.92000	4206
5.92067	4206
5.92133	4206
5.92200	4206
5.92267	4206
5.92333	4206
5.92400	4206
5.92467	4206
5.92533	4206
5.92600	4206
5.92667	4206
5.92733	4206
5.92800	4206
5.92867	4207
5.92933	4207
5.93000	4207
5.93067	4207
5.93133	4207
5.93200	4207
5.93267	4207
5.93333	4207
5.93400	4207
5.93467	4207
5.93533	4207
5.93600	4207
5.93667	4207
5.93733	4207
5.93800	4207
5.93867	4207
5.93933	4207
5.94000	4208
5.94067	4208
5.94133	4208
5.94200	4208
5.94267	4208
5.94333	4208
5.94400	4209
5.94467	4209
5.94533	4209
5.94600	4209
5.94667	4210
5.94733	4210
5.94800	4210
5.94867	4210
5.94933	4211
5.95000	4211
5.95067	4211
5.95133	4211
5.95200	4212
5.95267	4212
5.95333	4212
5.95400	4213
5.95467	4213
5.95533	4213
5.95600	4214
5.95667	4214
5.95733	4215
5.95800	4215
5.95867	4215
5.95933	4216
5.96000	4216
5.96067	4217
5.96133	4217
5.96200	4218
5.96267	4218
5.96333	4219
5.96400	4219
5.96467	4220
5.96533	4220
5.96600	4221
5.96667	4221
5.96733	4222
5.96800	4222
5.96867	4223
5.96933	4223
5.97000	4224
5.97067	4224
5.97133	4225
5.97200	4225
5.97267	4226
5.97333	4226
5.97400	4227
5.97467	4227
5.97533	4228
5.97600	4228
5.97667	4229
5.97733	4229
5.97800	4230
5.97867	4230
5.97933	4231
5.98000	4231
5.98067	4232
5.98133	4232
5.98200	4232
5.98267	4233
5.98333	4233
5.98400	4233
5.98467	4234
5.98533	4234
5.98600	4234
5.98667	4235
5.98733	4235
5.98800	4235
5.98867	4236
5.98933	4236
5.99000	4236
5.99067	4237
5.99133	4237
5.99200	4237
5.99267	4237
5.99333	4238
5.99400	4238
5.99467	4238
5.99533	4239
5.99600	4239
5.99667	4239
5.99733	4239
5.99800	4240
5.99867	4240
5.99933	4240
6.00000	4240
6.00067	4240
6.00133	4241
6.00200	4241
6.00267	4241
6.00333	4241
6.00400	4241
6.00467	4241
6.00533	4242
6.00600	4242
6.00667	4242
6.00733	4242
6.00800	4242
6.00867	4242
6.00933	4242
6.01000	4242
6.01067	4242
6.01133	4242
6.01200	4242
6.01267	4242
6.01333	4242
6.01400	4242
6.01467	4242
6.01533	4242
6.01600	4242
6.01667	4242
6.01733	4242
6.01800	4242
6.01867	4242
6.01933	4242
6.02000	4242
6.02067	4242
6.02133	4242
6.02200	4242
6.02267	4242
6.02333	4242
6.02400	4241
6.02467	4241
6.02533	4241
6.02600	4241
6.02667	4241
6.02733	4241
6.02800	4240
6.02867	4240
6.02933	4240
6.03000	4240
6.03067	4240
6.03133	4240
6.03200	4239
6.03267	4239
6.03333	4239
6.03400	4239
6.03467	4238
6.03533	4238
6.03600	4238
6.03667	4237
6.03733	4237
6.03800	4237
6.03867	4236
6.03933	4236
6.04000	4236
6.04067	4235
6.04133	4235
6.04200	4234
6.04267	4234
6.04333	4234
6.04400	4233
6.04467	4233
6.04533	4232
6.04600	4232
6.04667	4232
6.04733	4231
6.04800	4231
6.04867	4230
6.04933	4230
6.05000	4229
6.05067	4229
6.05133	4229
6.05200	4228
6.05267	4228
6.05333	4227
6.05400	4227
6.05467	4226
6.05533	4226
6.05600	4225
6.05667	4225
6.05733	4224
6.05800	4224
6.05867	4223
6.05933	4223
6.06000	4222
6.06067	4222
6.06133	4221
6.06200	4221
6.06267	4220
6.06333	4220
6.06400	4219
6.06467	4219
6.06533	4218
6.06600	4217
6.06667	4217
6.06733	4216
6.06800	4216
6.06867	4215
6.06933	4214
6.07000	4214
6.07067	4213
6.07133	4212
6.07200	4212
6.07267	4211
6.07333	4210
6.07400	4210
6.07467	4209
6.07533	4209
6.07600	4208
6.07667	4207
6.07733	4207
6.07800	4206
6.07867	4206
6.07933	4205
6.08000	4204
6.08067	4204
6.08133	4203
6.08200	4203
6.08267	4202
6.08333	4202
6.08400	4201
6.08467	4201
6.08533	4200
6.08600	4200
6.08667	4199
6.08733	4199
6.08800	4199
6.08867	4198
6.08933	4198
6.09000	4197
6.09067	4197
6.09133	4197
6.09200	4196
6.09267	4196
6.09333	4195
6.09400	4195
6.09467	4194
6.09533	4194
6.09600	4193
6.09667	4193
6.09733	4192
6.09800	4192
6.09867	4191
6.09933	4191
6.10000	4190
6.10067	4190
6.10133	4189
6.10200	4189
6.10267	4188
6.10333	4187
6.10400	4187
6.10467	4186
6.10533	4186
6.10600	4185
6.10667	4184
6.10733	4184
6.10800	4183
6.10867	4182
6.10933	4181
6.11000	4181
6.11067	4180
6.11133	4179
6.11200	4178
6.11267	4178
6.11333	4177
6.11400	4176
6.11467	4175
6.11533	4174
6.11600	4173
6.11667	4172
6.11733	4171
6.11800	4171
6.11867	4170
6.11933	4169
6.12000	4168
6.12067	4167
6.12133	4166
6.12200	4165
6.12267	4164
6.12333	4163
6.12400	4162
6.12467	4161
6.12533	4160
6.12600	4159
6.12667	4159
6.12733	4158
6.12800	4157
6.12867	4156
6.12933	4155
6.13000	4154
6.13067	4154
6.13133	4153
6.13200	4152
6.13267	4151
6.13333	4150
6.13400	4150
6.13467	4149
6.13533	4148
6.13600	4148
6.13667	4147
6.13733	4146
6.13800	4145
6.13867	4145
6.13933	4144
6.14000	4143
6.14067	4142
6.14133	4142
6.14200	4141
6.14267	4140
6.14333	4139
6.14400	4139
6.14467	4138
6.14533	4137
6.14600	4137
6.14667	4136
6.14733	4135
6.14800	4134
6.14867	4134
6.14933	4133
6.15000	4132
6.15067	4131
6.15133	4131
6.15200	4130
6.15267	4129
6.15333	4128
6.15400	4127
6.15467	4127
6.15533	4126
6.15600	4125
6.15667	4124
6.15733	4123
6.15800	4122
6.15867	4122
6.15933	4121
6.16000	4120
6.16067	4119
6.16133	4118
6.16200	4117
6.16267	4116
6.16333	4116
6.16400	4115
6.16467	4114
6.16533	4113
6.16600	4112
6.16667	4112
6.16733	4111
6.16800	4110
6.16867	4109
6.16933	4109
6.17000	4108
6.17067	4107
6.17133	4106
6.17200	4106
6.17267	4105
6.17333	4104
6.17400	4103
6.17467	4103
6.17533	4102
6.17600	4101
6.17667	4100
6.17733	4100
6.17800	4099
6.17867	4098
6.17933	4098
6.18000	4097
6.18067	4097
6.18133	4096
6.18200	4096
6.18267	4095
6.18333	4095
6.18400	4094
6.18467	4094
6.18533	4093
6.18600	4093
6.18667	4093
6.18733	4092
6.18800	4092
6.18867	4091
6.18933	4091
6.19000	4091
6.19067	4091
6.19133	4090
6.19200	4090
6.19267	4090
6.19333	4090
6.19400	4090
6.19467	4089
6.19533	4089
6.19600	4089
6.19667	4089
6.19733	4089
6.19800	4089
6.19867	4089
6.19933	4088
6.20000	4088
6.20067	4088
6.20133	4088
6.20200	4088
6.20267	4088
6.20333	4087
6.20400	4087
6.20467	4087
6.20533	4087
6.20600	4087
6.20667	4087
6.20733	4087
6.20800	4087
6.20867	4086
6.20933	4086
6.21000	4086
6.21067	4086
6.21133	4086
6.21200	4086
6.21267	4086
6.21333	4086
6.21400	4086
6.21467	4086
6.21533	4086
6.21600	4086
6.21667	4086
6.21733	4086
6.21800	4086
6.21867	4086
6.21933	4086
6.22000	4086
6.22067	4086
6.22133	4086
6.22200	4086
6.22267	4085
6.22333	4085
6.22400	4085
6.22467	4085
6.22533	4085
6.22600	4085
6.22667	4085
6.22733	4085
6.22800	4085
6.22867	4085
6.22933	4086
6.23000	4086
6.23067	4086
6.23133	4086
6.23200	4086
6.23267	4086
6.23333	4086
6.23400	4086
6.23467	4086
6.23533	4087
6.23600	4087
6.23667	4087
6.23733	4087
6.23800	4087
6.23867	4087
6.23933	4087
6.24000	4088
6.24067	4088
6.24133	4088
6.24200	4088
6.24267	4088
6.24333	4088
6.24400	4088
6.24467	4088
6.24533	4088
6.24600	4089
6.24667	4089
6.24733	4089
6.24800	4089
6.24867	4089
6.24933	4089
6.25000	4089
6.25067	4089
6.25133	4089
6.25200	4089
6.25267	4089
6.25333	4089
6.25400	4090
6.25467	4090
6.25533	4090
6.25600	4090
6.25667	4090
6.25733	4090
6.25800	4090
6.25867	4090
6.25933	4090
6.26000	4090
6.26067	4090
6.26133	4090
6.26200	4090
6.26267	4090
6.26333	4090
6.26400	4090
6.26467	4090
6.26533	4090
6.26600	4090
6.26667	4090
6.26733	4090
6.26800	4090
6.26867	4090
6.26933	4090
6.27000	4090
6.27067	4090
6.27133	4090
6.27200	4090
6.27267	4090
6.27333	4090
6.27400	4090
6.27467	4090
6.27533	4090
6.27600	4090
6.27667	4090
6.27733	4090
6.27800	4090
6.27867	4090
6.27933	4089
6.28000	4089
6.28067	4089
6.28133	4089
6.28200	4089
6.28267	4089
6.28333	4089
6.28400	4089
6.28467	4089
6.28533	4088
6.28600	4088
6.28667	4088
6.28733	4088
6.28800	4088
6.28867	4088
6.28933	4088
6.29000	4088
6.29067	4088
6.29133	4088
6.29200	4088
6.29267	4087
6.29333	4087
6.29400	4087
6.29467	4087
6.29533	4087
6.29600	4087
6.29667	4086
6.29733	4086
6.29800	4086
6.29867	4086
6.29933	4085
6.30000	4085
6.30067	4085
6.30133	4085
6.30200	4084
6.30267	4084
6.30333	4084
6.30400	4084
6.30467	4084
6.30533	4083
6.30600	4083
6.30667	4083
6.30733	4083
6.30800	4082
6.30867	4082
6.30933	4082
6.31000	4082
6.31067	4081
6.31133	4081
6.31200	4081
6.31267	4080
6.31333	4080
6.31400	4080
6.31467	4079
6.31533	4079
6.31600	4079
6.31667	4078
6.31733	4078
6.31800	4078
6.31867	4078
6.31933	4077
6.32000	4077
6.32067	4077
6.32133	4076
6.32200	4076
6.32267	4076
6.32333	4075
6.32400	4075
6.32467	4075
6.32533	4074
6.32600	4074
6.32667	4073
6.32733	4073
6.32800	4073
6.32867	4072
6.32933	4072
6.33000	4071
6.33067	4070
6.33133	4070
6.33200	4069
6.33267	4069
6.33333	4068
6.33400	4068
6.33467	4067
6.33533	4066
6.33600	4066
6.33667	4065
6.33733	4065
6.33800	4064
6.33867	4064
6.33933	4063
6.34000	4063
6.34067	4062
6.34133	4061
6.34200	4061
6.34267	4060
6.34333	4060
6.34400	4059
6.34467	4059
6.34533	4058
6.34600	4058
6.34667	4057
6.34733	4057
6.34800	4056
6.34867	4056
6.34933	4055
6.35000	4055
6.35067	4055
6.35133	4054
6.35200	4054
6.35267	4053
6.35333	4053
6.35400	4052
6.35467	4052
6.35533	4052
6.35600	4051
6.35667	4051
6.35733	4050
6.35800	4050
6.35867	4050
6.35933	4049
6.36000	4049
6.36067	4049
6.36133	4048
6.36200	4048
6.36267	4048
6.36333	4047
6.36400	4047
6.36467	4047
6.36533	4046
6.36600	4046
6.36667	4045
6.36733	4045
6.36800	4045
6.36867	4044
6.36933	4044
6.37000	4044
6.37067	4043
6.37133	4043
6.37200	4042
6.37267	4042
6.37333	4042
6.37400	4041
6.37467	4041
6.37533	4040
6.37600	4040
6.37667	4040
6.37733	4039
6.37800	4039
6.37867	4039
6.37933	4038
6.38000	4038
6.38067	4038
6.38133	4037
6.38200	4037
6.38267	4037
6.38333	4037
6.38400	4036
6.38467	4036
6.38533	4036
6.38600	4035
6.38667	4035
6.38733	4035
6.38800	4034
6.38867	4034
6.38933	4033
6.39000	4033
6.39067	4033
6.39133	4032
6.39200	4032
6.39267	4031
6.39333	4031
6.39400	4031
6.39467	4030
6.39533	4030
6.39600	4029
6.39667	4029
6.39733	4029
6.39800	4028
6.39867	4028
6.39933	4027

