[Header]
Application Name	LabSolutions
Version	5.73
Data File Name	C:\LabSolutions\Data\Project1\stephen\2016-01-06\91.gcd
Output Date	1/11/2016
Output Time	1:19:58 PM

[Configuration]
Instrument Name	WEISSTA-PC-Instrument1
Instrument #	1
Line #	1
# of Detectors	1
Detector ID	DET#2
Detector Name	DFID1
# of Channels	1

[Chromatogram (Ch1)]
Interval(msec)	40
# of Points	9600
Start Time(min)	0.000
End Time(min)	6.400
R.Time (min)	Intensity
0.00033	18
0.00100	18
0.00167	19
0.00233	19
0.00300	19
0.00367	19
0.00433	19
0.00500	20
0.00567	20
0.00633	20
0.00700	20
0.00767	20
0.00833	20
0.00900	20
0.00967	20
0.01033	19
0.01100	19
0.01167	18
0.01233	17
0.01300	15
0.01367	14
0.01433	12
0.01500	10
0.01567	7
0.01633	5
0.01700	2
0.01767	-1
0.01833	-4
0.01900	-8
0.01967	-12
0.02033	-15
0.02100	-19
0.02167	-23
0.02233	-27
0.02300	-31
0.02367	-35
0.02433	-39
0.02500	-43
0.02567	-47
0.02633	-51
0.02700	-54
0.02767	-58
0.02833	-61
0.02900	-65
0.02967	-68
0.03033	-71
0.03100	-74
0.03167	-77
0.03233	-79
0.03300	-82
0.03367	-84
0.03433	-86
0.03500	-88
0.03567	-90
0.03633	-91
0.03700	-93
0.03767	-94
0.03833	-95
0.03900	-96
0.03967	-97
0.04033	-98
0.04100	-99
0.04167	-99
0.04233	-100
0.04300	-100
0.04367	-101
0.04433	-101
0.04500	-101
0.04567	-101
0.04633	-101
0.04700	-101
0.04767	-101
0.04833	-101
0.04900	-101
0.04967	-101
0.05033	-100
0.05100	-100
0.05167	-100
0.05233	-99
0.05300	-99
0.05367	-98
0.05433	-98
0.05500	-97
0.05567	-96
0.05633	-96
0.05700	-95
0.05767	-94
0.05833	-94
0.05900	-93
0.05967	-92
0.06033	-92
0.06100	-91
0.06167	-90
0.06233	-89
0.06300	-88
0.06367	-88
0.06433	-87
0.06500	-86
0.06567	-85
0.06633	-84
0.06700	-84
0.06767	-83
0.06833	-82
0.06900	-82
0.06967	-81
0.07033	-80
0.07100	-80
0.07167	-79
0.07233	-78
0.07300	-78
0.07367	-77
0.07433	-76
0.07500	-76
0.07567	-75
0.07633	-75
0.07700	-74
0.07767	-73
0.07833	-73
0.07900	-72
0.07967	-72
0.08033	-71
0.08100	-71
0.08167	-70
0.08233	-69
0.08300	-69
0.08367	-68
0.08433	-68
0.08500	-67
0.08567	-66
0.08633	-66
0.08700	-65
0.08767	-65
0.08833	-65
0.08900	-64
0.08967	-64
0.09033	-63
0.09100	-62
0.09167	-62
0.09233	-60
0.09300	-58
0.09367	-55
0.09433	-50
0.09500	-45
0.09567	-38
0.09633	-32
0.09700	-23
0.09767	-15
0.09833	-6
0.09900	4
0.09967	13
0.10033	26
0.10100	40
0.10167	57
0.10233	75
0.10300	97
0.10367	129
0.10433	177
0.10500	230
0.10567	294
0.10633	365
0.10700	440
0.10767	520
0.10833	614
0.10900	728
0.10967	842
0.11033	955
0.11100	1072
0.11167	1190
0.11233	1326
0.11300	1490
0.11367	1693
0.11433	1889
0.11500	2074
0.11567	2272
0.11633	2489
0.11700	2733
0.11767	2985
0.11833	3228
0.11900	3475
0.11967	3729
0.12033	3985
0.12100	4237
0.12167	4486
0.12233	4719
0.12300	4934
0.12367	5148
0.12433	5363
0.12500	5563
0.12567	5750
0.12633	5921
0.12700	6074
0.12767	6235
0.12833	6400
0.12900	6569
0.12967	6781
0.13033	6975
0.13100	7148
0.13167	7298
0.13233	7430
0.13300	7545
0.13367	7682
0.13433	7849
0.13500	8011
0.13567	8215
0.13633	8624
0.13700	9637
0.13767	12079
0.13833	17447
0.13900	28309
0.13967	48752
0.14033	85040
0.14100	146393
0.14167	245883
0.14233	401012
0.14300	632781
0.14367	964283
0.14433	1419374
0.14500	2021104
0.14567	2790163
0.14633	3745479
0.14700	4902416
0.14767	6272922
0.14833	7864758
0.14900	9683555
0.14967	11732550
0.15033	14012910
0.15100	16514114
0.15167	19214470
0.15233	22116849
0.15300	25250781
0.15367	28633423
0.15433	32262272
0.15500	36120676
0.15567	40184993
0.15633	44428270
0.15700	48822923
0.15767	53342588
0.15833	57962586
0.15900	62659248
0.15967	67410035
0.16033	72193648
0.16100	76990123
0.16167	81780581
0.16233	86547458
0.16300	91274485
0.16367	95946956
0.16433	100550971
0.16500	105073971
0.16567	109503982
0.16633	113830374
0.16700	118042850
0.16767	122132330
0.16833	126090407
0.16900	129909995
0.16967	133584465
0.17033	137108396
0.17100	140476936
0.17167	143686131
0.17233	146732785
0.17300	149614379
0.17367	152329016
0.17433	154875291
0.17500	157252538
0.17567	159461142
0.17633	161502795
0.17700	163379287
0.17767	165091775
0.17833	166640612
0.17900	168026345
0.17967	169249723
0.18033	170312129
0.18100	171215171
0.18167	171961099
0.18233	172552487
0.18300	172992724
0.18367	173285474
0.18433	173434871
0.18500	173445060
0.18567	173320438
0.18633	173065441
0.18700	172684721
0.18767	172182940
0.18833	171564820
0.18900	170835159
0.18967	169998867
0.19033	169060743
0.19100	168025628
0.19167	166898407
0.19233	165683846
0.19300	164386798
0.19367	163011956
0.19433	161564010
0.19500	160047539
0.19567	158467090
0.19633	156827041
0.19700	155131758
0.19767	153385413
0.19833	151592062
0.19900	149755585
0.19967	147879814
0.20033	145968478
0.20100	144025282
0.20167	142053878
0.20233	140058031
0.20300	138041719
0.20367	136008928
0.20433	133963119
0.20500	131906930
0.20567	129842397
0.20633	127771233
0.20700	125695065
0.20767	123615531
0.20833	121534362
0.20900	119453304
0.20967	117374137
0.21033	115298606
0.21100	113228455
0.21167	111165369
0.21233	109110989
0.21300	107066868
0.21367	105034493
0.21433	103015264
0.21500	101010510
0.21567	99021465
0.21633	97049289
0.21700	95095054
0.21767	93159756
0.21833	91244311
0.21900	89349564
0.21967	87476289
0.22033	85625188
0.22100	83796904
0.22167	81992021
0.22233	80211074
0.22300	78454534
0.22367	76722826
0.22433	75016301
0.22500	73335275
0.22567	71680018
0.22633	70050758
0.22700	68447684
0.22767	66870949
0.22833	65320665
0.22900	63796914
0.22967	62299740
0.23033	60829163
0.23100	59385170
0.23167	57967723
0.23233	56576758
0.23300	55212183
0.23367	53873881
0.23433	52561711
0.23500	51275513
0.23567	50015107
0.23633	48780292
0.23700	47570851
0.23767	46386548
0.23833	45227134
0.23900	44092343
0.23967	42981899
0.24033	41895512
0.24100	40832881
0.24167	39793696
0.24233	38777639
0.24300	37784380
0.24367	36813587
0.24433	35864918
0.24500	34938027
0.24567	34032565
0.24633	33148175
0.24700	32284499
0.24767	31441179
0.24833	30617855
0.24900	29814167
0.24967	29029755
0.25033	28264256
0.25100	27517313
0.25167	26788569
0.25233	26077671
0.25300	25384264
0.25367	24708001
0.25433	24048535
0.25500	23405523
0.25567	22778625
0.25633	22167506
0.25700	21571833
0.25767	20991278
0.25833	20425519
0.25900	19874238
0.25967	19337122
0.26033	18813860
0.26100	18304148
0.26167	17807683
0.26233	17324170
0.26300	16853316
0.26367	16394833
0.26433	15948437
0.26500	15513849
0.26567	15090793
0.26633	14678994
0.26700	14278183
0.26767	13888097
0.26833	13508480
0.26900	13139087
0.26967	12779682
0.27033	12430031
0.27100	12089894
0.27167	11759030
0.27233	11437203
0.27300	11124199
0.27367	10819833
0.27433	10523945
0.27500	10236376
0.27567	9956960
0.27633	9685520
0.27700	9421865
0.27767	9165794
0.27833	8917099
0.27900	8675571
0.27967	8440999
0.28033	8213174
0.28100	7991892
0.28167	7776950
0.28233	7568151
0.28300	7365302
0.28367	7168219
0.28433	6976722
0.28500	6790639
0.28567	6609805
0.28633	6434061
0.28700	6263252
0.28767	6097229
0.28833	5935851
0.28900	5778979
0.28967	5626482
0.29033	5478232
0.29100	5334106
0.29167	5193986
0.29233	5057757
0.29300	4925309
0.29367	4796534
0.29433	4671330
0.29500	4549597
0.29567	4431236
0.29633	4316155
0.29700	4204263
0.29767	4095471
0.29833	3989696
0.29900	3886853
0.29967	3786863
0.30033	3689648
0.30100	3595133
0.30167	3503244
0.30233	3413912
0.30300	3327069
0.30367	3242646
0.30433	3160580
0.30500	3080807
0.30567	3003265
0.30633	2927896
0.30700	2854641
0.30767	2783447
0.30833	2714256
0.30900	2647017
0.30967	2581677
0.31033	2518187
0.31100	2456498
0.31167	2396563
0.31233	2338337
0.31300	2281776
0.31367	2226835
0.31433	2173472
0.31500	2121648
0.31567	2071321
0.31633	2022456
0.31700	1975014
0.31767	1928960
0.31833	1884260
0.31900	1840880
0.31967	1798789
0.32033	1757957
0.32100	1718355
0.32167	1679959
0.32233	1642742
0.32300	1606682
0.32367	1571757
0.32433	1537948
0.32500	1505234
0.32567	1473600
0.32633	1443029
0.32700	1413505
0.32767	1385016
0.32833	1357547
0.32900	1331087
0.32967	1305621
0.33033	1281137
0.33100	1257623
0.33167	1235067
0.33233	1213459
0.33300	1192789
0.33367	1173048
0.33433	1154227
0.33500	1136320
0.33567	1119318
0.33633	1103214
0.33700	1087999
0.33767	1073664
0.33833	1060199
0.33900	1047592
0.33967	1035833
0.34033	1024908
0.34100	1014806
0.34167	1005514
0.34233	997020
0.34300	989312
0.34367	982379
0.34433	976209
0.34500	970790
0.34567	966107
0.34633	962147
0.34700	958893
0.34767	956330
0.34833	954436
0.34900	953189
0.34967	952563
0.35033	952531
0.35100	953064
0.35167	954130
0.35233	955698
0.35300	957736
0.35367	960211
0.35433	963090
0.35500	966339
0.35567	969922
0.35633	973806
0.35700	977954
0.35767	982334
0.35833	986914
0.35900	991663
0.35967	996550
0.36033	1001546
0.36100	1006622
0.36167	1011756
0.36233	1016922
0.36300	1022099
0.36367	1027270
0.36433	1032416
0.36500	1037525
0.36567	1042582
0.36633	1047579
0.36700	1052506
0.36767	1057356
0.36833	1062123
0.36900	1066804
0.36967	1071396
0.37033	1075897
0.37100	1080308
0.37167	1084626
0.37233	1088853
0.37300	1092987
0.37367	1097027
0.37433	1100972
0.37500	1104820
0.37567	1108571
0.37633	1112226
0.37700	1115785
0.37767	1119253
0.37833	1122634
0.37900	1125932
0.37967	1129152
0.38033	1132301
0.38100	1135385
0.38167	1138409
0.38233	1141380
0.38300	1144301
0.38367	1147177
0.38433	1150011
0.38500	1152805
0.38567	1155562
0.38633	1158284
0.38700	1160969
0.38767	1163621
0.38833	1166238
0.38900	1168822
0.38967	1171373
0.39033	1173894
0.39100	1176389
0.39167	1178863
0.39233	1181326
0.39300	1183787
0.39367	1186257
0.39433	1188748
0.39500	1191272
0.39567	1193840
0.39633	1196462
0.39700	1199141
0.39767	1201880
0.39833	1204675
0.39900	1207523
0.39967	1210417
0.40033	1213350
0.40100	1216313
0.40167	1219298
0.40233	1222296
0.40300	1225297
0.40367	1228290
0.40433	1231266
0.40500	1234216
0.40567	1237132
0.40633	1240008
0.40700	1242835
0.40767	1245607
0.40833	1248317
0.40900	1250959
0.40967	1253526
0.41033	1256012
0.41100	1258404
0.41167	1260687
0.41233	1262843
0.41300	1264852
0.41367	1266691
0.41433	1268335
0.41500	1269756
0.41567	1270928
0.41633	1271823
0.41700	1272415
0.41767	1272680
0.41833	1272594
0.41900	1272133
0.41967	1271268
0.42033	1269970
0.42100	1268207
0.42167	1265948
0.42233	1263162
0.42300	1259818
0.42367	1255887
0.42433	1251341
0.42500	1246156
0.42567	1240310
0.42633	1233781
0.42700	1226558
0.42767	1218631
0.42833	1210002
0.42900	1200680
0.42967	1190685
0.43033	1180041
0.43100	1168784
0.43167	1156949
0.43233	1144576
0.43300	1131707
0.43367	1118383
0.43433	1104647
0.43500	1090540
0.43567	1076100
0.43633	1061366
0.43700	1046375
0.43767	1031163
0.43833	1015762
0.43900	1000207
0.43967	984528
0.44033	968754
0.44100	952913
0.44167	937029
0.44233	921127
0.44300	905229
0.44367	889356
0.44433	873526
0.44500	857756
0.44567	842063
0.44633	826461
0.44700	810963
0.44767	795583
0.44833	780331
0.44900	765221
0.44967	750261
0.45033	735463
0.45100	720833
0.45167	706381
0.45233	692114
0.45300	678038
0.45367	664159
0.45433	650482
0.45500	637011
0.45567	623749
0.45633	610701
0.45700	597868
0.45767	585254
0.45833	572858
0.45900	560684
0.45967	548732
0.46033	537002
0.46100	525495
0.46167	514211
0.46233	503151
0.46300	492314
0.46367	481699
0.46433	471308
0.46500	461138
0.46567	451191
0.46633	441464
0.46700	431957
0.46767	422671
0.46833	413603
0.46900	404753
0.46967	396119
0.47033	387698
0.47100	379486
0.47167	371481
0.47233	363677
0.47300	356070
0.47367	348658
0.47433	341435
0.47500	334399
0.47567	327545
0.47633	320869
0.47700	314367
0.47767	308035
0.47833	301868
0.47900	295863
0.47967	290016
0.48033	284323
0.48100	278780
0.48167	273384
0.48233	268130
0.48300	263016
0.48367	258038
0.48433	253191
0.48500	248474
0.48567	243882
0.48633	239412
0.48700	235061
0.48767	230827
0.48833	226705
0.48900	222693
0.48967	218788
0.49033	214987
0.49100	211286
0.49167	207684
0.49233	204177
0.49300	200763
0.49367	197438
0.49433	194200
0.49500	191047
0.49567	187976
0.49633	184984
0.49700	182070
0.49767	179231
0.49833	176465
0.49900	173769
0.49967	171141
0.50033	168580
0.50100	166084
0.50167	163651
0.50233	161278
0.50300	158964
0.50367	156708
0.50433	154507
0.50500	152360
0.50567	150265
0.50633	148222
0.50700	146227
0.50767	144281
0.50833	142380
0.50900	140525
0.50967	138713
0.51033	136943
0.51100	135214
0.51167	133525
0.51233	131875
0.51300	130262
0.51367	128685
0.51433	127144
0.51500	125636
0.51567	124162
0.51633	122721
0.51700	121310
0.51767	119930
0.51833	118579
0.51900	117257
0.51967	115962
0.52033	114695
0.52100	113454
0.52167	112238
0.52233	111047
0.52300	109880
0.52367	108737
0.52433	107616
0.52500	106517
0.52567	105440
0.52633	104383
0.52700	103347
0.52767	102330
0.52833	101333
0.52900	100354
0.52967	99393
0.53033	98450
0.53100	97524
0.53167	96615
0.53233	95721
0.53300	94844
0.53367	93982
0.53433	93135
0.53500	92302
0.53567	91484
0.53633	90679
0.53700	89888
0.53767	89110
0.53833	88345
0.53900	87592
0.53967	86851
0.54033	86123
0.54100	85405
0.54167	84700
0.54233	84005
0.54300	83321
0.54367	82648
0.54433	81985
0.54500	81332
0.54567	80689
0.54633	80056
0.54700	79433
0.54767	78820
0.54833	78216
0.54900	77621
0.54967	77036
0.55033	76460
0.55100	75893
0.55167	75336
0.55233	74788
0.55300	74249
0.55367	73720
0.55433	73200
0.55500	72690
0.55567	72189
0.55633	71697
0.55700	71214
0.55767	70740
0.55833	70276
0.55900	69820
0.55967	69373
0.56033	68934
0.56100	68503
0.56167	68080
0.56233	67664
0.56300	67255
0.56367	66852
0.56433	66455
0.56500	66064
0.56567	65678
0.56633	65297
0.56700	64920
0.56767	64548
0.56833	64179
0.56900	63813
0.56967	63451
0.57033	63092
0.57100	62735
0.57167	62381
0.57233	62029
0.57300	61680
0.57367	61333
0.57433	60987
0.57500	60644
0.57567	60303
0.57633	59963
0.57700	59625
0.57767	59289
0.57833	58955
0.57900	58622
0.57967	58292
0.58033	57962
0.58100	57635
0.58167	57309
0.58233	56985
0.58300	56662
0.58367	56341
0.58433	56021
0.58500	55703
0.58567	55387
0.58633	55073
0.58700	54760
0.58767	54448
0.58833	54139
0.58900	53831
0.58967	53525
0.59033	53221
0.59100	52919
0.59167	52619
0.59233	52321
0.59300	52024
0.59367	51730
0.59433	51438
0.59500	51147
0.59567	50859
0.59633	50573
0.59700	50289
0.59767	50007
0.59833	49727
0.59900	49449
0.59967	49174
0.60033	48901
0.60100	48629
0.60167	48361
0.60233	48094
0.60300	47830
0.60367	47567
0.60433	47307
0.60500	47050
0.60567	46794
0.60633	46541
0.60700	46290
0.60767	46041
0.60833	45794
0.60900	45550
0.60967	45308
0.61033	45068
0.61100	44830
0.61167	44594
0.61233	44361
0.61300	44130
0.61367	43902
0.61433	43675
0.61500	43451
0.61567	43229
0.61633	43010
0.61700	42792
0.61767	42577
0.61833	42364
0.61900	42153
0.61967	41944
0.62033	41737
0.62100	41533
0.62167	41330
0.62233	41130
0.62300	40932
0.62367	40735
0.62433	40541
0.62500	40348
0.62567	40157
0.62633	39968
0.62700	39781
0.62767	39595
0.62833	39411
0.62900	39229
0.62967	39048
0.63033	38869
0.63100	38692
0.63167	38516
0.63233	38342
0.63300	38169
0.63367	37997
0.63433	37827
0.63500	37659
0.63567	37492
0.63633	37326
0.63700	37162
0.63767	37000
0.63833	36839
0.63900	36679
0.63967	36521
0.64033	36364
0.64100	36208
0.64167	36054
0.64233	35902
0.64300	35751
0.64367	35601
0.64433	35453
0.64500	35307
0.64567	35161
0.64633	35017
0.64700	34875
0.64767	34733
0.64833	34593
0.64900	34455
0.64967	34317
0.65033	34181
0.65100	34045
0.65167	33911
0.65233	33778
0.65300	33646
0.65367	33515
0.65433	33385
0.65500	33256
0.65567	33128
0.65633	33001
0.65700	32874
0.65767	32748
0.65833	32623
0.65900	32499
0.65967	32375
0.66033	32252
0.66100	32130
0.66167	32008
0.66233	31887
0.66300	31767
0.66367	31647
0.66433	31527
0.66500	31409
0.66567	31291
0.66633	31173
0.66700	31056
0.66767	30940
0.66833	30824
0.66900	30709
0.66967	30595
0.67033	30481
0.67100	30368
0.67167	30255
0.67233	30144
0.67300	30032
0.67367	29922
0.67433	29812
0.67500	29703
0.67567	29595
0.67633	29488
0.67700	29381
0.67767	29276
0.67833	29172
0.67900	29069
0.67967	28967
0.68033	28868
0.68100	28770
0.68167	28674
0.68233	28580
0.68300	28489
0.68367	28401
0.68433	28316
0.68500	28235
0.68567	28157
0.68633	28084
0.68700	28016
0.68767	27952
0.68833	27895
0.68900	27843
0.68967	27798
0.69033	27760
0.69100	27729
0.69167	27706
0.69233	27692
0.69300	27685
0.69367	27688
0.69433	27700
0.69500	27720
0.69567	27750
0.69633	27789
0.69700	27836
0.69767	27892
0.69833	27955
0.69900	28027
0.69967	28105
0.70033	28189
0.70100	28279
0.70167	28374
0.70233	28473
0.70300	28575
0.70367	28678
0.70433	28783
0.70500	28888
0.70567	28992
0.70633	29095
0.70700	29195
0.70767	29291
0.70833	29382
0.70900	29469
0.70967	29549
0.71033	29624
0.71100	29691
0.71167	29751
0.71233	29804
0.71300	29848
0.71367	29885
0.71433	29913
0.71500	29933
0.71567	29945
0.71633	29948
0.71700	29943
0.71767	29930
0.71833	29910
0.71900	29882
0.71967	29846
0.72033	29803
0.72100	29753
0.72167	29696
0.72233	29634
0.72300	29565
0.72367	29490
0.72433	29410
0.72500	29325
0.72567	29235
0.72633	29141
0.72700	29042
0.72767	28940
0.72833	28834
0.72900	28725
0.72967	28613
0.73033	28497
0.73100	28380
0.73167	28260
0.73233	28137
0.73300	28013
0.73367	27887
0.73433	27760
0.73500	27631
0.73567	27502
0.73633	27371
0.73700	27240
0.73767	27107
0.73833	26975
0.73900	26842
0.73967	26708
0.74033	26575
0.74100	26441
0.74167	26308
0.74233	26174
0.74300	26041
0.74367	25908
0.74433	25776
0.74500	25644
0.74567	25513
0.74633	25382
0.74700	25252
0.74767	25122
0.74833	24993
0.74900	24865
0.74967	24738
0.75033	24612
0.75100	24487
0.75167	24362
0.75233	24239
0.75300	24117
0.75367	23995
0.75433	23875
0.75500	23756
0.75567	23638
0.75633	23521
0.75700	23406
0.75767	23291
0.75833	23178
0.75900	23066
0.75967	22955
0.76033	22845
0.76100	22737
0.76167	22629
0.76233	22523
0.76300	22418
0.76367	22315
0.76433	22212
0.76500	22111
0.76567	22011
0.76633	21912
0.76700	21814
0.76767	21717
0.76833	21622
0.76900	21527
0.76967	21434
0.77033	21342
0.77100	21251
0.77167	21161
0.77233	21073
0.77300	20985
0.77367	20898
0.77433	20813
0.77500	20728
0.77567	20645
0.77633	20563
0.77700	20481
0.77767	20401
0.77833	20322
0.77900	20244
0.77967	20166
0.78033	20090
0.78100	20015
0.78167	19940
0.78233	19867
0.78300	19794
0.78367	19723
0.78433	19652
0.78500	19582
0.78567	19513
0.78633	19445
0.78700	19378
0.78767	19312
0.78833	19246
0.78900	19181
0.78967	19117
0.79033	19054
0.79100	18992
0.79167	18930
0.79233	18869
0.79300	18809
0.79367	18750
0.79433	18691
0.79500	18633
0.79567	18576
0.79633	18519
0.79700	18463
0.79767	18408
0.79833	18354
0.79900	18300
0.79967	18247
0.80033	18194
0.80100	18142
0.80167	18091
0.80233	18040
0.80300	17990
0.80367	17941
0.80433	17892
0.80500	17844
0.80567	17796
0.80633	17749
0.80700	17703
0.80767	17657
0.80833	17612
0.80900	17568
0.80967	17523
0.81033	17480
0.81100	17437
0.81167	17394
0.81233	17352
0.81300	17311
0.81367	17270
0.81433	17230
0.81500	17190
0.81567	17151
0.81633	17112
0.81700	17074
0.81767	17036
0.81833	16999
0.81900	16963
0.81967	16927
0.82033	16892
0.82100	16857
0.82167	16822
0.82233	16788
0.82300	16755
0.82367	16721
0.82433	16689
0.82500	16656
0.82567	16624
0.82633	16592
0.82700	16561
0.82767	16530
0.82833	16499
0.82900	16469
0.82967	16438
0.83033	16408
0.83100	16379
0.83167	16349
0.83233	16320
0.83300	16291
0.83367	16262
0.83433	16233
0.83500	16205
0.83567	16177
0.83633	16149
0.83700	16121
0.83767	16093
0.83833	16065
0.83900	16038
0.83967	16011
0.84033	15984
0.84100	15957
0.84167	15930
0.84233	15903
0.84300	15876
0.84367	15850
0.84433	15823
0.84500	15797
0.84567	15770
0.84633	15744
0.84700	15717
0.84767	15691
0.84833	15664
0.84900	15638
0.84967	15611
0.85033	15584
0.85100	15558
0.85167	15531
0.85233	15504
0.85300	15477
0.85367	15450
0.85433	15423
0.85500	15396
0.85567	15369
0.85633	15341
0.85700	15314
0.85767	15286
0.85833	15259
0.85900	15231
0.85967	15203
0.86033	15176
0.86100	15148
0.86167	15120
0.86233	15092
0.86300	15064
0.86367	15037
0.86433	15009
0.86500	14981
0.86567	14954
0.86633	14926
0.86700	14898
0.86767	14871
0.86833	14843
0.86900	14816
0.86967	14789
0.87033	14761
0.87100	14734
0.87167	14707
0.87233	14680
0.87300	14653
0.87367	14626
0.87433	14599
0.87500	14573
0.87567	14546
0.87633	14520
0.87700	14493
0.87767	14467
0.87833	14441
0.87900	14415
0.87967	14390
0.88033	14364
0.88100	14339
0.88167	14313
0.88233	14288
0.88300	14263
0.88367	14239
0.88433	14214
0.88500	14189
0.88567	14165
0.88633	14141
0.88700	14117
0.88767	14093
0.88833	14069
0.88900	14046
0.88967	14022
0.89033	13999
0.89100	13976
0.89167	13953
0.89233	13930
0.89300	13907
0.89367	13885
0.89433	13863
0.89500	13840
0.89567	13818
0.89633	13796
0.89700	13775
0.89767	13753
0.89833	13731
0.89900	13710
0.89967	13689
0.90033	13668
0.90100	13646
0.90167	13626
0.90233	13605
0.90300	13584
0.90367	13564
0.90433	13543
0.90500	13523
0.90567	13503
0.90633	13483
0.90700	13464
0.90767	13444
0.90833	13424
0.90900	13405
0.90967	13386
0.91033	13367
0.91100	13348
0.91167	13329
0.91233	13310
0.91300	13291
0.91367	13272
0.91433	13254
0.91500	13235
0.91567	13217
0.91633	13198
0.91700	13180
0.91767	13162
0.91833	13144
0.91900	13126
0.91967	13108
0.92033	13090
0.92100	13072
0.92167	13054
0.92233	13037
0.92300	13019
0.92367	13002
0.92433	12984
0.92500	12967
0.92567	12950
0.92633	12933
0.92700	12916
0.92767	12899
0.92833	12882
0.92900	12866
0.92967	12849
0.93033	12833
0.93100	12816
0.93167	12800
0.93233	12784
0.93300	12768
0.93367	12752
0.93433	12736
0.93500	12720
0.93567	12704
0.93633	12688
0.93700	12673
0.93767	12657
0.93833	12641
0.93900	12626
0.93967	12610
0.94033	12595
0.94100	12579
0.94167	12564
0.94233	12549
0.94300	12533
0.94367	12518
0.94433	12502
0.94500	12487
0.94567	12472
0.94633	12457
0.94700	12441
0.94767	12426
0.94833	12411
0.94900	12396
0.94967	12381
0.95033	12366
0.95100	12351
0.95167	12337
0.95233	12322
0.95300	12307
0.95367	12293
0.95433	12278
0.95500	12264
0.95567	12249
0.95633	12235
0.95700	12221
0.95767	12207
0.95833	12193
0.95900	12179
0.95967	12165
0.96033	12151
0.96100	12137
0.96167	12124
0.96233	12110
0.96300	12097
0.96367	12083
0.96433	12070
0.96500	12056
0.96567	12043
0.96633	12030
0.96700	12017
0.96767	12004
0.96833	11991
0.96900	11978
0.96967	11965
0.97033	11952
0.97100	11940
0.97167	11927
0.97233	11914
0.97300	11901
0.97367	11889
0.97433	11876
0.97500	11863
0.97567	11851
0.97633	11838
0.97700	11825
0.97767	11812
0.97833	11799
0.97900	11786
0.97967	11773
0.98033	11760
0.98100	11747
0.98167	11734
0.98233	11721
0.98300	11708
0.98367	11694
0.98433	11681
0.98500	11668
0.98567	11654
0.98633	11641
0.98700	11628
0.98767	11614
0.98833	11601
0.98900	11587
0.98967	11574
0.99033	11560
0.99100	11547
0.99167	11533
0.99233	11520
0.99300	11506
0.99367	11493
0.99433	11479
0.99500	11466
0.99567	11452
0.99633	11439
0.99700	11426
0.99767	11412
0.99833	11399
0.99900	11386
0.99967	11372
1.00033	11359
1.00100	11346
1.00167	11333
1.00233	11320
1.00300	11307
1.00367	11294
1.00433	11281
1.00500	11268
1.00567	11255
1.00633	11243
1.00700	11230
1.00767	11218
1.00833	11205
1.00900	11193
1.00967	11181
1.01033	11169
1.01100	11157
1.01167	11145
1.01233	11134
1.01300	11122
1.01367	11111
1.01433	11101
1.01500	11090
1.01567	11080
1.01633	11070
1.01700	11060
1.01767	11051
1.01833	11042
1.01900	11033
1.01967	11025
1.02033	11017
1.02100	11010
1.02167	11003
1.02233	10996
1.02300	10990
1.02367	10984
1.02433	10978
1.02500	10973
1.02567	10968
1.02633	10964
1.02700	10960
1.02767	10956
1.02833	10952
1.02900	10949
1.02967	10946
1.03033	10943
1.03100	10940
1.03167	10937
1.03233	10934
1.03300	10930
1.03367	10927
1.03433	10924
1.03500	10921
1.03567	10917
1.03633	10913
1.03700	10909
1.03767	10905
1.03833	10900
1.03900	10895
1.03967	10890
1.04033	10884
1.04100	10879
1.04167	10873
1.04233	10866
1.04300	10859
1.04367	10852
1.04433	10845
1.04500	10837
1.04567	10829
1.04633	10821
1.04700	10812
1.04767	10803
1.04833	10794
1.04900	10785
1.04967	10775
1.05033	10765
1.05100	10755
1.05167	10745
1.05233	10734
1.05300	10724
1.05367	10713
1.05433	10702
1.05500	10690
1.05567	10679
1.05633	10667
1.05700	10656
1.05767	10644
1.05833	10632
1.05900	10620
1.05967	10608
1.06033	10596
1.06100	10584
1.06167	10571
1.06233	10559
1.06300	10547
1.06367	10534
1.06433	10522
1.06500	10510
1.06567	10497
1.06633	10485
1.06700	10472
1.06767	10460
1.06833	10447
1.06900	10435
1.06967	10423
1.07033	10411
1.07100	10398
1.07167	10386
1.07233	10374
1.07300	10362
1.07367	10350
1.07433	10338
1.07500	10325
1.07567	10313
1.07633	10301
1.07700	10290
1.07767	10278
1.07833	10266
1.07900	10254
1.07967	10242
1.08033	10231
1.08100	10219
1.08167	10207
1.08233	10196
1.08300	10185
1.08367	10173
1.08433	10162
1.08500	10151
1.08567	10140
1.08633	10128
1.08700	10118
1.08767	10107
1.08833	10096
1.08900	10085
1.08967	10074
1.09033	10064
1.09100	10053
1.09167	10043
1.09233	10032
1.09300	10022
1.09367	10011
1.09433	10001
1.09500	9991
1.09567	9981
1.09633	9971
1.09700	9961
1.09767	9951
1.09833	9941
1.09900	9931
1.09967	9921
1.10033	9911
1.10100	9902
1.10167	9892
1.10233	9883
1.10300	9873
1.10367	9864
1.10433	9854
1.10500	9845
1.10567	9836
1.10633	9826
1.10700	9817
1.10767	9808
1.10833	9799
1.10900	9790
1.10967	9781
1.11033	9772
1.11100	9763
1.11167	9754
1.11233	9746
1.11300	9737
1.11367	9728
1.11433	9720
1.11500	9711
1.11567	9703
1.11633	9695
1.11700	9687
1.11767	9679
1.11833	9671
1.11900	9663
1.11967	9655
1.12033	9648
1.12100	9640
1.12167	9633
1.12233	9626
1.12300	9618
1.12367	9611
1.12433	9605
1.12500	9598
1.12567	9592
1.12633	9585
1.12700	9579
1.12767	9573
1.12833	9567
1.12900	9562
1.12967	9557
1.13033	9552
1.13100	9547
1.13167	9543
1.13233	9539
1.13300	9535
1.13367	9532
1.13433	9529
1.13500	9526
1.13567	9524
1.13633	9522
1.13700	9521
1.13767	9520
1.13833	9519
1.13900	9518
1.13967	9518
1.14033	9518
1.14100	9518
1.14167	9518
1.14233	9519
1.14300	9519
1.14367	9520
1.14433	9521
1.14500	9521
1.14567	9522
1.14633	9523
1.14700	9523
1.14767	9524
1.14833	9524
1.14900	9524
1.14967	9524
1.15033	9524
1.15100	9523
1.15167	9522
1.15233	9521
1.15300	9520
1.15367	9518
1.15433	9516
1.15500	9514
1.15567	9511
1.15633	9508
1.15700	9504
1.15767	9501
1.15833	9497
1.15900	9493
1.15967	9488
1.16033	9484
1.16100	9479
1.16167	9473
1.16233	9468
1.16300	9462
1.16367	9456
1.16433	9450
1.16500	9443
1.16567	9436
1.16633	9429
1.16700	9422
1.16767	9415
1.16833	9407
1.16900	9400
1.16967	9392
1.17033	9384
1.17100	9376
1.17167	9368
1.17233	9359
1.17300	9351
1.17367	9343
1.17433	9334
1.17500	9325
1.17567	9317
1.17633	9308
1.17700	9299
1.17767	9290
1.17833	9282
1.17900	9273
1.17967	9264
1.18033	9255
1.18100	9246
1.18167	9237
1.18233	9228
1.18300	9219
1.18367	9211
1.18433	9202
1.18500	9193
1.18567	9184
1.18633	9176
1.18700	9167
1.18767	9159
1.18833	9150
1.18900	9142
1.18967	9134
1.19033	9126
1.19100	9118
1.19167	9109
1.19233	9102
1.19300	9094
1.19367	9086
1.19433	9078
1.19500	9071
1.19567	9063
1.19633	9056
1.19700	9048
1.19767	9041
1.19833	9034
1.19900	9027
1.19967	9020
1.20033	9013
1.20100	9006
1.20167	8999
1.20233	8993
1.20300	8986
1.20367	8980
1.20433	8973
1.20500	8967
1.20567	8961
1.20633	8955
1.20700	8950
1.20767	8944
1.20833	8938
1.20900	8933
1.20967	8928
1.21033	8923
1.21100	8917
1.21167	8913
1.21233	8908
1.21300	8903
1.21367	8898
1.21433	8894
1.21500	8889
1.21567	8885
1.21633	8880
1.21700	8876
1.21767	8872
1.21833	8868
1.21900	8864
1.21967	8860
1.22033	8856
1.22100	8852
1.22167	8848
1.22233	8845
1.22300	8841
1.22367	8837
1.22433	8834
1.22500	8830
1.22567	8827
1.22633	8823
1.22700	8820
1.22767	8816
1.22833	8813
1.22900	8809
1.22967	8806
1.23033	8803
1.23100	8799
1.23167	8796
1.23233	8793
1.23300	8790
1.23367	8787
1.23433	8783
1.23500	8780
1.23567	8777
1.23633	8774
1.23700	8771
1.23767	8768
1.23833	8765
1.23900	8762
1.23967	8759
1.24033	8756
1.24100	8753
1.24167	8750
1.24233	8747
1.24300	8744
1.24367	8742
1.24433	8739
1.24500	8736
1.24567	8733
1.24633	8731
1.24700	8728
1.24767	8725
1.24833	8722
1.24900	8720
1.24967	8717
1.25033	8714
1.25100	8712
1.25167	8709
1.25233	8706
1.25300	8704
1.25367	8701
1.25433	8699
1.25500	8696
1.25567	8694
1.25633	8692
1.25700	8689
1.25767	8687
1.25833	8685
1.25900	8682
1.25967	8680
1.26033	8678
1.26100	8676
1.26167	8674
1.26233	8672
1.26300	8670
1.26367	8669
1.26433	8667
1.26500	8665
1.26567	8663
1.26633	8662
1.26700	8660
1.26767	8659
1.26833	8657
1.26900	8656
1.26967	8655
1.27033	8653
1.27100	8652
1.27167	8651
1.27233	8650
1.27300	8649
1.27367	8648
1.27433	8648
1.27500	8647
1.27567	8647
1.27633	8646
1.27700	8646
1.27767	8646
1.27833	8646
1.27900	8647
1.27967	8647
1.28033	8648
1.28100	8649
1.28167	8650
1.28233	8652
1.28300	8653
1.28367	8655
1.28433	8657
1.28500	8659
1.28567	8661
1.28633	8663
1.28700	8665
1.28767	8668
1.28833	8670
1.28900	8672
1.28967	8675
1.29033	8677
1.29100	8679
1.29167	8681
1.29233	8684
1.29300	8685
1.29367	8687
1.29433	8689
1.29500	8691
1.29567	8692
1.29633	8693
1.29700	8694
1.29767	8695
1.29833	8696
1.29900	8696
1.29967	8697
1.30033	8697
1.30100	8697
1.30167	8696
1.30233	8696
1.30300	8695
1.30367	8694
1.30433	8693
1.30500	8691
1.30567	8689
1.30633	8688
1.30700	8685
1.30767	8683
1.30833	8681
1.30900	8678
1.30967	8675
1.31033	8672
1.31100	8669
1.31167	8666
1.31233	8662
1.31300	8659
1.31367	8655
1.31433	8651
1.31500	8647
1.31567	8643
1.31633	8639
1.31700	8634
1.31767	8630
1.31833	8625
1.31900	8621
1.31967	8616
1.32033	8611
1.32100	8606
1.32167	8601
1.32233	8596
1.32300	8591
1.32367	8585
1.32433	8580
1.32500	8574
1.32567	8568
1.32633	8563
1.32700	8557
1.32767	8551
1.32833	8545
1.32900	8539
1.32967	8533
1.33033	8527
1.33100	8520
1.33167	8514
1.33233	8508
1.33300	8501
1.33367	8495
1.33433	8488
1.33500	8482
1.33567	8475
1.33633	8468
1.33700	8462
1.33767	8455
1.33833	8448
1.33900	8441
1.33967	8434
1.34033	8427
1.34100	8420
1.34167	8413
1.34233	8406
1.34300	8399
1.34367	8392
1.34433	8384
1.34500	8377
1.34567	8370
1.34633	8363
1.34700	8356
1.34767	8349
1.34833	8342
1.34900	8335
1.34967	8327
1.35033	8320
1.35100	8313
1.35167	8306
1.35233	8299
1.35300	8292
1.35367	8285
1.35433	8278
1.35500	8271
1.35567	8264
1.35633	8257
1.35700	8250
1.35767	8243
1.35833	8237
1.35900	8230
1.35967	8223
1.36033	8217
1.36100	8210
1.36167	8204
1.36233	8197
1.36300	8191
1.36367	8185
1.36433	8178
1.36500	8172
1.36567	8166
1.36633	8160
1.36700	8154
1.36767	8148
1.36833	8142
1.36900	8136
1.36967	8130
1.37033	8125
1.37100	8119
1.37167	8114
1.37233	8108
1.37300	8103
1.37367	8097
1.37433	8092
1.37500	8087
1.37567	8082
1.37633	8076
1.37700	8071
1.37767	8066
1.37833	8062
1.37900	8057
1.37967	8052
1.38033	8047
1.38100	8042
1.38167	8038
1.38233	8033
1.38300	8029
1.38367	8024
1.38433	8020
1.38500	8015
1.38567	8011
1.38633	8007
1.38700	8003
1.38767	7998
1.38833	7994
1.38900	7990
1.38967	7986
1.39033	7981
1.39100	7977
1.39167	7973
1.39233	7969
1.39300	7964
1.39367	7960
1.39433	7956
1.39500	7952
1.39567	7947
1.39633	7943
1.39700	7939
1.39767	7935
1.39833	7931
1.39900	7926
1.39967	7922
1.40033	7918
1.40100	7914
1.40167	7909
1.40233	7905
1.40300	7901
1.40367	7897
1.40433	7893
1.40500	7888
1.40567	7884
1.40633	7880
1.40700	7876
1.40767	7872
1.40833	7868
1.40900	7863
1.40967	7859
1.41033	7855
1.41100	7851
1.41167	7847
1.41233	7843
1.41300	7838
1.41367	7834
1.41433	7830
1.41500	7826
1.41567	7822
1.41633	7818
1.41700	7813
1.41767	7809
1.41833	7805
1.41900	7801
1.41967	7797
1.42033	7793
1.42100	7789
1.42167	7786
1.42233	7782
1.42300	7778
1.42367	7774
1.42433	7771
1.42500	7767
1.42567	7763
1.42633	7760
1.42700	7756
1.42767	7753
1.42833	7749
1.42900	7746
1.42967	7743
1.43033	7739
1.43100	7736
1.43167	7733
1.43233	7730
1.43300	7727
1.43367	7725
1.43433	7722
1.43500	7719
1.43567	7717
1.43633	7714
1.43700	7712
1.43767	7710
1.43833	7707
1.43900	7705
1.43967	7703
1.44033	7701
1.44100	7700
1.44167	7698
1.44233	7696
1.44300	7694
1.44367	7693
1.44433	7691
1.44500	7690
1.44567	7689
1.44633	7687
1.44700	7686
1.44767	7684
1.44833	7683
1.44900	7682
1.44967	7680
1.45033	7679
1.45100	7678
1.45167	7676
1.45233	7675
1.45300	7673
1.45367	7671
1.45433	7670
1.45500	7668
1.45567	7667
1.45633	7665
1.45700	7663
1.45767	7661
1.45833	7660
1.45900	7658
1.45967	7656
1.46033	7654
1.46100	7651
1.46167	7649
1.46233	7647
1.46300	7645
1.46367	7643
1.46433	7640
1.46500	7638
1.46567	7636
1.46633	7633
1.46700	7631
1.46767	7628
1.46833	7626
1.46900	7623
1.46967	7621
1.47033	7618
1.47100	7616
1.47167	7613
1.47233	7610
1.47300	7608
1.47367	7605
1.47433	7603
1.47500	7600
1.47567	7597
1.47633	7595
1.47700	7592
1.47767	7590
1.47833	7587
1.47900	7585
1.47967	7582
1.48033	7580
1.48100	7577
1.48167	7575
1.48233	7572
1.48300	7570
1.48367	7567
1.48433	7565
1.48500	7562
1.48567	7560
1.48633	7557
1.48700	7555
1.48767	7552
1.48833	7550
1.48900	7547
1.48967	7544
1.49033	7542
1.49100	7539
1.49167	7536
1.49233	7534
1.49300	7531
1.49367	7528
1.49433	7525
1.49500	7522
1.49567	7519
1.49633	7517
1.49700	7514
1.49767	7511
1.49833	7508
1.49900	7505
1.49967	7501
1.50033	7498
1.50100	7495
1.50167	7492
1.50233	7489
1.50300	7485
1.50367	7482
1.50433	7478
1.50500	7475
1.50567	7472
1.50633	7468
1.50700	7465
1.50767	7461
1.50833	7458
1.50900	7454
1.50967	7451
1.51033	7447
1.51100	7444
1.51167	7440
1.51233	7437
1.51300	7433
1.51367	7430
1.51433	7426
1.51500	7423
1.51567	7419
1.51633	7415
1.51700	7412
1.51767	7409
1.51833	7405
1.51900	7402
1.51967	7398
1.52033	7395
1.52100	7392
1.52167	7389
1.52233	7386
1.52300	7383
1.52367	7380
1.52433	7377
1.52500	7374
1.52567	7371
1.52633	7368
1.52700	7365
1.52767	7363
1.52833	7360
1.52900	7357
1.52967	7355
1.53033	7352
1.53100	7350
1.53167	7347
1.53233	7345
1.53300	7342
1.53367	7340
1.53433	7337
1.53500	7335
1.53567	7333
1.53633	7330
1.53700	7328
1.53767	7326
1.53833	7324
1.53900	7322
1.53967	7319
1.54033	7317
1.54100	7315
1.54167	7313
1.54233	7311
1.54300	7309
1.54367	7306
1.54433	7304
1.54500	7302
1.54567	7299
1.54633	7297
1.54700	7295
1.54767	7292
1.54833	7290
1.54900	7288
1.54967	7285
1.55033	7283
1.55100	7280
1.55167	7278
1.55233	7275
1.55300	7273
1.55367	7270
1.55433	7268
1.55500	7265
1.55567	7262
1.55633	7260
1.55700	7257
1.55767	7255
1.55833	7252
1.55900	7250
1.55967	7247
1.56033	7244
1.56100	7241
1.56167	7239
1.56233	7236
1.56300	7233
1.56367	7231
1.56433	7228
1.56500	7225
1.56567	7223
1.56633	7220
1.56700	7218
1.56767	7215
1.56833	7213
1.56900	7211
1.56967	7208
1.57033	7206
1.57100	7204
1.57167	7202
1.57233	7199
1.57300	7197
1.57367	7195
1.57433	7193
1.57500	7191
1.57567	7188
1.57633	7186
1.57700	7184
1.57767	7182
1.57833	7180
1.57900	7178
1.57967	7176
1.58033	7174
1.58100	7172
1.58167	7170
1.58233	7169
1.58300	7167
1.58367	7165
1.58433	7164
1.58500	7162
1.58567	7160
1.58633	7159
1.58700	7157
1.58767	7155
1.58833	7154
1.58900	7152
1.58967	7150
1.59033	7149
1.59100	7147
1.59167	7145
1.59233	7144
1.59300	7142
1.59367	7140
1.59433	7138
1.59500	7137
1.59567	7135
1.59633	7133
1.59700	7132
1.59767	7130
1.59833	7128
1.59900	7126
1.59967	7125
1.60033	7123
1.60100	7121
1.60167	7119
1.60233	7117
1.60300	7115
1.60367	7114
1.60433	7112
1.60500	7110
1.60567	7108
1.60633	7106
1.60700	7104
1.60767	7102
1.60833	7100
1.60900	7098
1.60967	7096
1.61033	7094
1.61100	7092
1.61167	7090
1.61233	7088
1.61300	7086
1.61367	7084
1.61433	7082
1.61500	7080
1.61567	7079
1.61633	7077
1.61700	7075
1.61767	7073
1.61833	7071
1.61900	7069
1.61967	7067
1.62033	7065
1.62100	7064
1.62167	7062
1.62233	7060
1.62300	7058
1.62367	7056
1.62433	7055
1.62500	7053
1.62567	7051
1.62633	7049
1.62700	7048
1.62767	7046
1.62833	7044
1.62900	7043
1.62967	7041
1.63033	7040
1.63100	7038
1.63167	7037
1.63233	7035
1.63300	7034
1.63367	7033
1.63433	7031
1.63500	7030
1.63567	7029
1.63633	7028
1.63700	7026
1.63767	7025
1.63833	7024
1.63900	7023
1.63967	7022
1.64033	7021
1.64100	7020
1.64167	7019
1.64233	7018
1.64300	7017
1.64367	7016
1.64433	7015
1.64500	7014
1.64567	7013
1.64633	7012
1.64700	7011
1.64767	7010
1.64833	7009
1.64900	7009
1.64967	7008
1.65033	7007
1.65100	7006
1.65167	7005
1.65233	7004
1.65300	7003
1.65367	7002
1.65433	7002
1.65500	7001
1.65567	7000
1.65633	6999
1.65700	6998
1.65767	6997
1.65833	6996
1.65900	6996
1.65967	6995
1.66033	6994
1.66100	6993
1.66167	6992
1.66233	6991
1.66300	6990
1.66367	6989
1.66433	6989
1.66500	6988
1.66567	6987
1.66633	6986
1.66700	6985
1.66767	6984
1.66833	6984
1.66900	6983
1.66967	6982
1.67033	6980
1.67100	6979
1.67167	6978
1.67233	6977
1.67300	6976
1.67367	6975
1.67433	6974
1.67500	6972
1.67567	6971
1.67633	6970
1.67700	6968
1.67767	6967
1.67833	6965
1.67900	6964
1.67967	6962
1.68033	6960
1.68100	6959
1.68167	6957
1.68233	6955
1.68300	6954
1.68367	6952
1.68433	6950
1.68500	6949
1.68567	6947
1.68633	6945
1.68700	6944
1.68767	6942
1.68833	6940
1.68900	6938
1.68967	6936
1.69033	6934
1.69100	6932
1.69167	6931
1.69233	6929
1.69300	6927
1.69367	6925
1.69433	6923
1.69500	6921
1.69567	6919
1.69633	6917
1.69700	6915
1.69767	6913
1.69833	6911
1.69900	6909
1.69967	6907
1.70033	6905
1.70100	6903
1.70167	6901
1.70233	6899
1.70300	6898
1.70367	6896
1.70433	6894
1.70500	6892
1.70567	6890
1.70633	6889
1.70700	6887
1.70767	6885
1.70833	6883
1.70900	6882
1.70967	6880
1.71033	6878
1.71100	6877
1.71167	6875
1.71233	6874
1.71300	6872
1.71367	6871
1.71433	6870
1.71500	6869
1.71567	6868
1.71633	6867
1.71700	6867
1.71767	6867
1.71833	6868
1.71900	6869
1.71967	6872
1.72033	6875
1.72100	6879
1.72167	6885
1.72233	6893
1.72300	6904
1.72367	6917
1.72433	6933
1.72500	6954
1.72567	6980
1.72633	7011
1.72700	7050
1.72767	7097
1.72833	7153
1.72900	7222
1.72967	7305
1.73033	7404
1.73100	7522
1.73167	7662
1.73233	7828
1.73300	8022
1.73367	8250
1.73433	8516
1.73500	8825
1.73567	9182
1.73633	9594
1.73700	10068
1.73767	10610
1.73833	11230
1.73900	11934
1.73967	12731
1.74033	13630
1.74100	14639
1.74167	15767
1.74233	17022
1.74300	18415
1.74367	19954
1.74433	21650
1.74500	23511
1.74567	25546
1.74633	27766
1.74700	30179
1.74767	32796
1.74833	35625
1.74900	38676
1.74967	41954
1.75033	45465
1.75100	49214
1.75167	53204
1.75233	57438
1.75300	61921
1.75367	66652
1.75433	71632
1.75500	76863
1.75567	82341
1.75633	88065
1.75700	94026
1.75767	100213
1.75833	106613
1.75900	113207
1.75967	119978
1.76033	126905
1.76100	133965
1.76167	141134
1.76233	148381
1.76300	155678
1.76367	162991
1.76433	170289
1.76500	177544
1.76567	184727
1.76633	191809
1.76700	198764
1.76767	205565
1.76833	212185
1.76900	218597
1.76967	224773
1.77033	230690
1.77100	236326
1.77167	241659
1.77233	246672
1.77300	251351
1.77367	255684
1.77433	259663
1.77500	263279
1.77567	266530
1.77633	269413
1.77700	271930
1.77767	274082
1.77833	275874
1.77900	277313
1.77967	278406
1.78033	279163
1.78100	279593
1.78167	279710
1.78233	279524
1.78300	279049
1.78367	278299
1.78433	277286
1.78500	276026
1.78567	274532
1.78633	272818
1.78700	270899
1.78767	268788
1.78833	266499
1.78900	264046
1.78967	261441
1.79033	258697
1.79100	255825
1.79167	252838
1.79233	249746
1.79300	246561
1.79367	243291
1.79433	239948
1.79500	236539
1.79567	233074
1.79633	229561
1.79700	226007
1.79767	222419
1.79833	218806
1.79900	215172
1.79967	211524
1.80033	207868
1.80100	204209
1.80167	200551
1.80233	196900
1.80300	193260
1.80367	189634
1.80433	186026
1.80500	182440
1.80567	178879
1.80633	175345
1.80700	171841
1.80767	168370
1.80833	164934
1.80900	161534
1.80967	158173
1.81033	154852
1.81100	151573
1.81167	148337
1.81233	145145
1.81300	141998
1.81367	138897
1.81433	135843
1.81500	132837
1.81567	129879
1.81633	126969
1.81700	124108
1.81767	121297
1.81833	118535
1.81900	115822
1.81967	113159
1.82033	110546
1.82100	107982
1.82167	105467
1.82233	103002
1.82300	100585
1.82367	98217
1.82433	95897
1.82500	93626
1.82567	91402
1.82633	89225
1.82700	87094
1.82767	85010
1.82833	82971
1.82900	80977
1.82967	79027
1.83033	77122
1.83100	75259
1.83167	73440
1.83233	71662
1.83300	69926
1.83367	68230
1.83433	66575
1.83500	64959
1.83567	63382
1.83633	61843
1.83700	60341
1.83767	58877
1.83833	57448
1.83900	56055
1.83967	54696
1.84033	53372
1.84100	52080
1.84167	50822
1.84233	49596
1.84300	48401
1.84367	47237
1.84433	46102
1.84500	44997
1.84567	43921
1.84633	42873
1.84700	41853
1.84767	40860
1.84833	39892
1.84900	38951
1.84967	38035
1.85033	37143
1.85100	36275
1.85167	35431
1.85233	34609
1.85300	33810
1.85367	33033
1.85433	32276
1.85500	31541
1.85567	30826
1.85633	30130
1.85700	29454
1.85767	28797
1.85833	28157
1.85900	27536
1.85967	26932
1.86033	26345
1.86100	25774
1.86167	25220
1.86233	24681
1.86300	24157
1.86367	23648
1.86433	23153
1.86500	22672
1.86567	22205
1.86633	21752
1.86700	21311
1.86767	20883
1.86833	20467
1.86900	20063
1.86967	19670
1.87033	19289
1.87100	18919
1.87167	18559
1.87233	18210
1.87300	17871
1.87367	17541
1.87433	17221
1.87500	16911
1.87567	16609
1.87633	16316
1.87700	16031
1.87767	15755
1.87833	15487
1.87900	15226
1.87967	14973
1.88033	14727
1.88100	14489
1.88167	14257
1.88233	14032
1.88300	13814
1.88367	13602
1.88433	13396
1.88500	13196
1.88567	13002
1.88633	12813
1.88700	12630
1.88767	12453
1.88833	12281
1.88900	12113
1.88967	11951
1.89033	11793
1.89100	11640
1.89167	11492
1.89233	11348
1.89300	11208
1.89367	11072
1.89433	10940
1.89500	10812
1.89567	10688
1.89633	10568
1.89700	10451
1.89767	10337
1.89833	10227
1.89900	10120
1.89967	10016
1.90033	9915
1.90100	9818
1.90167	9723
1.90233	9631
1.90300	9541
1.90367	9454
1.90433	9370
1.90500	9288
1.90567	9208
1.90633	9131
1.90700	9056
1.90767	8983
1.90833	8912
1.90900	8843
1.90967	8776
1.91033	8711
1.91100	8647
1.91167	8586
1.91233	8526
1.91300	8467
1.91367	8410
1.91433	8355
1.91500	8301
1.91567	8249
1.91633	8197
1.91700	8148
1.91767	8099
1.91833	8052
1.91900	8006
1.91967	7961
1.92033	7917
1.92100	7874
1.92167	7832
1.92233	7791
1.92300	7752
1.92367	7713
1.92433	7675
1.92500	7638
1.92567	7602
1.92633	7567
1.92700	7533
1.92767	7500
1.92833	7468
1.92900	7436
1.92967	7405
1.93033	7375
1.93100	7346
1.93167	7317
1.93233	7289
1.93300	7261
1.93367	7235
1.93433	7209
1.93500	7183
1.93567	7159
1.93633	7134
1.93700	7111
1.93767	7087
1.93833	7065
1.93900	7043
1.93967	7021
1.94033	7000
1.94100	6980
1.94167	6960
1.94233	6940
1.94300	6922
1.94367	6903
1.94433	6885
1.94500	6867
1.94567	6850
1.94633	6833
1.94700	6817
1.94767	6801
1.94833	6785
1.94900	6770
1.94967	6755
1.95033	6740
1.95100	6726
1.95167	6712
1.95233	6698
1.95300	6685
1.95367	6672
1.95433	6659
1.95500	6646
1.95567	6634
1.95633	6622
1.95700	6611
1.95767	6599
1.95833	6588
1.95900	6577
1.95967	6567
1.96033	6556
1.96100	6546
1.96167	6536
1.96233	6526
1.96300	6517
1.96367	6508
1.96433	6499
1.96500	6490
1.96567	6481
1.96633	6473
1.96700	6464
1.96767	6456
1.96833	6448
1.96900	6440
1.96967	6432
1.97033	6425
1.97100	6417
1.97167	6410
1.97233	6403
1.97300	6395
1.97367	6388
1.97433	6381
1.97500	6375
1.97567	6368
1.97633	6361
1.97700	6355
1.97767	6348
1.97833	6342
1.97900	6335
1.97967	6329
1.98033	6323
1.98100	6317
1.98167	6311
1.98233	6305
1.98300	6299
1.98367	6294
1.98433	6288
1.98500	6282
1.98567	6277
1.98633	6271
1.98700	6266
1.98767	6260
1.98833	6255
1.98900	6250
1.98967	6245
1.99033	6239
1.99100	6234
1.99167	6229
1.99233	6224
1.99300	6219
1.99367	6214
1.99433	6209
1.99500	6205
1.99567	6200
1.99633	6195
1.99700	6190
1.99767	6186
1.99833	6181
1.99900	6176
1.99967	6172
2.00033	6167
2.00100	6163
2.00167	6158
2.00233	6154
2.00300	6149
2.00367	6145
2.00433	6141
2.00500	6136
2.00567	6132
2.00633	6127
2.00700	6123
2.00767	6119
2.00833	6114
2.00900	6110
2.00967	6105
2.01033	6101
2.01100	6097
2.01167	6092
2.01233	6088
2.01300	6083
2.01367	6079
2.01433	6075
2.01500	6070
2.01567	6066
2.01633	6062
2.01700	6058
2.01767	6054
2.01833	6049
2.01900	6045
2.01967	6041
2.02033	6037
2.02100	6033
2.02167	6029
2.02233	6025
2.02300	6020
2.02367	6016
2.02433	6012
2.02500	6008
2.02567	6004
2.02633	6000
2.02700	5996
2.02767	5992
2.02833	5989
2.02900	5985
2.02967	5981
2.03033	5977
2.03100	5973
2.03167	5970
2.03233	5966
2.03300	5962
2.03367	5959
2.03433	5955
2.03500	5952
2.03567	5948
2.03633	5945
2.03700	5941
2.03767	5938
2.03833	5934
2.03900	5931
2.03967	5928
2.04033	5924
2.04100	5921
2.04167	5918
2.04233	5914
2.04300	5911
2.04367	5908
2.04433	5905
2.04500	5901
2.04567	5898
2.04633	5895
2.04700	5892
2.04767	5889
2.04833	5886
2.04900	5883
2.04967	5880
2.05033	5877
2.05100	5874
2.05167	5871
2.05233	5868
2.05300	5865
2.05367	5862
2.05433	5859
2.05500	5856
2.05567	5854
2.05633	5851
2.05700	5848
2.05767	5845
2.05833	5842
2.05900	5840
2.05967	5837
2.06033	5834
2.06100	5831
2.06167	5829
2.06233	5826
2.06300	5823
2.06367	5820
2.06433	5818
2.06500	5815
2.06567	5812
2.06633	5810
2.06700	5807
2.06767	5804
2.06833	5802
2.06900	5799
2.06967	5796
2.07033	5793
2.07100	5791
2.07167	5788
2.07233	5785
2.07300	5782
2.07367	5780
2.07433	5777
2.07500	5774
2.07567	5771
2.07633	5769
2.07700	5766
2.07767	5763
2.07833	5760
2.07900	5758
2.07967	5755
2.08033	5752
2.08100	5749
2.08167	5747
2.08233	5744
2.08300	5741
2.08367	5739
2.08433	5736
2.08500	5733
2.08567	5731
2.08633	5728
2.08700	5725
2.08767	5723
2.08833	5720
2.08900	5717
2.08967	5715
2.09033	5712
2.09100	5710
2.09167	5707
2.09233	5705
2.09300	5702
2.09367	5700
2.09433	5698
2.09500	5696
2.09567	5693
2.09633	5691
2.09700	5689
2.09767	5686
2.09833	5684
2.09900	5682
2.09967	5679
2.10033	5677
2.10100	5674
2.10167	5672
2.10233	5669
2.10300	5667
2.10367	5665
2.10433	5662
2.10500	5660
2.10567	5658
2.10633	5655
2.10700	5653
2.10767	5651
2.10833	5648
2.10900	5646
2.10967	5644
2.11033	5641
2.11100	5639
2.11167	5637
2.11233	5635
2.11300	5633
2.11367	5630
2.11433	5628
2.11500	5626
2.11567	5624
2.11633	5621
2.11700	5619
2.11767	5617
2.11833	5615
2.11900	5613
2.11967	5610
2.12033	5608
2.12100	5606
2.12167	5604
2.12233	5602
2.12300	5600
2.12367	5597
2.12433	5595
2.12500	5593
2.12567	5591
2.12633	5589
2.12700	5587
2.12767	5585
2.12833	5582
2.12900	5580
2.12967	5578
2.13033	5576
2.13100	5574
2.13167	5572
2.13233	5569
2.13300	5567
2.13367	5565
2.13433	5563
2.13500	5561
2.13567	5559
2.13633	5557
2.13700	5555
2.13767	5553
2.13833	5551
2.13900	5549
2.13967	5547
2.14033	5545
2.14100	5543
2.14167	5541
2.14233	5539
2.14300	5537
2.14367	5535
2.14433	5533
2.14500	5531
2.14567	5529
2.14633	5527
2.14700	5525
2.14767	5523
2.14833	5521
2.14900	5519
2.14967	5517
2.15033	5515
2.15100	5513
2.15167	5512
2.15233	5510
2.15300	5508
2.15367	5506
2.15433	5504
2.15500	5502
2.15567	5500
2.15633	5498
2.15700	5497
2.15767	5495
2.15833	5493
2.15900	5491
2.15967	5489
2.16033	5487
2.16100	5485
2.16167	5483
2.16233	5481
2.16300	5479
2.16367	5477
2.16433	5476
2.16500	5474
2.16567	5472
2.16633	5470
2.16700	5468
2.16767	5466
2.16833	5464
2.16900	5462
2.16967	5460
2.17033	5458
2.17100	5456
2.17167	5454
2.17233	5452
2.17300	5450
2.17367	5448
2.17433	5446
2.17500	5444
2.17567	5442
2.17633	5440
2.17700	5438
2.17767	5436
2.17833	5434
2.17900	5432
2.17967	5431
2.18033	5429
2.18100	5427
2.18167	5425
2.18233	5423
2.18300	5421
2.18367	5419
2.18433	5417
2.18500	5415
2.18567	5414
2.18633	5412
2.18700	5410
2.18767	5408
2.18833	5406
2.18900	5405
2.18967	5403
2.19033	5401
2.19100	5400
2.19167	5398
2.19233	5396
2.19300	5395
2.19367	5393
2.19433	5392
2.19500	5390
2.19567	5388
2.19633	5387
2.19700	5385
2.19767	5384
2.19833	5382
2.19900	5381
2.19967	5379
2.20033	5378
2.20100	5376
2.20167	5375
2.20233	5374
2.20300	5372
2.20367	5371
2.20433	5370
2.20500	5369
2.20567	5367
2.20633	5366
2.20700	5365
2.20767	5364
2.20833	5363
2.20900	5362
2.20967	5361
2.21033	5360
2.21100	5359
2.21167	5359
2.21233	5358
2.21300	5357
2.21367	5356
2.21433	5356
2.21500	5355
2.21567	5355
2.21633	5354
2.21700	5353
2.21767	5353
2.21833	5353
2.21900	5352
2.21967	5352
2.22033	5352
2.22100	5351
2.22167	5351
2.22233	5351
2.22300	5351
2.22367	5351
2.22433	5351
2.22500	5350
2.22567	5350
2.22633	5350
2.22700	5350
2.22767	5350
2.22833	5350
2.22900	5349
2.22967	5349
2.23033	5349
2.23100	5348
2.23167	5348
2.23233	5347
2.23300	5347
2.23367	5346
2.23433	5346
2.23500	5345
2.23567	5344
2.23633	5344
2.23700	5343
2.23767	5342
2.23833	5341
2.23900	5340
2.23967	5339
2.24033	5338
2.24100	5337
2.24167	5337
2.24233	5336
2.24300	5335
2.24367	5334
2.24433	5333
2.24500	5332
2.24567	5331
2.24633	5330
2.24700	5330
2.24767	5329
2.24833	5328
2.24900	5327
2.24967	5326
2.25033	5326
2.25100	5325
2.25167	5324
2.25233	5323
2.25300	5322
2.25367	5321
2.25433	5320
2.25500	5319
2.25567	5318
2.25633	5317
2.25700	5316
2.25767	5315
2.25833	5314
2.25900	5313
2.25967	5312
2.26033	5311
2.26100	5310
2.26167	5309
2.26233	5308
2.26300	5307
2.26367	5306
2.26433	5304
2.26500	5303
2.26567	5302
2.26633	5300
2.26700	5299
2.26767	5298
2.26833	5296
2.26900	5295
2.26967	5293
2.27033	5292
2.27100	5291
2.27167	5289
2.27233	5287
2.27300	5286
2.27367	5284
2.27433	5283
2.27500	5281
2.27567	5279
2.27633	5278
2.27700	5276
2.27767	5274
2.27833	5272
2.27900	5271
2.27967	5269
2.28033	5267
2.28100	5265
2.28167	5264
2.28233	5262
2.28300	5260
2.28367	5258
2.28433	5256
2.28500	5254
2.28567	5253
2.28633	5251
2.28700	5249
2.28767	5247
2.28833	5245
2.28900	5244
2.28967	5242
2.29033	5240
2.29100	5238
2.29167	5236
2.29233	5234
2.29300	5232
2.29367	5230
2.29433	5229
2.29500	5227
2.29567	5225
2.29633	5223
2.29700	5221
2.29767	5220
2.29833	5218
2.29900	5216
2.29967	5215
2.30033	5213
2.30100	5212
2.30167	5210
2.30233	5209
2.30300	5207
2.30367	5206
2.30433	5204
2.30500	5203
2.30567	5202
2.30633	5200
2.30700	5199
2.30767	5198
2.30833	5197
2.30900	5196
2.30967	5194
2.31033	5193
2.31100	5192
2.31167	5191
2.31233	5190
2.31300	5189
2.31367	5188
2.31433	5187
2.31500	5186
2.31567	5185
2.31633	5184
2.31700	5183
2.31767	5182
2.31833	5182
2.31900	5181
2.31967	5180
2.32033	5179
2.32100	5179
2.32167	5178
2.32233	5178
2.32300	5177
2.32367	5176
2.32433	5176
2.32500	5175
2.32567	5175
2.32633	5174
2.32700	5174
2.32767	5174
2.32833	5173
2.32900	5173
2.32967	5172
2.33033	5172
2.33100	5172
2.33167	5172
2.33233	5171
2.33300	5171
2.33367	5171
2.33433	5171
2.33500	5171
2.33567	5170
2.33633	5170
2.33700	5170
2.33767	5170
2.33833	5170
2.33900	5170
2.33967	5170
2.34033	5170
2.34100	5170
2.34167	5170
2.34233	5170
2.34300	5170
2.34367	5170
2.34433	5170
2.34500	5170
2.34567	5170
2.34633	5170
2.34700	5170
2.34767	5170
2.34833	5170
2.34900	5170
2.34967	5171
2.35033	5171
2.35100	5171
2.35167	5171
2.35233	5172
2.35300	5172
2.35367	5172
2.35433	5172
2.35500	5172
2.35567	5173
2.35633	5173
2.35700	5173
2.35767	5173
2.35833	5173
2.35900	5173
2.35967	5174
2.36033	5174
2.36100	5174
2.36167	5174
2.36233	5174
2.36300	5174
2.36367	5175
2.36433	5175
2.36500	5175
2.36567	5175
2.36633	5175
2.36700	5175
2.36767	5176
2.36833	5176
2.36900	5176
2.36967	5176
2.37033	5176
2.37100	5176
2.37167	5176
2.37233	5175
2.37300	5175
2.37367	5175
2.37433	5175
2.37500	5174
2.37567	5174
2.37633	5174
2.37700	5173
2.37767	5173
2.37833	5173
2.37900	5172
2.37967	5172
2.38033	5172
2.38100	5171
2.38167	5171
2.38233	5170
2.38300	5170
2.38367	5169
2.38433	5169
2.38500	5168
2.38567	5168
2.38633	5167
2.38700	5167
2.38767	5166
2.38833	5165
2.38900	5165
2.38967	5164
2.39033	5163
2.39100	5163
2.39167	5162
2.39233	5161
2.39300	5160
2.39367	5160
2.39433	5159
2.39500	5158
2.39567	5158
2.39633	5157
2.39700	5156
2.39767	5156
2.39833	5155
2.39900	5154
2.39967	5153
2.40033	5152
2.40100	5151
2.40167	5151
2.40233	5150
2.40300	5149
2.40367	5148
2.40433	5147
2.40500	5146
2.40567	5145
2.40633	5144
2.40700	5144
2.40767	5143
2.40833	5142
2.40900	5141
2.40967	5140
2.41033	5139
2.41100	5138
2.41167	5138
2.41233	5137
2.41300	5136
2.41367	5135
2.41433	5135
2.41500	5134
2.41567	5133
2.41633	5132
2.41700	5131
2.41767	5130
2.41833	5129
2.41900	5129
2.41967	5128
2.42033	5127
2.42100	5126
2.42167	5125
2.42233	5124
2.42300	5123
2.42367	5122
2.42433	5121
2.42500	5120
2.42567	5119
2.42633	5118
2.42700	5117
2.42767	5116
2.42833	5115
2.42900	5114
2.42967	5113
2.43033	5112
2.43100	5110
2.43167	5109
2.43233	5108
2.43300	5107
2.43367	5106
2.43433	5104
2.43500	5103
2.43567	5101
2.43633	5100
2.43700	5099
2.43767	5097
2.43833	5096
2.43900	5094
2.43967	5093
2.44033	5091
2.44100	5089
2.44167	5088
2.44233	5086
2.44300	5084
2.44367	5083
2.44433	5081
2.44500	5079
2.44567	5077
2.44633	5075
2.44700	5073
2.44767	5071
2.44833	5069
2.44900	5067
2.44967	5065
2.45033	5063
2.45100	5061
2.45167	5059
2.45233	5057
2.45300	5055
2.45367	5053
2.45433	5050
2.45500	5048
2.45567	5046
2.45633	5044
2.45700	5042
2.45767	5040
2.45833	5037
2.45900	5035
2.45967	5033
2.46033	5031
2.46100	5029
2.46167	5027
2.46233	5025
2.46300	5022
2.46367	5020
2.46433	5018
2.46500	5016
2.46567	5014
2.46633	5011
2.46700	5009
2.46767	5007
2.46833	5005
2.46900	5003
2.46967	5001
2.47033	4999
2.47100	4996
2.47167	4994
2.47233	4992
2.47300	4990
2.47367	4988
2.47433	4986
2.47500	4984
2.47567	4982
2.47633	4980
2.47700	4978
2.47767	4976
2.47833	4974
2.47900	4972
2.47967	4970
2.48033	4968
2.48100	4966
2.48167	4964
2.48233	4962
2.48300	4960
2.48367	4958
2.48433	4956
2.48500	4954
2.48567	4952
2.48633	4950
2.48700	4948
2.48767	4946
2.48833	4944
2.48900	4942
2.48967	4940
2.49033	4938
2.49100	4937
2.49167	4935
2.49233	4933
2.49300	4931
2.49367	4929
2.49433	4927
2.49500	4925
2.49567	4923
2.49633	4921
2.49700	4919
2.49767	4918
2.49833	4916
2.49900	4914
2.49967	4912
2.50033	4910
2.50100	4909
2.50167	4907
2.50233	4905
2.50300	4903
2.50367	4902
2.50433	4900
2.50500	4898
2.50567	4896
2.50633	4894
2.50700	4893
2.50767	4891
2.50833	4889
2.50900	4887
2.50967	4885
2.51033	4884
2.51100	4882
2.51167	4880
2.51233	4878
2.51300	4876
2.51367	4875
2.51433	4873
2.51500	4871
2.51567	4869
2.51633	4867
2.51700	4866
2.51767	4864
2.51833	4862
2.51900	4860
2.51967	4858
2.52033	4857
2.52100	4855
2.52167	4853
2.52233	4851
2.52300	4850
2.52367	4848
2.52433	4846
2.52500	4844
2.52567	4843
2.52633	4841
2.52700	4839
2.52767	4837
2.52833	4836
2.52900	4834
2.52967	4832
2.53033	4831
2.53100	4829
2.53167	4828
2.53233	4826
2.53300	4824
2.53367	4823
2.53433	4821
2.53500	4819
2.53567	4818
2.53633	4816
2.53700	4814
2.53767	4813
2.53833	4811
2.53900	4809
2.53967	4808
2.54033	4806
2.54100	4804
2.54167	4803
2.54233	4801
2.54300	4800
2.54367	4798
2.54433	4796
2.54500	4795
2.54567	4793
2.54633	4792
2.54700	4790
2.54767	4789
2.54833	4787
2.54900	4785
2.54967	4784
2.55033	4782
2.55100	4781
2.55167	4779
2.55233	4778
2.55300	4776
2.55367	4775
2.55433	4774
2.55500	4772
2.55567	4771
2.55633	4769
2.55700	4768
2.55767	4766
2.55833	4765
2.55900	4764
2.55967	4762
2.56033	4761
2.56100	4759
2.56167	4758
2.56233	4757
2.56300	4755
2.56367	4754
2.56433	4753
2.56500	4751
2.56567	4750
2.56633	4749
2.56700	4747
2.56767	4746
2.56833	4745
2.56900	4743
2.56967	4742
2.57033	4741
2.57100	4739
2.57167	4738
2.57233	4737
2.57300	4736
2.57367	4735
2.57433	4733
2.57500	4732
2.57567	4731
2.57633	4730
2.57700	4729
2.57767	4727
2.57833	4726
2.57900	4725
2.57967	4724
2.58033	4723
2.58100	4722
2.58167	4720
2.58233	4719
2.58300	4718
2.58367	4717
2.58433	4716
2.58500	4715
2.58567	4713
2.58633	4712
2.58700	4711
2.58767	4710
2.58833	4709
2.58900	4708
2.58967	4707
2.59033	4706
2.59100	4704
2.59167	4703
2.59233	4702
2.59300	4701
2.59367	4700
2.59433	4699
2.59500	4698
2.59567	4697
2.59633	4696
2.59700	4695
2.59767	4694
2.59833	4693
2.59900	4692
2.59967	4690
2.60033	4689
2.60100	4688
2.60167	4687
2.60233	4686
2.60300	4685
2.60367	4684
2.60433	4683
2.60500	4682
2.60567	4681
2.60633	4680
2.60700	4679
2.60767	4678
2.60833	4677
2.60900	4676
2.60967	4675
2.61033	4674
2.61100	4673
2.61167	4672
2.61233	4671
2.61300	4670
2.61367	4669
2.61433	4668
2.61500	4667
2.61567	4666
2.61633	4665
2.61700	4665
2.61767	4664
2.61833	4663
2.61900	4662
2.61967	4661
2.62033	4660
2.62100	4659
2.62167	4658
2.62233	4657
2.62300	4656
2.62367	4655
2.62433	4654
2.62500	4653
2.62567	4651
2.62633	4650
2.62700	4649
2.62767	4648
2.62833	4647
2.62900	4646
2.62967	4645
2.63033	4644
2.63100	4642
2.63167	4641
2.63233	4640
2.63300	4639
2.63367	4638
2.63433	4637
2.63500	4636
2.63567	4635
2.63633	4634
2.63700	4633
2.63767	4632
2.63833	4631
2.63900	4630
2.63967	4629
2.64033	4628
2.64100	4627
2.64167	4626
2.64233	4624
2.64300	4623
2.64367	4622
2.64433	4621
2.64500	4620
2.64567	4619
2.64633	4618
2.64700	4617
2.64767	4615
2.64833	4614
2.64900	4613
2.64967	4612
2.65033	4611
2.65100	4610
2.65167	4609
2.65233	4608
2.65300	4607
2.65367	4606
2.65433	4604
2.65500	4603
2.65567	4602
2.65633	4601
2.65700	4600
2.65767	4599
2.65833	4598
2.65900	4597
2.65967	4596
2.66033	4595
2.66100	4593
2.66167	4592
2.66233	4591
2.66300	4590
2.66367	4589
2.66433	4588
2.66500	4586
2.66567	4585
2.66633	4584
2.66700	4583
2.66767	4581
2.66833	4580
2.66900	4579
2.66967	4577
2.67033	4576
2.67100	4575
2.67167	4574
2.67233	4572
2.67300	4571
2.67367	4570
2.67433	4569
2.67500	4567
2.67567	4566
2.67633	4565
2.67700	4564
2.67767	4562
2.67833	4561
2.67900	4560
2.67967	4559
2.68033	4558
2.68100	4556
2.68167	4555
2.68233	4554
2.68300	4553
2.68367	4552
2.68433	4551
2.68500	4550
2.68567	4549
2.68633	4548
2.68700	4547
2.68767	4545
2.68833	4544
2.68900	4543
2.68967	4542
2.69033	4541
2.69100	4540
2.69167	4539
2.69233	4538
2.69300	4537
2.69367	4536
2.69433	4535
2.69500	4534
2.69567	4533
2.69633	4532
2.69700	4531
2.69767	4530
2.69833	4529
2.69900	4528
2.69967	4528
2.70033	4527
2.70100	4526
2.70167	4525
2.70233	4524
2.70300	4523
2.70367	4522
2.70433	4521
2.70500	4520
2.70567	4519
2.70633	4518
2.70700	4517
2.70767	4516
2.70833	4515
2.70900	4514
2.70967	4513
2.71033	4512
2.71100	4511
2.71167	4510
2.71233	4510
2.71300	4509
2.71367	4508
2.71433	4507
2.71500	4506
2.71567	4505
2.71633	4504
2.71700	4503
2.71767	4502
2.71833	4501
2.71900	4500
2.71967	4500
2.72033	4499
2.72100	4498
2.72167	4497
2.72233	4496
2.72300	4495
2.72367	4494
2.72433	4493
2.72500	4493
2.72567	4492
2.72633	4491
2.72700	4490
2.72767	4489
2.72833	4488
2.72900	4487
2.72967	4486
2.73033	4485
2.73100	4484
2.73167	4484
2.73233	4483
2.73300	4482
2.73367	4481
2.73433	4480
2.73500	4479
2.73567	4479
2.73633	4478
2.73700	4477
2.73767	4476
2.73833	4476
2.73900	4475
2.73967	4474
2.74033	4474
2.74100	4473
2.74167	4473
2.74233	4472
2.74300	4471
2.74367	4471
2.74433	4470
2.74500	4470
2.74567	4469
2.74633	4468
2.74700	4468
2.74767	4467
2.74833	4467
2.74900	4466
2.74967	4466
2.75033	4466
2.75100	4465
2.75167	4465
2.75233	4465
2.75300	4464
2.75367	4464
2.75433	4464
2.75500	4464
2.75567	4463
2.75633	4463
2.75700	4463
2.75767	4463
2.75833	4463
2.75900	4462
2.75967	4462
2.76033	4462
2.76100	4462
2.76167	4462
2.76233	4462
2.76300	4462
2.76367	4462
2.76433	4462
2.76500	4462
2.76567	4462
2.76633	4462
2.76700	4462
2.76767	4463
2.76833	4463
2.76900	4463
2.76967	4463
2.77033	4464
2.77100	4464
2.77167	4464
2.77233	4465
2.77300	4465
2.77367	4466
2.77433	4467
2.77500	4467
2.77567	4468
2.77633	4469
2.77700	4470
2.77767	4470
2.77833	4471
2.77900	4472
2.77967	4473
2.78033	4474
2.78100	4476
2.78167	4477
2.78233	4478
2.78300	4480
2.78367	4481
2.78433	4483
2.78500	4484
2.78567	4486
2.78633	4488
2.78700	4489
2.78767	4491
2.78833	4493
2.78900	4495
2.78967	4497
2.79033	4500
2.79100	4502
2.79167	4504
2.79233	4507
2.79300	4509
2.79367	4512
2.79433	4514
2.79500	4517
2.79567	4520
2.79633	4523
2.79700	4525
2.79767	4528
2.79833	4531
2.79900	4534
2.79967	4537
2.80033	4540
2.80100	4544
2.80167	4547
2.80233	4550
2.80300	4553
2.80367	4557
2.80433	4560
2.80500	4563
2.80567	4567
2.80633	4570
2.80700	4574
2.80767	4577
2.80833	4581
2.80900	4584
2.80967	4588
2.81033	4591
2.81100	4595
2.81167	4598
2.81233	4602
2.81300	4605
2.81367	4608
2.81433	4612
2.81500	4615
2.81567	4618
2.81633	4621
2.81700	4625
2.81767	4628
2.81833	4631
2.81900	4634
2.81967	4636
2.82033	4639
2.82100	4642
2.82167	4645
2.82233	4647
2.82300	4650
2.82367	4652
2.82433	4655
2.82500	4657
2.82567	4659
2.82633	4661
2.82700	4662
2.82767	4664
2.82833	4666
2.82900	4667
2.82967	4668
2.83033	4670
2.83100	4671
2.83167	4672
2.83233	4672
2.83300	4673
2.83367	4674
2.83433	4674
2.83500	4674
2.83567	4674
2.83633	4674
2.83700	4674
2.83767	4674
2.83833	4673
2.83900	4673
2.83967	4672
2.84033	4671
2.84100	4670
2.84167	4669
2.84233	4668
2.84300	4667
2.84367	4666
2.84433	4664
2.84500	4663
2.84567	4661
2.84633	4660
2.84700	4658
2.84767	4656
2.84833	4655
2.84900	4653
2.84967	4651
2.85033	4649
2.85100	4647
2.85167	4645
2.85233	4643
2.85300	4641
2.85367	4639
2.85433	4637
2.85500	4635
2.85567	4633
2.85633	4631
2.85700	4629
2.85767	4626
2.85833	4624
2.85900	4622
2.85967	4620
2.86033	4618
2.86100	4616
2.86167	4614
2.86233	4612
2.86300	4610
2.86367	4608
2.86433	4606
2.86500	4604
2.86567	4602
2.86633	4601
2.86700	4599
2.86767	4597
2.86833	4595
2.86900	4593
2.86967	4592
2.87033	4590
2.87100	4588
2.87167	4587
2.87233	4585
2.87300	4584
2.87367	4583
2.87433	4581
2.87500	4580
2.87567	4579
2.87633	4577
2.87700	4576
2.87767	4575
2.87833	4574
2.87900	4573
2.87967	4572
2.88033	4571
2.88100	4570
2.88167	4569
2.88233	4568
2.88300	4567
2.88367	4566
2.88433	4566
2.88500	4565
2.88567	4564
2.88633	4564
2.88700	4563
2.88767	4563
2.88833	4562
2.88900	4562
2.88967	4562
2.89033	4561
2.89100	4561
2.89167	4561
2.89233	4561
2.89300	4560
2.89367	4560
2.89433	4560
2.89500	4560
2.89567	4560
2.89633	4559
2.89700	4559
2.89767	4559
2.89833	4559
2.89900	4559
2.89967	4559
2.90033	4558
2.90100	4558
2.90167	4558
2.90233	4557
2.90300	4557
2.90367	4556
2.90433	4556
2.90500	4555
2.90567	4555
2.90633	4554
2.90700	4554
2.90767	4553
2.90833	4552
2.90900	4551
2.90967	4550
2.91033	4549
2.91100	4548
2.91167	4546
2.91233	4545
2.91300	4544
2.91367	4542
2.91433	4540
2.91500	4539
2.91567	4537
2.91633	4535
2.91700	4532
2.91767	4530
2.91833	4528
2.91900	4525
2.91967	4523
2.92033	4520
2.92100	4517
2.92167	4514
2.92233	4511
2.92300	4508
2.92367	4504
2.92433	4501
2.92500	4497
2.92567	4494
2.92633	4490
2.92700	4486
2.92767	4482
2.92833	4478
2.92900	4474
2.92967	4470
2.93033	4466
2.93100	4462
2.93167	4458
2.93233	4453
2.93300	4449
2.93367	4444
2.93433	4440
2.93500	4435
2.93567	4431
2.93633	4426
2.93700	4421
2.93767	4417
2.93833	4412
2.93900	4407
2.93967	4403
2.94033	4398
2.94100	4393
2.94167	4389
2.94233	4384
2.94300	4379
2.94367	4375
2.94433	4370
2.94500	4365
2.94567	4360
2.94633	4356
2.94700	4351
2.94767	4347
2.94833	4342
2.94900	4337
2.94967	4333
2.95033	4328
2.95100	4324
2.95167	4319
2.95233	4315
2.95300	4311
2.95367	4306
2.95433	4302
2.95500	4298
2.95567	4294
2.95633	4290
2.95700	4286
2.95767	4282
2.95833	4278
2.95900	4274
2.95967	4270
2.96033	4266
2.96100	4263
2.96167	4259
2.96233	4255
2.96300	4252
2.96367	4248
2.96433	4244
2.96500	4241
2.96567	4237
2.96633	4234
2.96700	4231
2.96767	4227
2.96833	4224
2.96900	4221
2.96967	4217
2.97033	4214
2.97100	4211
2.97167	4208
2.97233	4205
2.97300	4202
2.97367	4199
2.97433	4196
2.97500	4193
2.97567	4190
2.97633	4187
2.97700	4184
2.97767	4181
2.97833	4179
2.97900	4176
2.97967	4173
2.98033	4171
2.98100	4168
2.98167	4165
2.98233	4163
2.98300	4160
2.98367	4158
2.98433	4155
2.98500	4153
2.98567	4151
2.98633	4148
2.98700	4146
2.98767	4144
2.98833	4141
2.98900	4139
2.98967	4137
2.99033	4135
2.99100	4132
2.99167	4130
2.99233	4128
2.99300	4126
2.99367	4124
2.99433	4122
2.99500	4120
2.99567	4118
2.99633	4116
2.99700	4114
2.99767	4113
2.99833	4111
2.99900	4109
2.99967	4107
3.00033	4105
3.00100	4103
3.00167	4101
3.00233	4099
3.00300	4098
3.00367	4096
3.00433	4094
3.00500	4092
3.00567	4091
3.00633	4089
3.00700	4087
3.00767	4085
3.00833	4084
3.00900	4082
3.00967	4081
3.01033	4079
3.01100	4077
3.01167	4076
3.01233	4074
3.01300	4073
3.01367	4072
3.01433	4070
3.01500	4069
3.01567	4068
3.01633	4066
3.01700	4065
3.01767	4064
3.01833	4063
3.01900	4061
3.01967	4060
3.02033	4059
3.02100	4058
3.02167	4057
3.02233	4056
3.02300	4055
3.02367	4053
3.02433	4052
3.02500	4051
3.02567	4050
3.02633	4049
3.02700	4048
3.02767	4047
3.02833	4046
3.02900	4045
3.02967	4044
3.03033	4043
3.03100	4042
3.03167	4041
3.03233	4040
3.03300	4039
3.03367	4038
3.03433	4037
3.03500	4036
3.03567	4035
3.03633	4034
3.03700	4033
3.03767	4032
3.03833	4031
3.03900	4031
3.03967	4030
3.04033	4029
3.04100	4028
3.04167	4027
3.04233	4026
3.04300	4026
3.04367	4025
3.04433	4024
3.04500	4023
3.04567	4022
3.04633	4021
3.04700	4021
3.04767	4020
3.04833	4019
3.04900	4019
3.04967	4018
3.05033	4017
3.05100	4017
3.05167	4016
3.05233	4016
3.05300	4015
3.05367	4015
3.05433	4015
3.05500	4014
3.05567	4014
3.05633	4014
3.05700	4013
3.05767	4013
3.05833	4013
3.05900	4013
3.05967	4013
3.06033	4013
3.06100	4013
3.06167	4012
3.06233	4012
3.06300	4012
3.06367	4013
3.06433	4013
3.06500	4013
3.06567	4013
3.06633	4013
3.06700	4013
3.06767	4014
3.06833	4014
3.06900	4015
3.06967	4015
3.07033	4015
3.07100	4016
3.07167	4016
3.07233	4017
3.07300	4017
3.07367	4018
3.07433	4019
3.07500	4019
3.07567	4020
3.07633	4021
3.07700	4021
3.07767	4022
3.07833	4023
3.07900	4023
3.07967	4024
3.08033	4025
3.08100	4026
3.08167	4026
3.08233	4027
3.08300	4028
3.08367	4028
3.08433	4029
3.08500	4030
3.08567	4030
3.08633	4031
3.08700	4031
3.08767	4032
3.08833	4032
3.08900	4032
3.08967	4033
3.09033	4033
3.09100	4033
3.09167	4033
3.09233	4034
3.09300	4034
3.09367	4034
3.09433	4034
3.09500	4034
3.09567	4034
3.09633	4034
3.09700	4034
3.09767	4033
3.09833	4033
3.09900	4033
3.09967	4032
3.10033	4032
3.10100	4031
3.10167	4030
3.10233	4030
3.10300	4029
3.10367	4028
3.10433	4027
3.10500	4026
3.10567	4025
3.10633	4024
3.10700	4023
3.10767	4022
3.10833	4021
3.10900	4019
3.10967	4018
3.11033	4017
3.11100	4015
3.11167	4014
3.11233	4013
3.11300	4011
3.11367	4009
3.11433	4008
3.11500	4006
3.11567	4004
3.11633	4003
3.11700	4001
3.11767	3999
3.11833	3997
3.11900	3996
3.11967	3994
3.12033	3992
3.12100	3990
3.12167	3988
3.12233	3986
3.12300	3984
3.12367	3982
3.12433	3980
3.12500	3979
3.12567	3977
3.12633	3975
3.12700	3973
3.12767	3971
3.12833	3969
3.12900	3967
3.12967	3965
3.13033	3963
3.13100	3961
3.13167	3959
3.13233	3957
3.13300	3955
3.13367	3954
3.13433	3952
3.13500	3950
3.13567	3948
3.13633	3946
3.13700	3944
3.13767	3942
3.13833	3941
3.13900	3939
3.13967	3937
3.14033	3935
3.14100	3933
3.14167	3932
3.14233	3930
3.14300	3928
3.14367	3926
3.14433	3925
3.14500	3923
3.14567	3921
3.14633	3920
3.14700	3918
3.14767	3916
3.14833	3915
3.14900	3913
3.14967	3912
3.15033	3910
3.15100	3908
3.15167	3907
3.15233	3905
3.15300	3904
3.15367	3902
3.15433	3901
3.15500	3899
3.15567	3898
3.15633	3896
3.15700	3895
3.15767	3894
3.15833	3892
3.15900	3891
3.15967	3889
3.16033	3888
3.16100	3887
3.16167	3886
3.16233	3884
3.16300	3883
3.16367	3882
3.16433	3881
3.16500	3880
3.16567	3879
3.16633	3878
3.16700	3877
3.16767	3875
3.16833	3874
3.16900	3873
3.16967	3872
3.17033	3871
3.17100	3870
3.17167	3869
3.17233	3868
3.17300	3867
3.17367	3866
3.17433	3865
3.17500	3864
3.17567	3863
3.17633	3862
3.17700	3861
3.17767	3860
3.17833	3859
3.17900	3858
3.17967	3857
3.18033	3856
3.18100	3855
3.18167	3854
3.18233	3853
3.18300	3852
3.18367	3851
3.18433	3850
3.18500	3849
3.18567	3848
3.18633	3847
3.18700	3846
3.18767	3845
3.18833	3844
3.18900	3843
3.18967	3843
3.19033	3842
3.19100	3841
3.19167	3840
3.19233	3839
3.19300	3838
3.19367	3837
3.19433	3836
3.19500	3835
3.19567	3834
3.19633	3834
3.19700	3833
3.19767	3832
3.19833	3831
3.19900	3830
3.19967	3829
3.20033	3829
3.20100	3828
3.20167	3827
3.20233	3826
3.20300	3825
3.20367	3825
3.20433	3824
3.20500	3823
3.20567	3822
3.20633	3822
3.20700	3821
3.20767	3820
3.20833	3819
3.20900	3818
3.20967	3818
3.21033	3817
3.21100	3816
3.21167	3815
3.21233	3814
3.21300	3814
3.21367	3813
3.21433	3812
3.21500	3812
3.21567	3811
3.21633	3810
3.21700	3809
3.21767	3809
3.21833	3808
3.21900	3807
3.21967	3807
3.22033	3806
3.22100	3805
3.22167	3805
3.22233	3804
3.22300	3803
3.22367	3803
3.22433	3802
3.22500	3802
3.22567	3801
3.22633	3800
3.22700	3800
3.22767	3799
3.22833	3799
3.22900	3798
3.22967	3798
3.23033	3797
3.23100	3796
3.23167	3796
3.23233	3795
3.23300	3795
3.23367	3794
3.23433	3794
3.23500	3793
3.23567	3793
3.23633	3792
3.23700	3792
3.23767	3792
3.23833	3791
3.23900	3791
3.23967	3790
3.24033	3790
3.24100	3790
3.24167	3789
3.24233	3789
3.24300	3788
3.24367	3788
3.24433	3788
3.24500	3787
3.24567	3787
3.24633	3787
3.24700	3786
3.24767	3786
3.24833	3786
3.24900	3785
3.24967	3785
3.25033	3785
3.25100	3785
3.25167	3784
3.25233	3784
3.25300	3784
3.25367	3783
3.25433	3783
3.25500	3783
3.25567	3782
3.25633	3782
3.25700	3781
3.25767	3781
3.25833	3780
3.25900	3780
3.25967	3780
3.26033	3779
3.26100	3779
3.26167	3778
3.26233	3778
3.26300	3777
3.26367	3777
3.26433	3777
3.26500	3776
3.26567	3776
3.26633	3776
3.26700	3775
3.26767	3775
3.26833	3775
3.26900	3775
3.26967	3774
3.27033	3774
3.27100	3774
3.27167	3773
3.27233	3773
3.27300	3772
3.27367	3772
3.27433	3771
3.27500	3771
3.27567	3771
3.27633	3770
3.27700	3770
3.27767	3769
3.27833	3769
3.27900	3769
3.27967	3768
3.28033	3768
3.28100	3768
3.28167	3767
3.28233	3767
3.28300	3767
3.28367	3766
3.28433	3766
3.28500	3765
3.28567	3765
3.28633	3765
3.28700	3764
3.28767	3764
3.28833	3763
3.28900	3763
3.28967	3763
3.29033	3762
3.29100	3762
3.29167	3762
3.29233	3761
3.29300	3761
3.29367	3761
3.29433	3760
3.29500	3760
3.29567	3760
3.29633	3760
3.29700	3759
3.29767	3759
3.29833	3759
3.29900	3758
3.29967	3758
3.30033	3758
3.30100	3758
3.30167	3757
3.30233	3757
3.30300	3757
3.30367	3756
3.30433	3756
3.30500	3756
3.30567	3755
3.30633	3755
3.30700	3755
3.30767	3754
3.30833	3754
3.30900	3754
3.30967	3753
3.31033	3753
3.31100	3752
3.31167	3752
3.31233	3752
3.31300	3751
3.31367	3751
3.31433	3751
3.31500	3750
3.31567	3750
3.31633	3750
3.31700	3750
3.31767	3749
3.31833	3749
3.31900	3749
3.31967	3749
3.32033	3748
3.32100	3748
3.32167	3748
3.32233	3748
3.32300	3747
3.32367	3747
3.32433	3747
3.32500	3747
3.32567	3747
3.32633	3746
3.32700	3746
3.32767	3746
3.32833	3746
3.32900	3746
3.32967	3746
3.33033	3745
3.33100	3745
3.33167	3745
3.33233	3744
3.33300	3744
3.33367	3744
3.33433	3743
3.33500	3743
3.33567	3743
3.33633	3742
3.33700	3742
3.33767	3742
3.33833	3741
3.33900	3741
3.33967	3741
3.34033	3740
3.34100	3740
3.34167	3739
3.34233	3739
3.34300	3738
3.34367	3738
3.34433	3737
3.34500	3737
3.34567	3737
3.34633	3736
3.34700	3736
3.34767	3736
3.34833	3735
3.34900	3735
3.34967	3735
3.35033	3735
3.35100	3734
3.35167	3734
3.35233	3734
3.35300	3734
3.35367	3733
3.35433	3733
3.35500	3733
3.35567	3733
3.35633	3733
3.35700	3733
3.35767	3732
3.35833	3732
3.35900	3732
3.35967	3732
3.36033	3732
3.36100	3731
3.36167	3731
3.36233	3731
3.36300	3731
3.36367	3731
3.36433	3730
3.36500	3730
3.36567	3730
3.36633	3730
3.36700	3730
3.36767	3730
3.36833	3730
3.36900	3730
3.36967	3730
3.37033	3729
3.37100	3729
3.37167	3729
3.37233	3729
3.37300	3729
3.37367	3729
3.37433	3729
3.37500	3728
3.37567	3728
3.37633	3728
3.37700	3728
3.37767	3728
3.37833	3728
3.37900	3728
3.37967	3728
3.38033	3728
3.38100	3728
3.38167	3728
3.38233	3728
3.38300	3728
3.38367	3728
3.38433	3729
3.38500	3729
3.38567	3729
3.38633	3729
3.38700	3730
3.38767	3730
3.38833	3730
3.38900	3730
3.38967	3731
3.39033	3731
3.39100	3732
3.39167	3732
3.39233	3732
3.39300	3733
3.39367	3733
3.39433	3733
3.39500	3734
3.39567	3734
3.39633	3734
3.39700	3735
3.39767	3735
3.39833	3735
3.39900	3735
3.39967	3736
3.40033	3736
3.40100	3736
3.40167	3736
3.40233	3737
3.40300	3737
3.40367	3737
3.40433	3738
3.40500	3738
3.40567	3738
3.40633	3739
3.40700	3739
3.40767	3740
3.40833	3740
3.40900	3740
3.40967	3741
3.41033	3741
3.41100	3741
3.41167	3742
3.41233	3742
3.41300	3743
3.41367	3743
3.41433	3743
3.41500	3744
3.41567	3744
3.41633	3745
3.41700	3745
3.41767	3745
3.41833	3746
3.41900	3746
3.41967	3747
3.42033	3747
3.42100	3748
3.42167	3749
3.42233	3749
3.42300	3750
3.42367	3750
3.42433	3751
3.42500	3751
3.42567	3752
3.42633	3753
3.42700	3753
3.42767	3754
3.42833	3755
3.42900	3756
3.42967	3756
3.43033	3757
3.43100	3758
3.43167	3759
3.43233	3760
3.43300	3761
3.43367	3762
3.43433	3763
3.43500	3764
3.43567	3765
3.43633	3766
3.43700	3767
3.43767	3768
3.43833	3769
3.43900	3770
3.43967	3771
3.44033	3772
3.44100	3773
3.44167	3774
3.44233	3775
3.44300	3776
3.44367	3777
3.44433	3778
3.44500	3780
3.44567	3781
3.44633	3782
3.44700	3783
3.44767	3785
3.44833	3786
3.44900	3787
3.44967	3789
3.45033	3790
3.45100	3792
3.45167	3793
3.45233	3795
3.45300	3796
3.45367	3798
3.45433	3800
3.45500	3801
3.45567	3803
3.45633	3805
3.45700	3806
3.45767	3808
3.45833	3810
3.45900	3812
3.45967	3813
3.46033	3815
3.46100	3817
3.46167	3819
3.46233	3821
3.46300	3823
3.46367	3825
3.46433	3827
3.46500	3829
3.46567	3831
3.46633	3834
3.46700	3836
3.46767	3838
3.46833	3840
3.46900	3842
3.46967	3845
3.47033	3847
3.47100	3849
3.47167	3852
3.47233	3854
3.47300	3856
3.47367	3859
3.47433	3861
3.47500	3864
3.47567	3867
3.47633	3869
3.47700	3872
3.47767	3874
3.47833	3877
3.47900	3880
3.47967	3883
3.48033	3886
3.48100	3888
3.48167	3891
3.48233	3894
3.48300	3898
3.48367	3901
3.48433	3904
3.48500	3907
3.48567	3910
3.48633	3914
3.48700	3917
3.48767	3921
3.48833	3924
3.48900	3928
3.48967	3932
3.49033	3936
3.49100	3940
3.49167	3944
3.49233	3948
3.49300	3953
3.49367	3958
3.49433	3963
3.49500	3968
3.49567	3973
3.49633	3978
3.49700	3984
3.49767	3990
3.49833	3996
3.49900	4002
3.49967	4009
3.50033	4016
3.50100	4023
3.50167	4031
3.50233	4039
3.50300	4047
3.50367	4055
3.50433	4064
3.50500	4074
3.50567	4084
3.50633	4094
3.50700	4104
3.50767	4115
3.50833	4127
3.50900	4139
3.50967	4152
3.51033	4165
3.51100	4179
3.51167	4193
3.51233	4208
3.51300	4224
3.51367	4240
3.51433	4257
3.51500	4274
3.51567	4292
3.51633	4311
3.51700	4331
3.51767	4352
3.51833	4373
3.51900	4395
3.51967	4418
3.52033	4441
3.52100	4466
3.52167	4491
3.52233	4517
3.52300	4544
3.52367	4571
3.52433	4600
3.52500	4629
3.52567	4659
3.52633	4690
3.52700	4721
3.52767	4754
3.52833	4787
3.52900	4821
3.52967	4855
3.53033	4891
3.53100	4927
3.53167	4964
3.53233	5002
3.53300	5041
3.53367	5081
3.53433	5121
3.53500	5162
3.53567	5203
3.53633	5246
3.53700	5289
3.53767	5332
3.53833	5376
3.53900	5421
3.53967	5466
3.54033	5512
3.54100	5558
3.54167	5604
3.54233	5651
3.54300	5699
3.54367	5746
3.54433	5794
3.54500	5842
3.54567	5890
3.54633	5939
3.54700	5987
3.54767	6036
3.54833	6084
3.54900	6133
3.54967	6181
3.55033	6230
3.55100	6278
3.55167	6326
3.55233	6374
3.55300	6421
3.55367	6468
3.55433	6515
3.55500	6561
3.55567	6607
3.55633	6652
3.55700	6697
3.55767	6741
3.55833	6784
3.55900	6827
3.55967	6869
3.56033	6910
3.56100	6951
3.56167	6991
3.56233	7030
3.56300	7068
3.56367	7105
3.56433	7141
3.56500	7176
3.56567	7211
3.56633	7244
3.56700	7276
3.56767	7308
3.56833	7338
3.56900	7367
3.56967	7395
3.57033	7423
3.57100	7449
3.57167	7474
3.57233	7498
3.57300	7520
3.57367	7542
3.57433	7563
3.57500	7582
3.57567	7600
3.57633	7617
3.57700	7633
3.57767	7648
3.57833	7662
3.57900	7674
3.57967	7686
3.58033	7696
3.58100	7706
3.58167	7714
3.58233	7721
3.58300	7728
3.58367	7733
3.58433	7738
3.58500	7741
3.58567	7744
3.58633	7745
3.58700	7746
3.58767	7746
3.58833	7745
3.58900	7743
3.58967	7740
3.59033	7737
3.59100	7732
3.59167	7727
3.59233	7721
3.59300	7714
3.59367	7707
3.59433	7699
3.59500	7690
3.59567	7680
3.59633	7670
3.59700	7659
3.59767	7647
3.59833	7635
3.59900	7622
3.59967	7609
3.60033	7595
3.60100	7581
3.60167	7566
3.60233	7551
3.60300	7535
3.60367	7519
3.60433	7502
3.60500	7485
3.60567	7468
3.60633	7450
3.60700	7432
3.60767	7414
3.60833	7395
3.60900	7376
3.60967	7357
3.61033	7337
3.61100	7317
3.61167	7297
3.61233	7276
3.61300	7255
3.61367	7234
3.61433	7213
3.61500	7191
3.61567	7169
3.61633	7147
3.61700	7125
3.61767	7102
3.61833	7080
3.61900	7057
3.61967	7034
3.62033	7010
3.62100	6987
3.62167	6963
3.62233	6939
3.62300	6915
3.62367	6891
3.62433	6867
3.62500	6842
3.62567	6818
3.62633	6793
3.62700	6768
3.62767	6743
3.62833	6718
3.62900	6693
3.62967	6667
3.63033	6642
3.63100	6616
3.63167	6590
3.63233	6565
3.63300	6539
3.63367	6513
3.63433	6487
3.63500	6460
3.63567	6434
3.63633	6408
3.63700	6381
3.63767	6355
3.63833	6328
3.63900	6302
3.63967	6275
3.64033	6249
3.64100	6222
3.64167	6196
3.64233	6169
3.64300	6142
3.64367	6116
3.64433	6089
3.64500	6063
3.64567	6037
3.64633	6010
3.64700	5984
3.64767	5958
3.64833	5932
3.64900	5906
3.64967	5880
3.65033	5854
3.65100	5828
3.65167	5803
3.65233	5777
3.65300	5752
3.65367	5727
3.65433	5702
3.65500	5677
3.65567	5652
3.65633	5627
3.65700	5603
3.65767	5578
3.65833	5554
3.65900	5530
3.65967	5506
3.66033	5482
3.66100	5459
3.66167	5436
3.66233	5413
3.66300	5390
3.66367	5367
3.66433	5344
3.66500	5322
3.66567	5300
3.66633	5278
3.66700	5256
3.66767	5235
3.66833	5213
3.66900	5192
3.66967	5171
3.67033	5150
3.67100	5130
3.67167	5110
3.67233	5090
3.67300	5070
3.67367	5051
3.67433	5032
3.67500	5013
3.67567	4994
3.67633	4976
3.67700	4957
3.67767	4940
3.67833	4922
3.67900	4904
3.67967	4887
3.68033	4870
3.68100	4853
3.68167	4836
3.68233	4820
3.68300	4804
3.68367	4788
3.68433	4772
3.68500	4757
3.68567	4741
3.68633	4726
3.68700	4711
3.68767	4697
3.68833	4682
3.68900	4668
3.68967	4654
3.69033	4640
3.69100	4627
3.69167	4613
3.69233	4600
3.69300	4587
3.69367	4574
3.69433	4561
3.69500	4549
3.69567	4536
3.69633	4524
3.69700	4512
3.69767	4500
3.69833	4489
3.69900	4477
3.69967	4466
3.70033	4455
3.70100	4443
3.70167	4433
3.70233	4422
3.70300	4411
3.70367	4401
3.70433	4390
3.70500	4380
3.70567	4370
3.70633	4360
3.70700	4351
3.70767	4341
3.70833	4332
3.70900	4322
3.70967	4313
3.71033	4304
3.71100	4295
3.71167	4287
3.71233	4278
3.71300	4269
3.71367	4261
3.71433	4253
3.71500	4245
3.71567	4237
3.71633	4229
3.71700	4221
3.71767	4214
3.71833	4206
3.71900	4199
3.71967	4192
3.72033	4185
3.72100	4178
3.72167	4171
3.72233	4164
3.72300	4157
3.72367	4151
3.72433	4144
3.72500	4138
3.72567	4132
3.72633	4125
3.72700	4119
3.72767	4113
3.72833	4107
3.72900	4101
3.72967	4096
3.73033	4090
3.73100	4084
3.73167	4079
3.73233	4073
3.73300	4068
3.73367	4062
3.73433	4057
3.73500	4052
3.73567	4046
3.73633	4041
3.73700	4036
3.73767	4031
3.73833	4026
3.73900	4021
3.73967	4016
3.74033	4011
3.74100	4006
3.74167	4002
3.74233	3997
3.74300	3992
3.74367	3988
3.74433	3983
3.74500	3979
3.74567	3975
3.74633	3970
3.74700	3966
3.74767	3962
3.74833	3958
3.74900	3954
3.74967	3950
3.75033	3946
3.75100	3942
3.75167	3938
3.75233	3934
3.75300	3930
3.75367	3926
3.75433	3922
3.75500	3918
3.75567	3915
3.75633	3911
3.75700	3907
3.75767	3904
3.75833	3900
3.75900	3897
3.75967	3893
3.76033	3890
3.76100	3886
3.76167	3883
3.76233	3880
3.76300	3877
3.76367	3873
3.76433	3870
3.76500	3867
3.76567	3864
3.76633	3861
3.76700	3858
3.76767	3855
3.76833	3852
3.76900	3848
3.76967	3845
3.77033	3842
3.77100	3839
3.77167	3837
3.77233	3834
3.77300	3831
3.77367	3828
3.77433	3825
3.77500	3822
3.77567	3819
3.77633	3817
3.77700	3814
3.77767	3811
3.77833	3809
3.77900	3806
3.77967	3804
3.78033	3801
3.78100	3798
3.78167	3796
3.78233	3793
3.78300	3791
3.78367	3788
3.78433	3786
3.78500	3784
3.78567	3781
3.78633	3779
3.78700	3776
3.78767	3774
3.78833	3772
3.78900	3769
3.78967	3767
3.79033	3764
3.79100	3762
3.79167	3759
3.79233	3757
3.79300	3754
3.79367	3752
3.79433	3749
3.79500	3747
3.79567	3745
3.79633	3742
3.79700	3740
3.79767	3738
3.79833	3735
3.79900	3733
3.79967	3731
3.80033	3729
3.80100	3727
3.80167	3724
3.80233	3722
3.80300	3720
3.80367	3718
3.80433	3716
3.80500	3714
3.80567	3712
3.80633	3710
3.80700	3708
3.80767	3706
3.80833	3704
3.80900	3702
3.80967	3700
3.81033	3698
3.81100	3696
3.81167	3694
3.81233	3692
3.81300	3690
3.81367	3688
3.81433	3686
3.81500	3684
3.81567	3683
3.81633	3681
3.81700	3679
3.81767	3677
3.81833	3675
3.81900	3674
3.81967	3672
3.82033	3670
3.82100	3669
3.82167	3667
3.82233	3665
3.82300	3664
3.82367	3662
3.82433	3661
3.82500	3659
3.82567	3657
3.82633	3656
3.82700	3654
3.82767	3652
3.82833	3651
3.82900	3649
3.82967	3647
3.83033	3646
3.83100	3644
3.83167	3642
3.83233	3641
3.83300	3639
3.83367	3637
3.83433	3636
3.83500	3634
3.83567	3632
3.83633	3631
3.83700	3629
3.83767	3627
3.83833	3625
3.83900	3624
3.83967	3622
3.84033	3620
3.84100	3618
3.84167	3617
3.84233	3615
3.84300	3613
3.84367	3612
3.84433	3610
3.84500	3609
3.84567	3607
3.84633	3606
3.84700	3604
3.84767	3602
3.84833	3601
3.84900	3599
3.84967	3598
3.85033	3596
3.85100	3595
3.85167	3594
3.85233	3592
3.85300	3591
3.85367	3589
3.85433	3588
3.85500	3587
3.85567	3585
3.85633	3584
3.85700	3583
3.85767	3582
3.85833	3580
3.85900	3579
3.85967	3578
3.86033	3576
3.86100	3575
3.86167	3574
3.86233	3573
3.86300	3571
3.86367	3570
3.86433	3569
3.86500	3568
3.86567	3566
3.86633	3565
3.86700	3564
3.86767	3563
3.86833	3561
3.86900	3560
3.86967	3559
3.87033	3558
3.87100	3557
3.87167	3555
3.87233	3554
3.87300	3553
3.87367	3552
3.87433	3551
3.87500	3550
3.87567	3548
3.87633	3547
3.87700	3546
3.87767	3545
3.87833	3544
3.87900	3543
3.87967	3542
3.88033	3541
3.88100	3540
3.88167	3539
3.88233	3537
3.88300	3536
3.88367	3535
3.88433	3534
3.88500	3533
3.88567	3532
3.88633	3531
3.88700	3530
3.88767	3529
3.88833	3528
3.88900	3527
3.88967	3526
3.89033	3525
3.89100	3524
3.89167	3523
3.89233	3522
3.89300	3521
3.89367	3520
3.89433	3519
3.89500	3518
3.89567	3517
3.89633	3516
3.89700	3515
3.89767	3514
3.89833	3514
3.89900	3513
3.89967	3512
3.90033	3511
3.90100	3510
3.90167	3510
3.90233	3509
3.90300	3508
3.90367	3508
3.90433	3507
3.90500	3506
3.90567	3505
3.90633	3505
3.90700	3504
3.90767	3503
3.90833	3503
3.90900	3502
3.90967	3502
3.91033	3501
3.91100	3501
3.91167	3500
3.91233	3499
3.91300	3499
3.91367	3498
3.91433	3498
3.91500	3497
3.91567	3497
3.91633	3496
3.91700	3496
3.91767	3495
3.91833	3494
3.91900	3494
3.91967	3493
3.92033	3493
3.92100	3492
3.92167	3492
3.92233	3491
3.92300	3490
3.92367	3490
3.92433	3489
3.92500	3488
3.92567	3488
3.92633	3487
3.92700	3487
3.92767	3486
3.92833	3485
3.92900	3485
3.92967	3484
3.93033	3484
3.93100	3483
3.93167	3482
3.93233	3482
3.93300	3481
3.93367	3480
3.93433	3480
3.93500	3479
3.93567	3479
3.93633	3478
3.93700	3477
3.93767	3477
3.93833	3476
3.93900	3475
3.93967	3475
3.94033	3474
3.94100	3473
3.94167	3473
3.94233	3472
3.94300	3471
3.94367	3471
3.94433	3470
3.94500	3469
3.94567	3469
3.94633	3468
3.94700	3467
3.94767	3466
3.94833	3466
3.94900	3465
3.94967	3464
3.95033	3463
3.95100	3463
3.95167	3462
3.95233	3461
3.95300	3460
3.95367	3459
3.95433	3459
3.95500	3458
3.95567	3457
3.95633	3456
3.95700	3455
3.95767	3455
3.95833	3454
3.95900	3453
3.95967	3452
3.96033	3451
3.96100	3451
3.96167	3450
3.96233	3449
3.96300	3449
3.96367	3448
3.96433	3447
3.96500	3447
3.96567	3446
3.96633	3446
3.96700	3445
3.96767	3444
3.96833	3444
3.96900	3443
3.96967	3443
3.97033	3442
3.97100	3441
3.97167	3441
3.97233	3440
3.97300	3440
3.97367	3439
3.97433	3439
3.97500	3438
3.97567	3438
3.97633	3438
3.97700	3437
3.97767	3437
3.97833	3436
3.97900	3436
3.97967	3436
3.98033	3436
3.98100	3435
3.98167	3435
3.98233	3435
3.98300	3434
3.98367	3434
3.98433	3434
3.98500	3434
3.98567	3434
3.98633	3433
3.98700	3433
3.98767	3433
3.98833	3433
3.98900	3433
3.98967	3433
3.99033	3433
3.99100	3433
3.99167	3433
3.99233	3433
3.99300	3433
3.99367	3433
3.99433	3433
3.99500	3434
3.99567	3434
3.99633	3434
3.99700	3434
3.99767	3435
3.99833	3435
3.99900	3436
3.99967	3436
4.00033	3437
4.00100	3437
4.00167	3438
4.00233	3439
4.00300	3439
4.00367	3440
4.00433	3441
4.00500	3441
4.00567	3442
4.00633	3443
4.00700	3444
4.00767	3445
4.00833	3446
4.00900	3447
4.00967	3448
4.01033	3449
4.01100	3450
4.01167	3451
4.01233	3453
4.01300	3454
4.01367	3456
4.01433	3458
4.01500	3459
4.01567	3461
4.01633	3463
4.01700	3465
4.01767	3467
4.01833	3470
4.01900	3472
4.01967	3474
4.02033	3476
4.02100	3479
4.02167	3481
4.02233	3484
4.02300	3486
4.02367	3489
4.02433	3492
4.02500	3494
4.02567	3497
4.02633	3500
4.02700	3503
4.02767	3505
4.02833	3508
4.02900	3512
4.02967	3515
4.03033	3518
4.03100	3521
4.03167	3524
4.03233	3528
4.03300	3531
4.03367	3535
4.03433	3539
4.03500	3542
4.03567	3546
4.03633	3550
4.03700	3554
4.03767	3558
4.03833	3562
4.03900	3566
4.03967	3570
4.04033	3574
4.04100	3578
4.04167	3582
4.04233	3587
4.04300	3591
4.04367	3595
4.04433	3600
4.04500	3604
4.04567	3608
4.04633	3613
4.04700	3617
4.04767	3622
4.04833	3627
4.04900	3631
4.04967	3636
4.05033	3641
4.05100	3645
4.05167	3650
4.05233	3655
4.05300	3659
4.05367	3664
4.05433	3668
4.05500	3673
4.05567	3678
4.05633	3682
4.05700	3687
4.05767	3692
4.05833	3696
4.05900	3701
4.05967	3705
4.06033	3710
4.06100	3715
4.06167	3719
4.06233	3724
4.06300	3728
4.06367	3733
4.06433	3738
4.06500	3742
4.06567	3747
4.06633	3751
4.06700	3756
4.06767	3760
4.06833	3765
4.06900	3769
4.06967	3774
4.07033	3778
4.07100	3783
4.07167	3787
4.07233	3791
4.07300	3796
4.07367	3800
4.07433	3804
4.07500	3808
4.07567	3812
4.07633	3817
4.07700	3821
4.07767	3825
4.07833	3829
4.07900	3832
4.07967	3836
4.08033	3840
4.08100	3844
4.08167	3847
4.08233	3851
4.08300	3854
4.08367	3858
4.08433	3861
4.08500	3865
4.08567	3868
4.08633	3871
4.08700	3874
4.08767	3877
4.08833	3880
4.08900	3883
4.08967	3886
4.09033	3888
4.09100	3891
4.09167	3894
4.09233	3896
4.09300	3899
4.09367	3901
4.09433	3903
4.09500	3905
4.09567	3907
4.09633	3909
4.09700	3911
4.09767	3913
4.09833	3915
4.09900	3917
4.09967	3918
4.10033	3920
4.10100	3922
4.10167	3923
4.10233	3925
4.10300	3926
4.10367	3928
4.10433	3929
4.10500	3930
4.10567	3932
4.10633	3933
4.10700	3934
4.10767	3935
4.10833	3936
4.10900	3937
4.10967	3938
4.11033	3939
4.11100	3940
4.11167	3941
4.11233	3942
4.11300	3943
4.11367	3944
4.11433	3945
4.11500	3945
4.11567	3946
4.11633	3946
4.11700	3947
4.11767	3947
4.11833	3948
4.11900	3948
4.11967	3948
4.12033	3949
4.12100	3949
4.12167	3949
4.12233	3949
4.12300	3949
4.12367	3949
4.12433	3950
4.12500	3950
4.12567	3950
4.12633	3950
4.12700	3950
4.12767	3950
4.12833	3950
4.12900	3950
4.12967	3950
4.13033	3950
4.13100	3950
4.13167	3950
4.13233	3950
4.13300	3950
4.13367	3950
4.13433	3950
4.13500	3949
4.13567	3949
4.13633	3949
4.13700	3949
4.13767	3949
4.13833	3948
4.13900	3948
4.13967	3948
4.14033	3948
4.14100	3948
4.14167	3947
4.14233	3947
4.14300	3947
4.14367	3947
4.14433	3947
4.14500	3946
4.14567	3946
4.14633	3946
4.14700	3945
4.14767	3945
4.14833	3945
4.14900	3945
4.14967	3944
4.15033	3944
4.15100	3944
4.15167	3943
4.15233	3943
4.15300	3942
4.15367	3942
4.15433	3942
4.15500	3941
4.15567	3941
4.15633	3940
4.15700	3940
4.15767	3939
4.15833	3939
4.15900	3938
4.15967	3938
4.16033	3937
4.16100	3937
4.16167	3936
4.16233	3936
4.16300	3935
4.16367	3934
4.16433	3934
4.16500	3933
4.16567	3933
4.16633	3932
4.16700	3931
4.16767	3931
4.16833	3930
4.16900	3929
4.16967	3929
4.17033	3928
4.17100	3927
4.17167	3927
4.17233	3926
4.17300	3925
4.17367	3925
4.17433	3924
4.17500	3923
4.17567	3923
4.17633	3922
4.17700	3921
4.17767	3921
4.17833	3920
4.17900	3920
4.17967	3919
4.18033	3918
4.18100	3918
4.18167	3917
4.18233	3917
4.18300	3917
4.18367	3916
4.18433	3916
4.18500	3916
4.18567	3915
4.18633	3915
4.18700	3915
4.18767	3915
4.18833	3915
4.18900	3915
4.18967	3915
4.19033	3915
4.19100	3915
4.19167	3915
4.19233	3915
4.19300	3915
4.19367	3915
4.19433	3916
4.19500	3916
4.19567	3917
4.19633	3917
4.19700	3918
4.19767	3919
4.19833	3920
4.19900	3921
4.19967	3922
4.20033	3924
4.20100	3925
4.20167	3927
4.20233	3928
4.20300	3930
4.20367	3932
4.20433	3934
4.20500	3936
4.20567	3939
4.20633	3941
4.20700	3944
4.20767	3947
4.20833	3950
4.20900	3953
4.20967	3956
4.21033	3960
4.21100	3963
4.21167	3967
4.21233	3971
4.21300	3975
4.21367	3980
4.21433	3985
4.21500	3990
4.21567	3995
4.21633	4000
4.21700	4006
4.21767	4012
4.21833	4018
4.21900	4024
4.21967	4031
4.22033	4038
4.22100	4045
4.22167	4052
4.22233	4059
4.22300	4067
4.22367	4075
4.22433	4084
4.22500	4092
4.22567	4101
4.22633	4110
4.22700	4120
4.22767	4130
4.22833	4140
4.22900	4150
4.22967	4161
4.23033	4172
4.23100	4184
4.23167	4195
4.23233	4208
4.23300	4220
4.23367	4233
4.23433	4246
4.23500	4259
4.23567	4273
4.23633	4287
4.23700	4302
4.23767	4316
4.23833	4332
4.23900	4347
4.23967	4363
4.24033	4379
4.24100	4396
4.24167	4413
4.24233	4431
4.24300	4449
4.24367	4467
4.24433	4486
4.24500	4505
4.24567	4524
4.24633	4544
4.24700	4564
4.24767	4585
4.24833	4606
4.24900	4628
4.24967	4649
4.25033	4672
4.25100	4694
4.25167	4717
4.25233	4740
4.25300	4764
4.25367	4788
4.25433	4813
4.25500	4838
4.25567	4863
4.25633	4888
4.25700	4914
4.25767	4940
4.25833	4967
4.25900	4993
4.25967	5020
4.26033	5048
4.26100	5076
4.26167	5104
4.26233	5132
4.26300	5161
4.26367	5190
4.26433	5219
4.26500	5249
4.26567	5279
4.26633	5309
4.26700	5340
4.26767	5371
4.26833	5402
4.26900	5433
4.26967	5464
4.27033	5496
4.27100	5528
4.27167	5560
4.27233	5592
4.27300	5625
4.27367	5658
4.27433	5690
4.27500	5723
4.27567	5757
4.27633	5790
4.27700	5824
4.27767	5857
4.27833	5891
4.27900	5925
4.27967	5959
4.28033	5994
4.28100	6028
4.28167	6062
4.28233	6097
4.28300	6131
4.28367	6166
4.28433	6201
4.28500	6235
4.28567	6270
4.28633	6304
4.28700	6339
4.28767	6374
4.28833	6408
4.28900	6443
4.28967	6478
4.29033	6512
4.29100	6547
4.29167	6582
4.29233	6616
4.29300	6651
4.29367	6685
4.29433	6719
4.29500	6753
4.29567	6787
4.29633	6821
4.29700	6854
4.29767	6888
4.29833	6921
4.29900	6954
4.29967	6987
4.30033	7020
4.30100	7052
4.30167	7084
4.30233	7116
4.30300	7148
4.30367	7179
4.30433	7210
4.30500	7241
4.30567	7272
4.30633	7302
4.30700	7332
4.30767	7362
4.30833	7391
4.30900	7420
4.30967	7449
4.31033	7477
4.31100	7505
4.31167	7532
4.31233	7559
4.31300	7585
4.31367	7612
4.31433	7637
4.31500	7662
4.31567	7687
4.31633	7712
4.31700	7735
4.31767	7759
4.31833	7782
4.31900	7804
4.31967	7826
4.32033	7848
4.32100	7869
4.32167	7889
4.32233	7909
4.32300	7929
4.32367	7948
4.32433	7966
4.32500	7984
4.32567	8001
4.32633	8017
4.32700	8033
4.32767	8049
4.32833	8063
4.32900	8077
4.32967	8091
4.33033	8104
4.33100	8116
4.33167	8127
4.33233	8138
4.33300	8149
4.33367	8158
4.33433	8168
4.33500	8176
4.33567	8184
4.33633	8192
4.33700	8199
4.33767	8205
4.33833	8211
4.33900	8216
4.33967	8221
4.34033	8226
4.34100	8230
4.34167	8233
4.34233	8236
4.34300	8239
4.34367	8241
4.34433	8242
4.34500	8244
4.34567	8244
4.34633	8245
4.34700	8245
4.34767	8245
4.34833	8244
4.34900	8243
4.34967	8242
4.35033	8241
4.35100	8240
4.35167	8238
4.35233	8236
4.35300	8234
4.35367	8232
4.35433	8229
4.35500	8227
4.35567	8224
4.35633	8222
4.35700	8219
4.35767	8217
4.35833	8214
4.35900	8212
4.35967	8209
4.36033	8207
4.36100	8205
4.36167	8204
4.36233	8202
4.36300	8201
4.36367	8201
4.36433	8200
4.36500	8200
4.36567	8201
4.36633	8202
4.36700	8203
4.36767	8205
4.36833	8208
4.36900	8211
4.36967	8215
4.37033	8219
4.37100	8225
4.37167	8231
4.37233	8237
4.37300	8245
4.37367	8253
4.37433	8262
4.37500	8272
4.37567	8283
4.37633	8295
4.37700	8309
4.37767	8323
4.37833	8338
4.37900	8354
4.37967	8371
4.38033	8390
4.38100	8410
4.38167	8431
4.38233	8453
4.38300	8476
4.38367	8501
4.38433	8527
4.38500	8554
4.38567	8583
4.38633	8613
4.38700	8644
4.38767	8676
4.38833	8710
4.38900	8745
4.38967	8782
4.39033	8820
4.39100	8859
4.39167	8900
4.39233	8942
4.39300	8985
4.39367	9030
4.39433	9076
4.39500	9124
4.39567	9173
4.39633	9224
4.39700	9276
4.39767	9329
4.39833	9384
4.39900	9440
4.39967	9497
4.40033	9556
4.40100	9616
4.40167	9677
4.40233	9739
4.40300	9803
4.40367	9868
4.40433	9934
4.40500	10001
4.40567	10070
4.40633	10139
4.40700	10210
4.40767	10282
4.40833	10355
4.40900	10429
4.40967	10504
4.41033	10581
4.41100	10658
4.41167	10737
4.41233	10816
4.41300	10896
4.41367	10977
4.41433	11058
4.41500	11141
4.41567	11223
4.41633	11307
4.41700	11390
4.41767	11474
4.41833	11559
4.41900	11643
4.41967	11728
4.42033	11813
4.42100	11899
4.42167	11984
4.42233	12069
4.42300	12154
4.42367	12240
4.42433	12325
4.42500	12409
4.42567	12494
4.42633	12579
4.42700	12663
4.42767	12746
4.42833	12829
4.42900	12912
4.42967	12994
4.43033	13076
4.43100	13156
4.43167	13236
4.43233	13315
4.43300	13394
4.43367	13471
4.43433	13547
4.43500	13623
4.43567	13697
4.43633	13771
4.43700	13843
4.43767	13914
4.43833	13984
4.43900	14052
4.43967	14119
4.44033	14184
4.44100	14248
4.44167	14311
4.44233	14371
4.44300	14430
4.44367	14487
4.44433	14542
4.44500	14595
4.44567	14646
4.44633	14695
4.44700	14741
4.44767	14786
4.44833	14829
4.44900	14869
4.44967	14908
4.45033	14944
4.45100	14977
4.45167	15009
4.45233	15038
4.45300	15065
4.45367	15090
4.45433	15112
4.45500	15132
4.45567	15150
4.45633	15165
4.45700	15177
4.45767	15188
4.45833	15195
4.45900	15200
4.45967	15203
4.46033	15203
4.46100	15201
4.46167	15196
4.46233	15189
4.46300	15179
4.46367	15167
4.46433	15152
4.46500	15135
4.46567	15116
4.46633	15094
4.46700	15070
4.46767	15044
4.46833	15015
4.46900	14984
4.46967	14951
4.47033	14916
4.47100	14879
4.47167	14839
4.47233	14798
4.47300	14754
4.47367	14709
4.47433	14661
4.47500	14611
4.47567	14560
4.47633	14506
4.47700	14451
4.47767	14394
4.47833	14335
4.47900	14274
4.47967	14212
4.48033	14148
4.48100	14082
4.48167	14015
4.48233	13947
4.48300	13877
4.48367	13806
4.48433	13733
4.48500	13659
4.48567	13584
4.48633	13508
4.48700	13430
4.48767	13352
4.48833	13272
4.48900	13192
4.48967	13111
4.49033	13028
4.49100	12945
4.49167	12862
4.49233	12777
4.49300	12692
4.49367	12606
4.49433	12520
4.49500	12434
4.49567	12347
4.49633	12260
4.49700	12172
4.49767	12084
4.49833	11996
4.49900	11908
4.49967	11819
4.50033	11731
4.50100	11643
4.50167	11554
4.50233	11466
4.50300	11378
4.50367	11290
4.50433	11203
4.50500	11115
4.50567	11028
4.50633	10942
4.50700	10855
4.50767	10770
4.50833	10684
4.50900	10600
4.50967	10516
4.51033	10432
4.51100	10349
4.51167	10267
4.51233	10186
4.51300	10105
4.51367	10025
4.51433	9946
4.51500	9867
4.51567	9790
4.51633	9713
4.51700	9637
4.51767	9563
4.51833	9489
4.51900	9416
4.51967	9344
4.52033	9274
4.52100	9204
4.52167	9136
4.52233	9068
4.52300	9002
4.52367	8937
4.52433	8873
4.52500	8811
4.52567	8750
4.52633	8690
4.52700	8631
4.52767	8574
4.52833	8518
4.52900	8463
4.52967	8410
4.53033	8358
4.53100	8307
4.53167	8258
4.53233	8210
4.53300	8163
4.53367	8118
4.53433	8074
4.53500	8031
4.53567	7990
4.53633	7951
4.53700	7912
4.53767	7875
4.53833	7840
4.53900	7806
4.53967	7773
4.54033	7742
4.54100	7712
4.54167	7683
4.54233	7656
4.54300	7630
4.54367	7606
4.54433	7583
4.54500	7561
4.54567	7541
4.54633	7522
4.54700	7505
4.54767	7489
4.54833	7475
4.54900	7462
4.54967	7450
4.55033	7440
4.55100	7431
4.55167	7424
4.55233	7418
4.55300	7413
4.55367	7410
4.55433	7407
4.55500	7407
4.55567	7407
4.55633	7409
4.55700	7412
4.55767	7416
4.55833	7421
4.55900	7428
4.55967	7436
4.56033	7445
4.56100	7455
4.56167	7466
4.56233	7478
4.56300	7492
4.56367	7506
4.56433	7522
4.56500	7538
4.56567	7556
4.56633	7574
4.56700	7594
4.56767	7614
4.56833	7635
4.56900	7658
4.56967	7681
4.57033	7705
4.57100	7729
4.57167	7755
4.57233	7781
4.57300	7808
4.57367	7836
4.57433	7865
4.57500	7894
4.57567	7924
4.57633	7954
4.57700	7986
4.57767	8017
4.57833	8049
4.57900	8082
4.57967	8115
4.58033	8148
4.58100	8181
4.58167	8215
4.58233	8250
4.58300	8284
4.58367	8319
4.58433	8354
4.58500	8389
4.58567	8424
4.58633	8459
4.58700	8494
4.58767	8530
4.58833	8566
4.58900	8601
4.58967	8637
4.59033	8672
4.59100	8707
4.59167	8742
4.59233	8777
4.59300	8812
4.59367	8846
4.59433	8881
4.59500	8915
4.59567	8948
4.59633	8981
4.59700	9014
4.59767	9047
4.59833	9079
4.59900	9111
4.59967	9142
4.60033	9173
4.60100	9203
4.60167	9233
4.60233	9262
4.60300	9290
4.60367	9319
4.60433	9346
4.60500	9373
4.60567	9400
4.60633	9425
4.60700	9451
4.60767	9475
4.60833	9499
4.60900	9523
4.60967	9545
4.61033	9567
4.61100	9588
4.61167	9609
4.61233	9629
4.61300	9648
4.61367	9666
4.61433	9684
4.61500	9701
4.61567	9717
4.61633	9732
4.61700	9747
4.61767	9761
4.61833	9774
4.61900	9787
4.61967	9799
4.62033	9810
4.62100	9820
4.62167	9830
4.62233	9839
4.62300	9848
4.62367	9855
4.62433	9862
4.62500	9869
4.62567	9874
4.62633	9879
4.62700	9884
4.62767	9888
4.62833	9891
4.62900	9893
4.62967	9895
4.63033	9896
4.63100	9896
4.63167	9896
4.63233	9896
4.63300	9895
4.63367	9893
4.63433	9891
4.63500	9888
4.63567	9885
4.63633	9881
4.63700	9876
4.63767	9872
4.63833	9866
4.63900	9860
4.63967	9854
4.64033	9847
4.64100	9839
4.64167	9831
4.64233	9823
4.64300	9814
4.64367	9805
4.64433	9795
4.64500	9785
4.64567	9775
4.64633	9764
4.64700	9753
4.64767	9741
4.64833	9729
4.64900	9717
4.64967	9704
4.65033	9692
4.65100	9678
4.65167	9665
4.65233	9651
4.65300	9637
4.65367	9623
4.65433	9609
4.65500	9594
4.65567	9579
4.65633	9564
4.65700	9549
4.65767	9534
4.65833	9518
4.65900	9503
4.65967	9487
4.66033	9471
4.66100	9455
4.66167	9439
4.66233	9422
4.66300	9406
4.66367	9389
4.66433	9373
4.66500	9356
4.66567	9339
4.66633	9322
4.66700	9304
4.66767	9287
4.66833	9270
4.66900	9252
4.66967	9235
4.67033	9217
4.67100	9199
4.67167	9182
4.67233	9164
4.67300	9146
4.67367	9128
4.67433	9111
4.67500	9093
4.67567	9075
4.67633	9057
4.67700	9040
4.67767	9022
4.67833	9004
4.67900	8987
4.67967	8969
4.68033	8952
4.68100	8934
4.68167	8916
4.68233	8899
4.68300	8881
4.68367	8864
4.68433	8847
4.68500	8829
4.68567	8812
4.68633	8795
4.68700	8778
4.68767	8761
4.68833	8744
4.68900	8727
4.68967	8710
4.69033	8693
4.69100	8676
4.69167	8659
4.69233	8643
4.69300	8627
4.69367	8610
4.69433	8594
4.69500	8578
4.69567	8562
4.69633	8546
4.69700	8530
4.69767	8515
4.69833	8499
4.69900	8484
4.69967	8468
4.70033	8453
4.70100	8438
4.70167	8423
4.70233	8408
4.70300	8393
4.70367	8379
4.70433	8364
4.70500	8350
4.70567	8336
4.70633	8321
4.70700	8307
4.70767	8293
4.70833	8279
4.70900	8266
4.70967	8252
4.71033	8238
4.71100	8225
4.71167	8211
4.71233	8198
4.71300	8185
4.71367	8171
4.71433	8158
4.71500	8145
4.71567	8132
4.71633	8120
4.71700	8107
4.71767	8094
4.71833	8082
4.71900	8069
4.71967	8057
4.72033	8045
4.72100	8033
4.72167	8021
4.72233	8009
4.72300	7997
4.72367	7986
4.72433	7974
4.72500	7962
4.72567	7951
4.72633	7940
4.72700	7928
4.72767	7917
4.72833	7906
4.72900	7894
4.72967	7883
4.73033	7872
4.73100	7861
4.73167	7850
4.73233	7839
4.73300	7828
4.73367	7817
4.73433	7806
4.73500	7795
4.73567	7785
4.73633	7774
4.73700	7764
4.73767	7753
4.73833	7743
4.73900	7733
4.73967	7723
4.74033	7713
4.74100	7703
4.74167	7693
4.74233	7683
4.74300	7673
4.74367	7664
4.74433	7654
4.74500	7645
4.74567	7635
4.74633	7626
4.74700	7617
4.74767	7608
4.74833	7598
4.74900	7589
4.74967	7580
4.75033	7571
4.75100	7562
4.75167	7554
4.75233	7545
4.75300	7536
4.75367	7528
4.75433	7519
4.75500	7510
4.75567	7502
4.75633	7494
4.75700	7485
4.75767	7477
4.75833	7469
4.75900	7461
4.75967	7453
4.76033	7445
4.76100	7438
4.76167	7430
4.76233	7422
4.76300	7414
4.76367	7407
4.76433	7399
4.76500	7392
4.76567	7385
4.76633	7377
4.76700	7370
4.76767	7363
4.76833	7356
4.76900	7349
4.76967	7342
4.77033	7335
4.77100	7328
4.77167	7321
4.77233	7314
4.77300	7307
4.77367	7301
4.77433	7294
4.77500	7287
4.77567	7281
4.77633	7274
4.77700	7267
4.77767	7261
4.77833	7254
4.77900	7247
4.77967	7241
4.78033	7234
4.78100	7228
4.78167	7221
4.78233	7215
4.78300	7209
4.78367	7202
4.78433	7196
4.78500	7190
4.78567	7183
4.78633	7177
4.78700	7171
4.78767	7164
4.78833	7158
4.78900	7152
4.78967	7146
4.79033	7140
4.79100	7134
4.79167	7128
4.79233	7122
4.79300	7116
4.79367	7110
4.79433	7104
4.79500	7098
4.79567	7092
4.79633	7087
4.79700	7081
4.79767	7075
4.79833	7070
4.79900	7064
4.79967	7058
4.80033	7053
4.80100	7047
4.80167	7042
4.80233	7036
4.80300	7030
4.80367	7025
4.80433	7019
4.80500	7014
4.80567	7009
4.80633	7003
4.80700	6998
4.80767	6993
4.80833	6988
4.80900	6983
4.80967	6978
4.81033	6973
4.81100	6968
4.81167	6963
4.81233	6958
4.81300	6953
4.81367	6948
4.81433	6943
4.81500	6938
4.81567	6933
4.81633	6928
4.81700	6923
4.81767	6918
4.81833	6913
4.81900	6909
4.81967	6904
4.82033	6899
4.82100	6893
4.82167	6888
4.82233	6883
4.82300	6878
4.82367	6873
4.82433	6867
4.82500	6862
4.82567	6857
4.82633	6851
4.82700	6846
4.82767	6840
4.82833	6835
4.82900	6829
4.82967	6824
4.83033	6818
4.83100	6813
4.83167	6807
4.83233	6802
4.83300	6796
4.83367	6791
4.83433	6785
4.83500	6780
4.83567	6775
4.83633	6769
4.83700	6764
4.83767	6759
4.83833	6753
4.83900	6748
4.83967	6743
4.84033	6738
4.84100	6732
4.84167	6727
4.84233	6722
4.84300	6717
4.84367	6712
4.84433	6706
4.84500	6701
4.84567	6696
4.84633	6691
4.84700	6686
4.84767	6681
4.84833	6676
4.84900	6671
4.84967	6666
4.85033	6661
4.85100	6656
4.85167	6651
4.85233	6646
4.85300	6642
4.85367	6637
4.85433	6632
4.85500	6627
4.85567	6622
4.85633	6617
4.85700	6612
4.85767	6608
4.85833	6603
4.85900	6598
4.85967	6594
4.86033	6589
4.86100	6584
4.86167	6580
4.86233	6575
4.86300	6570
4.86367	6566
4.86433	6561
4.86500	6557
4.86567	6552
4.86633	6548
4.86700	6543
4.86767	6539
4.86833	6534
4.86900	6530
4.86967	6525
4.87033	6521
4.87100	6516
4.87167	6512
4.87233	6507
4.87300	6503
4.87367	6498
4.87433	6494
4.87500	6490
4.87567	6485
4.87633	6481
4.87700	6477
4.87767	6472
4.87833	6468
4.87900	6464
4.87967	6460
4.88033	6455
4.88100	6451
4.88167	6447
4.88233	6443
4.88300	6439
4.88367	6435
4.88433	6431
4.88500	6427
4.88567	6422
4.88633	6418
4.88700	6414
4.88767	6410
4.88833	6406
4.88900	6402
4.88967	6398
4.89033	6394
4.89100	6390
4.89167	6386
4.89233	6382
4.89300	6379
4.89367	6375
4.89433	6371
4.89500	6367
4.89567	6363
4.89633	6360
4.89700	6356
4.89767	6352
4.89833	6348
4.89900	6345
4.89967	6341
4.90033	6337
4.90100	6334
4.90167	6330
4.90233	6326
4.90300	6323
4.90367	6319
4.90433	6315
4.90500	6311
4.90567	6308
4.90633	6304
4.90700	6300
4.90767	6296
4.90833	6293
4.90900	6289
4.90967	6285
4.91033	6281
4.91100	6277
4.91167	6274
4.91233	6270
4.91300	6266
4.91367	6262
4.91433	6258
4.91500	6254
4.91567	6251
4.91633	6247
4.91700	6243
4.91767	6239
4.91833	6236
4.91900	6232
4.91967	6228
4.92033	6225
4.92100	6221
4.92167	6217
4.92233	6214
4.92300	6210
4.92367	6207
4.92433	6203
4.92500	6200
4.92567	6196
4.92633	6193
4.92700	6190
4.92767	6186
4.92833	6183
4.92900	6179
4.92967	6176
4.93033	6173
4.93100	6169
4.93167	6166
4.93233	6163
4.93300	6159
4.93367	6156
4.93433	6153
4.93500	6150
4.93567	6146
4.93633	6143
4.93700	6140
4.93767	6137
4.93833	6134
4.93900	6130
4.93967	6127
4.94033	6124
4.94100	6121
4.94167	6118
4.94233	6115
4.94300	6112
4.94367	6109
4.94433	6106
4.94500	6103
4.94567	6100
4.94633	6097
4.94700	6094
4.94767	6091
4.94833	6088
4.94900	6085
4.94967	6082
4.95033	6079
4.95100	6076
4.95167	6074
4.95233	6071
4.95300	6068
4.95367	6065
4.95433	6062
4.95500	6059
4.95567	6056
4.95633	6053
4.95700	6051
4.95767	6048
4.95833	6045
4.95900	6042
4.95967	6039
4.96033	6036
4.96100	6033
4.96167	6030
4.96233	6028
4.96300	6025
4.96367	6022
4.96433	6019
4.96500	6016
4.96567	6013
4.96633	6010
4.96700	6008
4.96767	6005
4.96833	6002
4.96900	5999
4.96967	5996
4.97033	5994
4.97100	5991
4.97167	5988
4.97233	5986
4.97300	5983
4.97367	5980
4.97433	5978
4.97500	5975
4.97567	5972
4.97633	5970
4.97700	5967
4.97767	5965
4.97833	5962
4.97900	5959
4.97967	5957
4.98033	5954
4.98100	5952
4.98167	5949
4.98233	5946
4.98300	5944
4.98367	5941
4.98433	5938
4.98500	5936
4.98567	5933
4.98633	5930
4.98700	5928
4.98767	5925
4.98833	5922
4.98900	5919
4.98967	5917
4.99033	5914
4.99100	5911
4.99167	5908
4.99233	5905
4.99300	5903
4.99367	5900
4.99433	5897
4.99500	5894
4.99567	5891
4.99633	5888
4.99700	5886
4.99767	5883
4.99833	5880
4.99900	5877
4.99967	5874
5.00033	5871
5.00100	5869
5.00167	5866
5.00233	5863
5.00300	5860
5.00367	5857
5.00433	5855
5.00500	5852
5.00567	5849
5.00633	5846
5.00700	5844
5.00767	5841
5.00833	5838
5.00900	5835
5.00967	5833
5.01033	5830
5.01100	5827
5.01167	5824
5.01233	5821
5.01300	5818
5.01367	5815
5.01433	5812
5.01500	5810
5.01567	5807
5.01633	5804
5.01700	5801
5.01767	5798
5.01833	5795
5.01900	5792
5.01967	5788
5.02033	5785
5.02100	5782
5.02167	5779
5.02233	5776
5.02300	5773
5.02367	5770
5.02433	5767
5.02500	5764
5.02567	5761
5.02633	5759
5.02700	5756
5.02767	5753
5.02833	5751
5.02900	5748
5.02967	5745
5.03033	5743
5.03100	5740
5.03167	5738
5.03233	5735
5.03300	5733
5.03367	5731
5.03433	5728
5.03500	5726
5.03567	5724
5.03633	5721
5.03700	5719
5.03767	5717
5.03833	5714
5.03900	5712
5.03967	5710
5.04033	5708
5.04100	5706
5.04167	5703
5.04233	5701
5.04300	5699
5.04367	5697
5.04433	5695
5.04500	5693
5.04567	5691
5.04633	5689
5.04700	5687
5.04767	5685
5.04833	5683
5.04900	5681
5.04967	5679
5.05033	5677
5.05100	5675
5.05167	5673
5.05233	5671
5.05300	5669
5.05367	5667
5.05433	5665
5.05500	5663
5.05567	5662
5.05633	5660
5.05700	5658
5.05767	5656
5.05833	5654
5.05900	5652
5.05967	5651
5.06033	5649
5.06100	5647
5.06167	5645
5.06233	5643
5.06300	5642
5.06367	5640
5.06433	5638
5.06500	5637
5.06567	5635
5.06633	5633
5.06700	5632
5.06767	5630
5.06833	5628
5.06900	5627
5.06967	5625
5.07033	5623
5.07100	5622
5.07167	5620
5.07233	5619
5.07300	5617
5.07367	5615
5.07433	5614
5.07500	5612
5.07567	5611
5.07633	5609
5.07700	5608
5.07767	5606
5.07833	5605
5.07900	5603
5.07967	5602
5.08033	5600
5.08100	5599
5.08167	5597
5.08233	5596
5.08300	5594
5.08367	5593
5.08433	5592
5.08500	5590
5.08567	5589
5.08633	5588
5.08700	5586
5.08767	5585
5.08833	5584
5.08900	5583
5.08967	5582
5.09033	5580
5.09100	5580
5.09167	5579
5.09233	5578
5.09300	5577
5.09367	5576
5.09433	5575
5.09500	5575
5.09567	5574
5.09633	5573
5.09700	5573
5.09767	5572
5.09833	5572
5.09900	5571
5.09967	5571
5.10033	5571
5.10100	5570
5.10167	5570
5.10233	5570
5.10300	5569
5.10367	5569
5.10433	5569
5.10500	5569
5.10567	5569
5.10633	5569
5.10700	5569
5.10767	5569
5.10833	5570
5.10900	5570
5.10967	5570
5.11033	5571
5.11100	5572
5.11167	5573
5.11233	5573
5.11300	5575
5.11367	5576
5.11433	5577
5.11500	5578
5.11567	5580
5.11633	5581
5.11700	5583
5.11767	5585
5.11833	5587
5.11900	5589
5.11967	5592
5.12033	5594
5.12100	5597
5.12167	5600
5.12233	5602
5.12300	5606
5.12367	5609
5.12433	5612
5.12500	5616
5.12567	5620
5.12633	5624
5.12700	5628
5.12767	5633
5.12833	5637
5.12900	5642
5.12967	5648
5.13033	5653
5.13100	5659
5.13167	5664
5.13233	5671
5.13300	5677
5.13367	5684
5.13433	5691
5.13500	5698
5.13567	5706
5.13633	5714
5.13700	5722
5.13767	5731
5.13833	5740
5.13900	5749
5.13967	5759
5.14033	5769
5.14100	5779
5.14167	5790
5.14233	5801
5.14300	5812
5.14367	5824
5.14433	5836
5.14500	5849
5.14567	5862
5.14633	5875
5.14700	5889
5.14767	5903
5.14833	5918
5.14900	5933
5.14967	5949
5.15033	5965
5.15100	5981
5.15167	5998
5.15233	6015
5.15300	6033
5.15367	6051
5.15433	6070
5.15500	6089
5.15567	6109
5.15633	6129
5.15700	6150
5.15767	6171
5.15833	6192
5.15900	6214
5.15967	6237
5.16033	6260
5.16100	6283
5.16167	6307
5.16233	6331
5.16300	6356
5.16367	6382
5.16433	6408
5.16500	6435
5.16567	6462
5.16633	6489
5.16700	6517
5.16767	6545
5.16833	6574
5.16900	6603
5.16967	6633
5.17033	6663
5.17100	6694
5.17167	6725
5.17233	6757
5.17300	6789
5.17367	6821
5.17433	6854
5.17500	6888
5.17567	6922
5.17633	6956
5.17700	6990
5.17767	7025
5.17833	7061
5.17900	7097
5.17967	7133
5.18033	7169
5.18100	7206
5.18167	7243
5.18233	7280
5.18300	7318
5.18367	7356
5.18433	7395
5.18500	7433
5.18567	7472
5.18633	7511
5.18700	7550
5.18767	7590
5.18833	7629
5.18900	7669
5.18967	7709
5.19033	7749
5.19100	7789
5.19167	7829
5.19233	7869
5.19300	7910
5.19367	7950
5.19433	7990
5.19500	8031
5.19567	8071
5.19633	8111
5.19700	8151
5.19767	8191
5.19833	8232
5.19900	8271
5.19967	8311
5.20033	8351
5.20100	8390
5.20167	8430
5.20233	8469
5.20300	8508
5.20367	8547
5.20433	8585
5.20500	8623
5.20567	8661
5.20633	8699
5.20700	8736
5.20767	8773
5.20833	8810
5.20900	8846
5.20967	8882
5.21033	8917
5.21100	8952
5.21167	8987
5.21233	9021
5.21300	9054
5.21367	9087
5.21433	9120
5.21500	9152
5.21567	9183
5.21633	9214
5.21700	9244
5.21767	9274
5.21833	9303
5.21900	9331
5.21967	9359
5.22033	9386
5.22100	9413
5.22167	9439
5.22233	9464
5.22300	9489
5.22367	9513
5.22433	9536
5.22500	9558
5.22567	9580
5.22633	9601
5.22700	9621
5.22767	9641
5.22833	9660
5.22900	9678
5.22967	9695
5.23033	9712
5.23100	9728
5.23167	9743
5.23233	9757
5.23300	9771
5.23367	9783
5.23433	9795
5.23500	9806
5.23567	9816
5.23633	9826
5.23700	9834
5.23767	9842
5.23833	9848
5.23900	9854
5.23967	9860
5.24033	9864
5.24100	9868
5.24167	9870
5.24233	9872
5.24300	9874
5.24367	9874
5.24433	9873
5.24500	9872
5.24567	9870
5.24633	9867
5.24700	9863
5.24767	9858
5.24833	9853
5.24900	9847
5.24967	9840
5.25033	9832
5.25100	9824
5.25167	9815
5.25233	9805
5.25300	9795
5.25367	9784
5.25433	9773
5.25500	9760
5.25567	9748
5.25633	9735
5.25700	9721
5.25767	9707
5.25833	9692
5.25900	9677
5.25967	9661
5.26033	9645
5.26100	9629
5.26167	9612
5.26233	9595
5.26300	9577
5.26367	9559
5.26433	9540
5.26500	9521
5.26567	9502
5.26633	9482
5.26700	9462
5.26767	9442
5.26833	9421
5.26900	9400
5.26967	9379
5.27033	9357
5.27100	9335
5.27167	9313
5.27233	9291
5.27300	9268
5.27367	9246
5.27433	9223
5.27500	9200
5.27567	9176
5.27633	9153
5.27700	9130
5.27767	9106
5.27833	9082
5.27900	9058
5.27967	9034
5.28033	9010
5.28100	8986
5.28167	8962
5.28233	8937
5.28300	8913
5.28367	8888
5.28433	8864
5.28500	8839
5.28567	8814
5.28633	8790
5.28700	8765
5.28767	8741
5.28833	8716
5.28900	8691
5.28967	8667
5.29033	8642
5.29100	8618
5.29167	8593
5.29233	8569
5.29300	8545
5.29367	8520
5.29433	8496
5.29500	8472
5.29567	8447
5.29633	8423
5.29700	8399
5.29767	8375
5.29833	8351
5.29900	8327
5.29967	8303
5.30033	8280
5.30100	8256
5.30167	8233
5.30233	8209
5.30300	8186
5.30367	8163
5.30433	8140
5.30500	8117
5.30567	8095
5.30633	8072
5.30700	8050
5.30767	8028
5.30833	8006
5.30900	7984
5.30967	7962
5.31033	7940
5.31100	7919
5.31167	7898
5.31233	7877
5.31300	7856
5.31367	7836
5.31433	7815
5.31500	7795
5.31567	7775
5.31633	7755
5.31700	7736
5.31767	7716
5.31833	7697
5.31900	7678
5.31967	7659
5.32033	7640
5.32100	7621
5.32167	7602
5.32233	7584
5.32300	7565
5.32367	7547
5.32433	7529
5.32500	7511
5.32567	7493
5.32633	7475
5.32700	7458
5.32767	7440
5.32833	7423
5.32900	7406
5.32967	7389
5.33033	7373
5.33100	7356
5.33167	7340
5.33233	7324
5.33300	7308
5.33367	7292
5.33433	7276
5.33500	7260
5.33567	7245
5.33633	7229
5.33700	7214
5.33767	7199
5.33833	7184
5.33900	7169
5.33967	7154
5.34033	7139
5.34100	7125
5.34167	7110
5.34233	7096
5.34300	7082
5.34367	7068
5.34433	7054
5.34500	7040
5.34567	7026
5.34633	7013
5.34700	7000
5.34767	6987
5.34833	6974
5.34900	6961
5.34967	6948
5.35033	6935
5.35100	6923
5.35167	6910
5.35233	6898
5.35300	6886
5.35367	6874
5.35433	6862
5.35500	6850
5.35567	6838
5.35633	6826
5.35700	6815
5.35767	6803
5.35833	6792
5.35900	6780
5.35967	6769
5.36033	6758
5.36100	6747
5.36167	6736
5.36233	6725
5.36300	6714
5.36367	6704
5.36433	6694
5.36500	6683
5.36567	6673
5.36633	6663
5.36700	6653
5.36767	6643
5.36833	6633
5.36900	6624
5.36967	6614
5.37033	6605
5.37100	6596
5.37167	6586
5.37233	6577
5.37300	6568
5.37367	6559
5.37433	6551
5.37500	6542
5.37567	6533
5.37633	6525
5.37700	6516
5.37767	6508
5.37833	6500
5.37900	6492
5.37967	6484
5.38033	6476
5.38100	6468
5.38167	6460
5.38233	6453
5.38300	6445
5.38367	6438
5.38433	6430
5.38500	6423
5.38567	6416
5.38633	6408
5.38700	6401
5.38767	6394
5.38833	6387
5.38900	6380
5.38967	6374
5.39033	6367
5.39100	6360
5.39167	6354
5.39233	6347
5.39300	6341
5.39367	6334
5.39433	6328
5.39500	6322
5.39567	6316
5.39633	6310
5.39700	6304
5.39767	6298
5.39833	6292
5.39900	6286
5.39967	6280
5.40033	6275
5.40100	6269
5.40167	6263
5.40233	6258
5.40300	6252
5.40367	6246
5.40433	6241
5.40500	6235
5.40567	6230
5.40633	6224
5.40700	6219
5.40767	6213
5.40833	6208
5.40900	6203
5.40967	6197
5.41033	6192
5.41100	6187
5.41167	6182
5.41233	6176
5.41300	6171
5.41367	6166
5.41433	6161
5.41500	6156
5.41567	6150
5.41633	6145
5.41700	6140
5.41767	6135
5.41833	6130
5.41900	6125
5.41967	6120
5.42033	6115
5.42100	6110
5.42167	6105
5.42233	6101
5.42300	6096
5.42367	6091
5.42433	6086
5.42500	6081
5.42567	6076
5.42633	6071
5.42700	6066
5.42767	6062
5.42833	6057
5.42900	6052
5.42967	6047
5.43033	6043
5.43100	6038
5.43167	6033
5.43233	6029
5.43300	6024
5.43367	6020
5.43433	6015
5.43500	6011
5.43567	6006
5.43633	6002
5.43700	5998
5.43767	5993
5.43833	5989
5.43900	5984
5.43967	5980
5.44033	5976
5.44100	5971
5.44167	5967
5.44233	5963
5.44300	5958
5.44367	5954
5.44433	5950
5.44500	5946
5.44567	5941
5.44633	5937
5.44700	5933
5.44767	5929
5.44833	5924
5.44900	5920
5.44967	5916
5.45033	5912
5.45100	5907
5.45167	5903
5.45233	5899
5.45300	5895
5.45367	5891
5.45433	5886
5.45500	5882
5.45567	5878
5.45633	5874
5.45700	5869
5.45767	5865
5.45833	5861
5.45900	5857
5.45967	5853
5.46033	5848
5.46100	5844
5.46167	5840
5.46233	5836
5.46300	5832
5.46367	5828
5.46433	5824
5.46500	5819
5.46567	5815
5.46633	5811
5.46700	5807
5.46767	5803
5.46833	5798
5.46900	5794
5.46967	5790
5.47033	5786
5.47100	5782
5.47167	5778
5.47233	5773
5.47300	5769
5.47367	5765
5.47433	5761
5.47500	5757
5.47567	5753
5.47633	5749
5.47700	5744
5.47767	5740
5.47833	5736
5.47900	5732
5.47967	5728
5.48033	5724
5.48100	5720
5.48167	5716
5.48233	5713
5.48300	5709
5.48367	5705
5.48433	5701
5.48500	5697
5.48567	5693
5.48633	5690
5.48700	5686
5.48767	5682
5.48833	5679
5.48900	5675
5.48967	5671
5.49033	5667
5.49100	5664
5.49167	5660
5.49233	5656
5.49300	5653
5.49367	5649
5.49433	5645
5.49500	5642
5.49567	5638
5.49633	5634
5.49700	5631
5.49767	5627
5.49833	5624
5.49900	5620
5.49967	5617
5.50033	5613
5.50100	5610
5.50167	5606
5.50233	5603
5.50300	5599
5.50367	5596
5.50433	5593
5.50500	5590
5.50567	5586
5.50633	5583
5.50700	5580
5.50767	5577
5.50833	5573
5.50900	5570
5.50967	5567
5.51033	5564
5.51100	5561
5.51167	5558
5.51233	5555
5.51300	5552
5.51367	5549
5.51433	5546
5.51500	5543
5.51567	5540
5.51633	5537
5.51700	5534
5.51767	5531
5.51833	5529
5.51900	5526
5.51967	5523
5.52033	5520
5.52100	5517
5.52167	5515
5.52233	5512
5.52300	5509
5.52367	5507
5.52433	5504
5.52500	5501
5.52567	5499
5.52633	5496
5.52700	5493
5.52767	5491
5.52833	5488
5.52900	5485
5.52967	5483
5.53033	5480
5.53100	5478
5.53167	5475
5.53233	5472
5.53300	5470
5.53367	5467
5.53433	5465
5.53500	5462
5.53567	5460
5.53633	5457
5.53700	5455
5.53767	5452
5.53833	5450
5.53900	5447
5.53967	5445
5.54033	5443
5.54100	5440
5.54167	5438
5.54233	5436
5.54300	5434
5.54367	5432
5.54433	5429
5.54500	5427
5.54567	5425
5.54633	5423
5.54700	5421
5.54767	5419
5.54833	5417
5.54900	5414
5.54967	5412
5.55033	5410
5.55100	5408
5.55167	5406
5.55233	5404
5.55300	5402
5.55367	5400
5.55433	5398
5.55500	5396
5.55567	5394
5.55633	5392
5.55700	5390
5.55767	5388
5.55833	5386
5.55900	5384
5.55967	5382
5.56033	5380
5.56100	5378
5.56167	5376
5.56233	5374
5.56300	5372
5.56367	5370
5.56433	5368
5.56500	5366
5.56567	5364
5.56633	5362
5.56700	5360
5.56767	5359
5.56833	5357
5.56900	5355
5.56967	5353
5.57033	5351
5.57100	5350
5.57167	5348
5.57233	5346
5.57300	5345
5.57367	5343
5.57433	5342
5.57500	5340
5.57567	5338
5.57633	5337
5.57700	5335
5.57767	5334
5.57833	5332
5.57900	5331
5.57967	5329
5.58033	5328
5.58100	5326
5.58167	5325
5.58233	5323
5.58300	5322
5.58367	5320
5.58433	5319
5.58500	5317
5.58567	5316
5.58633	5314
5.58700	5313
5.58767	5311
5.58833	5310
5.58900	5308
5.58967	5307
5.59033	5305
5.59100	5304
5.59167	5302
5.59233	5301
5.59300	5299
5.59367	5298
5.59433	5296
5.59500	5294
5.59567	5293
5.59633	5292
5.59700	5290
5.59767	5289
5.59833	5287
5.59900	5286
5.59967	5284
5.60033	5283
5.60100	5282
5.60167	5280
5.60233	5279
5.60300	5277
5.60367	5276
5.60433	5275
5.60500	5274
5.60567	5272
5.60633	5271
5.60700	5270
5.60767	5269
5.60833	5267
5.60900	5266
5.60967	5265
5.61033	5263
5.61100	5262
5.61167	5261
5.61233	5260
5.61300	5258
5.61367	5257
5.61433	5256
5.61500	5254
5.61567	5253
5.61633	5252
5.61700	5250
5.61767	5249
5.61833	5248
5.61900	5246
5.61967	5245
5.62033	5244
5.62100	5242
5.62167	5241
5.62233	5240
5.62300	5238
5.62367	5237
5.62433	5236
5.62500	5234
5.62567	5233
5.62633	5231
5.62700	5230
5.62767	5229
5.62833	5227
5.62900	5226
5.62967	5224
5.63033	5223
5.63100	5222
5.63167	5220
5.63233	5219
5.63300	5217
5.63367	5216
5.63433	5215
5.63500	5213
5.63567	5212
5.63633	5211
5.63700	5209
5.63767	5208
5.63833	5206
5.63900	5205
5.63967	5204
5.64033	5202
5.64100	5201
5.64167	5199
5.64233	5198
5.64300	5197
5.64367	5195
5.64433	5194
5.64500	5192
5.64567	5191
5.64633	5189
5.64700	5188
5.64767	5186
5.64833	5185
5.64900	5184
5.64967	5182
5.65033	5181
5.65100	5179
5.65167	5178
5.65233	5177
5.65300	5175
5.65367	5174
5.65433	5173
5.65500	5171
5.65567	5170
5.65633	5168
5.65700	5167
5.65767	5166
5.65833	5164
5.65900	5163
5.65967	5161
5.66033	5160
5.66100	5159
5.66167	5157
5.66233	5156
5.66300	5154
5.66367	5153
5.66433	5151
5.66500	5150
5.66567	5149
5.66633	5147
5.66700	5146
5.66767	5144
5.66833	5143
5.66900	5141
5.66967	5139
5.67033	5138
5.67100	5137
5.67167	5135
5.67233	5134
5.67300	5132
5.67367	5131
5.67433	5129
5.67500	5128
5.67567	5126
5.67633	5125
5.67700	5124
5.67767	5122
5.67833	5121
5.67900	5120
5.67967	5119
5.68033	5117
5.68100	5116
5.68167	5115
5.68233	5113
5.68300	5112
5.68367	5111
5.68433	5110
5.68500	5108
5.68567	5107
5.68633	5106
5.68700	5104
5.68767	5103
5.68833	5102
5.68900	5100
5.68967	5099
5.69033	5098
5.69100	5096
5.69167	5095
5.69233	5094
5.69300	5092
5.69367	5091
5.69433	5089
5.69500	5088
5.69567	5086
5.69633	5085
5.69700	5084
5.69767	5082
5.69833	5081
5.69900	5079
5.69967	5078
5.70033	5076
5.70100	5075
5.70167	5074
5.70233	5072
5.70300	5071
5.70367	5070
5.70433	5068
5.70500	5067
5.70567	5065
5.70633	5064
5.70700	5063
5.70767	5061
5.70833	5060
5.70900	5059
5.70967	5057
5.71033	5056
5.71100	5054
5.71167	5053
5.71233	5052
5.71300	5050
5.71367	5049
5.71433	5047
5.71500	5046
5.71567	5045
5.71633	5043
5.71700	5042
5.71767	5041
5.71833	5039
5.71900	5038
5.71967	5037
5.72033	5035
5.72100	5034
5.72167	5033
5.72233	5032
5.72300	5030
5.72367	5029
5.72433	5028
5.72500	5026
5.72567	5025
5.72633	5024
5.72700	5023
5.72767	5021
5.72833	5020
5.72900	5019
5.72967	5017
5.73033	5016
5.73100	5015
5.73167	5014
5.73233	5012
5.73300	5011
5.73367	5010
5.73433	5009
5.73500	5008
5.73567	5007
5.73633	5005
5.73700	5004
5.73767	5003
5.73833	5002
5.73900	5001
5.73967	5000
5.74033	4999
5.74100	4998
5.74167	4997
5.74233	4996
5.74300	4995
5.74367	4994
5.74433	4993
5.74500	4992
5.74567	4992
5.74633	4991
5.74700	4990
5.74767	4989
5.74833	4988
5.74900	4987
5.74967	4987
5.75033	4986
5.75100	4985
5.75167	4985
5.75233	4984
5.75300	4983
5.75367	4983
5.75433	4982
5.75500	4981
5.75567	4981
5.75633	4980
5.75700	4979
5.75767	4979
5.75833	4978
5.75900	4978
5.75967	4977
5.76033	4977
5.76100	4976
5.76167	4975
5.76233	4975
5.76300	4974
5.76367	4974
5.76433	4974
5.76500	4973
5.76567	4973
5.76633	4972
5.76700	4972
5.76767	4971
5.76833	4971
5.76900	4971
5.76967	4970
5.77033	4970
5.77100	4970
5.77167	4969
5.77233	4969
5.77300	4969
5.77367	4968
5.77433	4968
5.77500	4968
5.77567	4968
5.77633	4967
5.77700	4967
5.77767	4967
5.77833	4966
5.77900	4966
5.77967	4966
5.78033	4966
5.78100	4965
5.78167	4965
5.78233	4965
5.78300	4965
5.78367	4964
5.78433	4964
5.78500	4964
5.78567	4964
5.78633	4964
5.78700	4964
5.78767	4964
5.78833	4964
5.78900	4963
5.78967	4963
5.79033	4963
5.79100	4963
5.79167	4963
5.79233	4963
5.79300	4963
5.79367	4963
5.79433	4963
5.79500	4963
5.79567	4963
5.79633	4963
5.79700	4963
5.79767	4963
5.79833	4963
5.79900	4963
5.79967	4963
5.80033	4963
5.80100	4963
5.80167	4963
5.80233	4963
5.80300	4963
5.80367	4963
5.80433	4963
5.80500	4962
5.80567	4962
5.80633	4962
5.80700	4962
5.80767	4962
5.80833	4962
5.80900	4962
5.80967	4962
5.81033	4962
5.81100	4962
5.81167	4962
5.81233	4962
5.81300	4962
5.81367	4962
5.81433	4962
5.81500	4962
5.81567	4962
5.81633	4962
5.81700	4962
5.81767	4962
5.81833	4961
5.81900	4961
5.81967	4961
5.82033	4961
5.82100	4961
5.82167	4961
5.82233	4961
5.82300	4961
5.82367	4961
5.82433	4961
5.82500	4961
5.82567	4961
5.82633	4961
5.82700	4961
5.82767	4961
5.82833	4961
5.82900	4961
5.82967	4961
5.83033	4960
5.83100	4960
5.83167	4960
5.83233	4960
5.83300	4960
5.83367	4960
5.83433	4960
5.83500	4960
5.83567	4960
5.83633	4960
5.83700	4959
5.83767	4959
5.83833	4959
5.83900	4958
5.83967	4958
5.84033	4958
5.84100	4958
5.84167	4957
5.84233	4957
5.84300	4957
5.84367	4956
5.84433	4956
5.84500	4956
5.84567	4956
5.84633	4955
5.84700	4955
5.84767	4954
5.84833	4954
5.84900	4954
5.84967	4953
5.85033	4953
5.85100	4952
5.85167	4952
5.85233	4951
5.85300	4951
5.85367	4950
5.85433	4950
5.85500	4949
5.85567	4948
5.85633	4948
5.85700	4947
5.85767	4947
5.85833	4946
5.85900	4945
5.85967	4945
5.86033	4944
5.86100	4943
5.86167	4942
5.86233	4942
5.86300	4941
5.86367	4940
5.86433	4939
5.86500	4939
5.86567	4938
5.86633	4937
5.86700	4936
5.86767	4936
5.86833	4935
5.86900	4934
5.86967	4933
5.87033	4933
5.87100	4932
5.87167	4931
5.87233	4931
5.87300	4930
5.87367	4929
5.87433	4928
5.87500	4927
5.87567	4927
5.87633	4926
5.87700	4925
5.87767	4924
5.87833	4923
5.87900	4923
5.87967	4922
5.88033	4921
5.88100	4920
5.88167	4919
5.88233	4918
5.88300	4917
5.88367	4916
5.88433	4916
5.88500	4915
5.88567	4914
5.88633	4913
5.88700	4912
5.88767	4911
5.88833	4911
5.88900	4910
5.88967	4909
5.89033	4908
5.89100	4908
5.89167	4907
5.89233	4906
5.89300	4905
5.89367	4904
5.89433	4904
5.89500	4903
5.89567	4902
5.89633	4901
5.89700	4900
5.89767	4899
5.89833	4899
5.89900	4898
5.89967	4897
5.90033	4896
5.90100	4895
5.90167	4894
5.90233	4894
5.90300	4893
5.90367	4892
5.90433	4891
5.90500	4890
5.90567	4889
5.90633	4888
5.90700	4887
5.90767	4886
5.90833	4885
5.90900	4884
5.90967	4883
5.91033	4882
5.91100	4881
5.91167	4880
5.91233	4880
5.91300	4879
5.91367	4878
5.91433	4877
5.91500	4876
5.91567	4875
5.91633	4874
5.91700	4873
5.91767	4872
5.91833	4871
5.91900	4870
5.91967	4869
5.92033	4868
5.92100	4867
5.92167	4866
5.92233	4865
5.92300	4864
5.92367	4864
5.92433	4863
5.92500	4862
5.92567	4861
5.92633	4860
5.92700	4860
5.92767	4859
5.92833	4858
5.92900	4857
5.92967	4857
5.93033	4856
5.93100	4855
5.93167	4855
5.93233	4854
5.93300	4853
5.93367	4853
5.93433	4852
5.93500	4852
5.93567	4851
5.93633	4851
5.93700	4850
5.93767	4850
5.93833	4850
5.93900	4849
5.93967	4849
5.94033	4848
5.94100	4848
5.94167	4847
5.94233	4847
5.94300	4846
5.94367	4846
5.94433	4845
5.94500	4845
5.94567	4844
5.94633	4844
5.94700	4843
5.94767	4843
5.94833	4842
5.94900	4842
5.94967	4842
5.95033	4841
5.95100	4841
5.95167	4840
5.95233	4839
5.95300	4839
5.95367	4838
5.95433	4838
5.95500	4837
5.95567	4837
5.95633	4836
5.95700	4836
5.95767	4835
5.95833	4835
5.95900	4834
5.95967	4834
5.96033	4833
5.96100	4833
5.96167	4832
5.96233	4832
5.96300	4831
5.96367	4831
5.96433	4830
5.96500	4829
5.96567	4829
5.96633	4829
5.96700	4828
5.96767	4828
5.96833	4827
5.96900	4827
5.96967	4826
5.97033	4826
5.97100	4825
5.97167	4825
5.97233	4824
5.97300	4824
5.97367	4824
5.97433	4823
5.97500	4823
5.97567	4822
5.97633	4822
5.97700	4822
5.97767	4821
5.97833	4821
5.97900	4821
5.97967	4820
5.98033	4820
5.98100	4820
5.98167	4820
5.98233	4819
5.98300	4819
5.98367	4819
5.98433	4819
5.98500	4818
5.98567	4818
5.98633	4818
5.98700	4818
5.98767	4817
5.98833	4817
5.98900	4817
5.98967	4816
5.99033	4816
5.99100	4816
5.99167	4815
5.99233	4815
5.99300	4814
5.99367	4814
5.99433	4814
5.99500	4813
5.99567	4813
5.99633	4813
5.99700	4812
5.99767	4812
5.99833	4811
5.99900	4811
5.99967	4811
6.00033	4810
6.00100	4810
6.00167	4810
6.00233	4809
6.00300	4809
6.00367	4809
6.00433	4808
6.00500	4808
6.00567	4808
6.00633	4808
6.00700	4807
6.00767	4807
6.00833	4807
6.00900	4807
6.00967	4806
6.01033	4806
6.01100	4806
6.01167	4805
6.01233	4805
6.01300	4805
6.01367	4804
6.01433	4804
6.01500	4804
6.01567	4803
6.01633	4803
6.01700	4802
6.01767	4802
6.01833	4801
6.01900	4801
6.01967	4800
6.02033	4800
6.02100	4800
6.02167	4799
6.02233	4799
6.02300	4798
6.02367	4798
6.02433	4797
6.02500	4797
6.02567	4796
6.02633	4796
6.02700	4795
6.02767	4795
6.02833	4794
6.02900	4794
6.02967	4793
6.03033	4793
6.03100	4792
6.03167	4792
6.03233	4791
6.03300	4791
6.03367	4790
6.03433	4790
6.03500	4789
6.03567	4789
6.03633	4788
6.03700	4787
6.03767	4787
6.03833	4786
6.03900	4786
6.03967	4785
6.04033	4784
6.04100	4783
6.04167	4783
6.04233	4782
6.04300	4781
6.04367	4780
6.04433	4780
6.04500	4779
6.04567	4778
6.04633	4777
6.04700	4777
6.04767	4776
6.04833	4775
6.04900	4774
6.04967	4774
6.05033	4773
6.05100	4772
6.05167	4771
6.05233	4770
6.05300	4770
6.05367	4769
6.05433	4768
6.05500	4767
6.05567	4766
6.05633	4766
6.05700	4765
6.05767	4764
6.05833	4763
6.05900	4763
6.05967	4762
6.06033	4761
6.06100	4760
6.06167	4759
6.06233	4759
6.06300	4758
6.06367	4757
6.06433	4757
6.06500	4756
6.06567	4755
6.06633	4754
6.06700	4753
6.06767	4753
6.06833	4752
6.06900	4751
6.06967	4750
6.07033	4750
6.07100	4749
6.07167	4748
6.07233	4747
6.07300	4747
6.07367	4746
6.07433	4745
6.07500	4744
6.07567	4743
6.07633	4743
6.07700	4742
6.07767	4741
6.07833	4740
6.07900	4739
6.07967	4739
6.08033	4738
6.08100	4737
6.08167	4736
6.08233	4736
6.08300	4735
6.08367	4734
6.08433	4733
6.08500	4732
6.08567	4732
6.08633	4731
6.08700	4730
6.08767	4729
6.08833	4728
6.08900	4727
6.08967	4726
6.09033	4726
6.09100	4725
6.09167	4724
6.09233	4723
6.09300	4722
6.09367	4721
6.09433	4720
6.09500	4720
6.09567	4719
6.09633	4718
6.09700	4717
6.09767	4717
6.09833	4716
6.09900	4715
6.09967	4715
6.10033	4714
6.10100	4713
6.10167	4712
6.10233	4712
6.10300	4711
6.10367	4710
6.10433	4709
6.10500	4709
6.10567	4708
6.10633	4707
6.10700	4706
6.10767	4705
6.10833	4705
6.10900	4704
6.10967	4703
6.11033	4702
6.11100	4701
6.11167	4700
6.11233	4700
6.11300	4699
6.11367	4698
6.11433	4697
6.11500	4696
6.11567	4696
6.11633	4695
6.11700	4694
6.11767	4693
6.11833	4692
6.11900	4692
6.11967	4691
6.12033	4690
6.12100	4689
6.12167	4688
6.12233	4688
6.12300	4687
6.12367	4686
6.12433	4685
6.12500	4685
6.12567	4684
6.12633	4683
6.12700	4682
6.12767	4682
6.12833	4681
6.12900	4680
6.12967	4680
6.13033	4679
6.13100	4678
6.13167	4678
6.13233	4677
6.13300	4676
6.13367	4676
6.13433	4675
6.13500	4674
6.13567	4674
6.13633	4673
6.13700	4672
6.13767	4672
6.13833	4671
6.13900	4670
6.13967	4670
6.14033	4669
6.14100	4668
6.14167	4668
6.14233	4667
6.14300	4666
6.14367	4665
6.14433	4665
6.14500	4664
6.14567	4663
6.14633	4662
6.14700	4662
6.14767	4661
6.14833	4660
6.14900	4660
6.14967	4659
6.15033	4658
6.15100	4657
6.15167	4657
6.15233	4656
6.15300	4655
6.15367	4655
6.15433	4654
6.15500	4654
6.15567	4653
6.15633	4652
6.15700	4652
6.15767	4651
6.15833	4651
6.15900	4650
6.15967	4649
6.16033	4649
6.16100	4648
6.16167	4648
6.16233	4647
6.16300	4646
6.16367	4646
6.16433	4645
6.16500	4645
6.16567	4644
6.16633	4644
6.16700	4643
6.16767	4643
6.16833	4642
6.16900	4642
6.16967	4641
6.17033	4641
6.17100	4640
6.17167	4640
6.17233	4639
6.17300	4639
6.17367	4639
6.17433	4638
6.17500	4638
6.17567	4637
6.17633	4637
6.17700	4637
6.17767	4636
6.17833	4636
6.17900	4636
6.17967	4635
6.18033	4635
6.18100	4635
6.18167	4634
6.18233	4634
6.18300	4634
6.18367	4633
6.18433	4633
6.18500	4633
6.18567	4633
6.18633	4632
6.18700	4632
6.18767	4632
6.18833	4632
6.18900	4632
6.18967	4632
6.19033	4632
6.19100	4632
6.19167	4632
6.19233	4632
6.19300	4632
6.19367	4632
6.19433	4632
6.19500	4632
6.19567	4632
6.19633	4632
6.19700	4633
6.19767	4633
6.19833	4633
6.19900	4633
6.19967	4634
6.20033	4634
6.20100	4634
6.20167	4635
6.20233	4635
6.20300	4635
6.20367	4635
6.20433	4636
6.20500	4636
6.20567	4636
6.20633	4636
6.20700	4636
6.20767	4637
6.20833	4637
6.20900	4637
6.20967	4638
6.21033	4638
6.21100	4638
6.21167	4638
6.21233	4639
6.21300	4639
6.21367	4639
6.21433	4640
6.21500	4640
6.21567	4640
6.21633	4641
6.21700	4641
6.21767	4641
6.21833	4642
6.21900	4642
6.21967	4642
6.22033	4643
6.22100	4643
6.22167	4644
6.22233	4644
6.22300	4644
6.22367	4645
6.22433	4645
6.22500	4646
6.22567	4647
6.22633	4647
6.22700	4648
6.22767	4648
6.22833	4649
6.22900	4650
6.22967	4650
6.23033	4651
6.23100	4652
6.23167	4652
6.23233	4653
6.23300	4653
6.23367	4654
6.23433	4655
6.23500	4655
6.23567	4656
6.23633	4656
6.23700	4657
6.23767	4658
6.23833	4658
6.23900	4659
6.23967	4659
6.24033	4660
6.24100	4661
6.24167	4661
6.24233	4662
6.24300	4662
6.24367	4663
6.24433	4664
6.24500	4664
6.24567	4665
6.24633	4665
6.24700	4666
6.24767	4667
6.24833	4667
6.24900	4668
6.24967	4668
6.25033	4669
6.25100	4670
6.25167	4670
6.25233	4671
6.25300	4671
6.25367	4672
6.25433	4672
6.25500	4673
6.25567	4673
6.25633	4674
6.25700	4674
6.25767	4675
6.25833	4675
6.25900	4675
6.25967	4676
6.26033	4676
6.26100	4676
6.26167	4677
6.26233	4677
6.26300	4678
6.26367	4678
6.26433	4678
6.26500	4678
6.26567	4679
6.26633	4679
6.26700	4679
6.26767	4679
6.26833	4680
6.26900	4680
6.26967	4680
6.27033	4680
6.27100	4680
6.27167	4680
6.27233	4680
6.27300	4680
6.27367	4680
6.27433	4680
6.27500	4680
6.27567	4680
6.27633	4679
6.27700	4679
6.27767	4679
6.27833	4679
6.27900	4679
6.27967	4679
6.28033	4679
6.28100	4678
6.28167	4678
6.28233	4678
6.28300	4678
6.28367	4677
6.28433	4677
6.28500	4677
6.28567	4676
6.28633	4676
6.28700	4676
6.28767	4675
6.28833	4675
6.28900	4674
6.28967	4674
6.29033	4673
6.29100	4673
6.29167	4672
6.29233	4672
6.29300	4671
6.29367	4671
6.29433	4670
6.29500	4669
6.29567	4668
6.29633	4668
6.29700	4667
6.29767	4666
6.29833	4665
6.29900	4664
6.29967	4664
6.30033	4663
6.30100	4662
6.30167	4661
6.30233	4660
6.30300	4659
6.30367	4658
6.30433	4657
6.30500	4657
6.30567	4656
6.30633	4655
6.30700	4654
6.30767	4653
6.30833	4652
6.30900	4652
6.30967	4651
6.31033	4650
6.31100	4649
6.31167	4648
6.31233	4647
6.31300	4647
6.31367	4646
6.31433	4645
6.31500	4644
6.31567	4644
6.31633	4643
6.31700	4642
6.31767	4641
6.31833	4641
6.31900	4640
6.31967	4639
6.32033	4638
6.32100	4637
6.32167	4637
6.32233	4636
6.32300	4635
6.32367	4634
6.32433	4633
6.32500	4632
6.32567	4632
6.32633	4631
6.32700	4630
6.32767	4629
6.32833	4628
6.32900	4627
6.32967	4626
6.33033	4625
6.33100	4625
6.33167	4624
6.33233	4623
6.33300	4622
6.33367	4621
6.33433	4620
6.33500	4619
6.33567	4619
6.33633	4618
6.33700	4617
6.33767	4616
6.33833	4615
6.33900	4614
6.33967	4613
6.34033	4612
6.34100	4612
6.34167	4611
6.34233	4610
6.34300	4609
6.34367	4608
6.34433	4607
6.34500	4606
6.34567	4606
6.34633	4605
6.34700	4604
6.34767	4603
6.34833	4602
6.34900	4601
6.34967	4600
6.35033	4599
6.35100	4598
6.35167	4597
6.35233	4596
6.35300	4595
6.35367	4594
6.35433	4593
6.35500	4592
6.35567	4591
6.35633	4590
6.35700	4589
6.35767	4588
6.35833	4587
6.35900	4586
6.35967	4586
6.36033	4585
6.36100	4584
6.36167	4583
6.36233	4582
6.36300	4581
6.36367	4580
6.36433	4579
6.36500	4579
6.36567	4578
6.36633	4577
6.36700	4576
6.36767	4576
6.36833	4575
6.36900	4574
6.36967	4573
6.37033	4573
6.37100	4572
6.37167	4571
6.37233	4571
6.37300	4570
6.37367	4569
6.37433	4569
6.37500	4568
6.37567	4567
6.37633	4567
6.37700	4566
6.37767	4565
6.37833	4565
6.37900	4564
6.37967	4564
6.38033	4563
6.38100	4563
6.38167	4562
6.38233	4562
6.38300	4561
6.38367	4561
6.38433	4560
6.38500	4560
6.38567	4559
6.38633	4559
6.38700	4559
6.38767	4558
6.38833	4558
6.38900	4557
6.38967	4557
6.39033	4556
6.39100	4556
6.39167	4555
6.39233	4555
6.39300	4555
6.39367	4554
6.39433	4554
6.39500	4553
6.39567	4553
6.39633	4552
6.39700	4552
6.39767	4551
6.39833	4551
6.39900	4551
6.39967	4550

