[Header]
Application Name	LabSolutions
Version	5.73
Data File Name	C:\LabSolutions\Data\Project1\stephen\2016-01-06\94.gcd
Output Date	1/11/2016
Output Time	1:19:59 PM

[Configuration]
Instrument Name	WEISSTA-PC-Instrument1
Instrument #	1
Line #	1
# of Detectors	1
Detector ID	DET#2
Detector Name	DFID1
# of Channels	1

[Chromatogram (Ch1)]
Interval(msec)	40
# of Points	9599
Start Time(min)	0.001
End Time(min)	6.399
R.Time (min)	Intensity
0.00067	15
0.00133	15
0.00200	15
0.00267	15
0.00333	15
0.00400	15
0.00467	15
0.00533	15
0.00600	15
0.00667	15
0.00733	15
0.00800	15
0.00867	14
0.00933	14
0.01000	13
0.01067	13
0.01133	12
0.01200	11
0.01267	9
0.01333	7
0.01400	5
0.01467	3
0.01533	1
0.01600	-2
0.01667	-5
0.01733	-8
0.01800	-11
0.01867	-15
0.01933	-19
0.02000	-22
0.02067	-26
0.02133	-31
0.02200	-35
0.02267	-39
0.02333	-43
0.02400	-47
0.02467	-51
0.02533	-55
0.02600	-59
0.02667	-63
0.02733	-66
0.02800	-70
0.02867	-73
0.02933	-76
0.03000	-80
0.03067	-83
0.03133	-85
0.03200	-88
0.03267	-90
0.03333	-93
0.03400	-95
0.03467	-97
0.03533	-98
0.03600	-100
0.03667	-101
0.03733	-103
0.03800	-104
0.03867	-105
0.03933	-106
0.04000	-106
0.04067	-107
0.04133	-108
0.04200	-108
0.04267	-108
0.04333	-109
0.04400	-109
0.04467	-109
0.04533	-109
0.04600	-109
0.04667	-109
0.04733	-108
0.04800	-108
0.04867	-108
0.04933	-107
0.05000	-107
0.05067	-106
0.05133	-105
0.05200	-105
0.05267	-104
0.05333	-103
0.05400	-103
0.05467	-102
0.05533	-101
0.05600	-100
0.05667	-99
0.05733	-98
0.05800	-98
0.05867	-97
0.05933	-96
0.06000	-95
0.06067	-94
0.06133	-93
0.06200	-92
0.06267	-91
0.06333	-91
0.06400	-90
0.06467	-89
0.06533	-88
0.06600	-87
0.06667	-86
0.06733	-85
0.06800	-84
0.06867	-83
0.06933	-82
0.07000	-81
0.07067	-81
0.07133	-80
0.07200	-79
0.07267	-78
0.07333	-78
0.07400	-77
0.07467	-76
0.07533	-75
0.07600	-75
0.07667	-74
0.07733	-74
0.07800	-73
0.07867	-72
0.07933	-72
0.08000	-71
0.08067	-71
0.08133	-70
0.08200	-70
0.08267	-69
0.08333	-69
0.08400	-68
0.08467	-67
0.08533	-67
0.08600	-66
0.08667	-66
0.08733	-65
0.08800	-64
0.08867	-60
0.08933	-49
0.09000	-31
0.09067	-2
0.09133	49
0.09200	120
0.09267	208
0.09333	338
0.09400	518
0.09467	716
0.09533	922
0.09600	1127
0.09667	1363
0.09733	1679
0.09800	2057
0.09867	2455
0.09933	2893
0.10000	3373
0.10067	3901
0.10133	4449
0.10200	5048
0.10267	5684
0.10333	6303
0.10400	6898
0.10467	7479
0.10533	8046
0.10600	8579
0.10667	9096
0.10733	9596
0.10800	10073
0.10867	10558
0.10933	11047
0.11000	11522
0.11067	11988
0.11133	12454
0.11200	12917
0.11267	13433
0.11333	13956
0.11400	14470
0.11467	14987
0.11533	15539
0.11600	16103
0.11667	16666
0.11733	17186
0.11800	17652
0.11867	18075
0.11933	18463
0.12000	18816
0.12067	19133
0.12133	19413
0.12200	19658
0.12267	19875
0.12333	20066
0.12400	20224
0.12467	20355
0.12533	20462
0.12600	20561
0.12667	20643
0.12733	20711
0.12800	20788
0.12867	20854
0.12933	20900
0.13000	20941
0.13067	20964
0.13133	20961
0.13200	20942
0.13267	20919
0.13333	20880
0.13400	20824
0.13467	20749
0.13533	20667
0.13600	20644
0.13667	20879
0.13733	21881
0.13800	24811
0.13867	31733
0.13933	46033
0.14000	72483
0.14067	117687
0.14133	189864
0.14200	299430
0.14267	458378
0.14333	680954
0.14400	983141
0.14467	1383590
0.14533	1901927
0.14600	2559397
0.14667	3376064
0.14733	4371683
0.14800	5562105
0.14867	6960455
0.14933	8576430
0.15000	10417705
0.15067	12489820
0.15133	14792076
0.15200	17305620
0.15267	20009097
0.15333	22915827
0.15400	26055293
0.15467	29440235
0.15533	33065517
0.15600	36914150
0.15667	40962941
0.15733	45185781
0.15800	49556566
0.15867	54049825
0.15933	58641444
0.16000	63307877
0.16067	68026330
0.16133	72774304
0.16200	77530558
0.16267	82274932
0.16333	86988760
0.16400	91654227
0.16467	96255323
0.16533	100777366
0.16600	105207135
0.16667	109532707
0.16733	113743754
0.16800	117831311
0.16867	121787559
0.16933	125606084
0.17000	129281568
0.17067	132809702
0.17133	136186734
0.17200	139409396
0.17267	142474756
0.17333	145380751
0.17400	148125936
0.17467	150710236
0.17533	153134656
0.17600	155400850
0.17667	157509842
0.17733	159462091
0.17800	161257721
0.17867	162897141
0.17933	164380932
0.18000	165710112
0.18067	166885893
0.18133	167910077
0.18200	168785002
0.18267	169513494
0.18333	170098860
0.18400	170544755
0.18467	170855138
0.18533	171033979
0.18600	171085334
0.18667	171013156
0.18733	170821422
0.18800	170513997
0.18867	170094852
0.18933	169567922
0.19000	168937241
0.19067	168206732
0.19133	167380459
0.19200	166462424
0.19267	165456706
0.19333	164367342
0.19400	163198445
0.19467	161954045
0.19533	160638189
0.19600	159254872
0.19667	157808107
0.19733	156301764
0.19800	154739695
0.19867	153125736
0.19933	151463697
0.20000	149757407
0.20067	148010743
0.20133	146227783
0.20200	144412908
0.20267	142570544
0.20333	140704460
0.20400	138817491
0.20467	136911654
0.20533	134988626
0.20600	133049983
0.20667	131097449
0.20733	129132791
0.20800	127157883
0.20867	125174625
0.20933	123184980
0.21000	121190882
0.21067	119194275
0.21133	117197055
0.21200	115201081
0.21267	113208134
0.21333	111219919
0.21400	109238061
0.21467	107264106
0.21533	105299526
0.21600	103345703
0.21667	101403952
0.21733	99475501
0.21800	97561517
0.21867	95663087
0.21933	93781220
0.22000	91916856
0.22067	90070849
0.22133	88243978
0.22200	86436977
0.22267	84650516
0.22333	82885206
0.22400	81141593
0.22467	79420182
0.22533	77721424
0.22600	76045727
0.22667	74393451
0.22733	72764915
0.22800	71160399
0.22867	69580138
0.22933	68024329
0.23000	66493126
0.23067	64986656
0.23133	63505008
0.23200	62048248
0.23267	60616404
0.23333	59209482
0.23400	57827457
0.23467	56470285
0.23533	55137893
0.23600	53830186
0.23667	52547045
0.23733	51288335
0.23800	50053900
0.23867	48843569
0.23933	47657156
0.24000	46494457
0.24067	45355257
0.24133	44239331
0.24200	43146441
0.24267	42076338
0.24333	41028766
0.24400	40003458
0.24467	39000141
0.24533	38018534
0.24600	37058350
0.24667	36119298
0.24733	35201081
0.24800	34303401
0.24867	33425956
0.24933	32568440
0.25000	31730547
0.25067	30911963
0.25133	30112378
0.25200	29331478
0.25267	28568949
0.25333	27824481
0.25400	27097760
0.25467	26388476
0.25533	25696319
0.25600	25020979
0.25667	24362147
0.25733	23719513
0.25800	23092770
0.25867	22481609
0.25933	21885725
0.26000	21304812
0.26067	20738568
0.26133	20186693
0.26200	19648889
0.26267	19124861
0.26333	18614314
0.26400	18116963
0.26467	17632547
0.26533	17160850
0.26600	16701702
0.26667	16254937
0.26733	15820368
0.26800	15397763
0.26867	14986846
0.26933	14587310
0.27000	14198834
0.27067	13821108
0.27133	13453863
0.27200	13096876
0.27267	12749957
0.27333	12412915
0.27400	12085542
0.27467	11767608
0.27533	11458862
0.27600	11159042
0.27667	10867878
0.27733	10585100
0.27800	10310442
0.27867	10043638
0.27933	9784428
0.28000	9532561
0.28067	9287796
0.28133	9049900
0.28200	8818647
0.28267	8593817
0.28333	8375200
0.28400	8162595
0.28467	7955809
0.28533	7754657
0.28600	7558965
0.28667	7368563
0.28733	7183289
0.28800	7002988
0.28867	6827512
0.28933	6656720
0.29000	6490476
0.29067	6328646
0.29133	6171103
0.29200	6017727
0.29267	5868400
0.29333	5723009
0.29400	5581446
0.29467	5443605
0.29533	5309385
0.29600	5178688
0.29667	5051418
0.29733	4927485
0.29800	4806799
0.29867	4689275
0.29933	4574828
0.30000	4463378
0.30067	4354846
0.30133	4249157
0.30200	4146237
0.30267	4046015
0.30333	3948422
0.30400	3853391
0.30467	3760856
0.30533	3670754
0.30600	3583020
0.30667	3497596
0.30733	3414421
0.30800	3333437
0.30867	3254587
0.30933	3177817
0.31000	3103072
0.31067	3030296
0.31133	2959436
0.31200	2890441
0.31267	2823258
0.31333	2757837
0.31400	2694131
0.31467	2632094
0.31533	2571682
0.31600	2512853
0.31667	2455569
0.31733	2399793
0.31800	2345491
0.31867	2292631
0.31933	2241185
0.32000	2191126
0.32067	2142432
0.32133	2095081
0.32200	2049055
0.32267	2004336
0.32333	1960908
0.32400	1918757
0.32467	1877873
0.32533	1838246
0.32600	1799869
0.32667	1762736
0.32733	1726845
0.32800	1692195
0.32867	1658789
0.32933	1626628
0.33000	1595720
0.33067	1566074
0.33133	1537700
0.33200	1510610
0.33267	1484818
0.33333	1460336
0.33400	1437173
0.33467	1415333
0.33533	1394816
0.33600	1375617
0.33667	1357730
0.33733	1341140
0.33800	1325830
0.33867	1311779
0.33933	1298961
0.34000	1287350
0.34067	1276916
0.34133	1267629
0.34200	1259456
0.34267	1252360
0.34333	1246300
0.34400	1241235
0.34467	1237120
0.34533	1233910
0.34600	1231553
0.34667	1230002
0.34733	1229206
0.34800	1229116
0.34867	1229679
0.34933	1230845
0.35000	1232566
0.35067	1234795
0.35133	1237489
0.35200	1240604
0.35267	1244098
0.35333	1247929
0.35400	1252060
0.35467	1256455
0.35533	1261081
0.35600	1265909
0.35667	1270913
0.35733	1276070
0.35800	1281358
0.35867	1286759
0.35933	1292257
0.36000	1297836
0.36067	1303483
0.36133	1309184
0.36200	1314926
0.36267	1320695
0.36333	1326481
0.36400	1332273
0.36467	1338060
0.36533	1343834
0.36600	1349585
0.36667	1355311
0.36733	1361007
0.36800	1366672
0.36867	1372309
0.36933	1377917
0.37000	1383495
0.37067	1389046
0.37133	1394571
0.37200	1400073
0.37267	1405556
0.37333	1411021
0.37400	1416470
0.37467	1421905
0.37533	1427326
0.37600	1432732
0.37667	1438121
0.37733	1443494
0.37800	1448849
0.37867	1454189
0.37933	1459518
0.38000	1464838
0.38067	1470158
0.38133	1475487
0.38200	1480838
0.38267	1486225
0.38333	1491662
0.38400	1497162
0.38467	1502734
0.38533	1508384
0.38600	1514114
0.38667	1519919
0.38733	1525795
0.38800	1531734
0.38867	1537726
0.38933	1543759
0.39000	1549817
0.39067	1555885
0.39133	1561946
0.39200	1567986
0.39267	1573993
0.39333	1579955
0.39400	1585866
0.39467	1591715
0.39533	1597492
0.39600	1603189
0.39667	1608796
0.39733	1614302
0.39800	1619694
0.39867	1624958
0.39933	1630076
0.40000	1635032
0.40067	1639804
0.40133	1644365
0.40200	1648686
0.40267	1652733
0.40333	1656472
0.40400	1659864
0.40467	1662877
0.40533	1665474
0.40600	1667620
0.40667	1669278
0.40733	1670409
0.40800	1670972
0.40867	1670925
0.40933	1670226
0.41000	1668831
0.41067	1666699
0.41133	1663789
0.41200	1660062
0.41267	1655482
0.41333	1650016
0.41400	1643635
0.41467	1636315
0.41533	1628040
0.41600	1618801
0.41667	1608602
0.41733	1597457
0.41800	1585385
0.41867	1572417
0.41933	1558591
0.42000	1543949
0.42067	1528538
0.42133	1512408
0.42200	1495609
0.42267	1478197
0.42333	1460222
0.42400	1441737
0.42467	1422793
0.42533	1403440
0.42600	1383727
0.42667	1363700
0.42733	1343405
0.42800	1322883
0.42867	1302176
0.42933	1281323
0.43000	1260359
0.43067	1239321
0.43133	1218239
0.43200	1197145
0.43267	1176065
0.43333	1155027
0.43400	1134056
0.43467	1113172
0.43533	1092399
0.43600	1071754
0.43667	1051255
0.43733	1030920
0.43800	1010763
0.43867	990800
0.43933	971042
0.44000	951502
0.44067	932190
0.44133	913116
0.44200	894287
0.44267	875712
0.44333	857395
0.44400	839344
0.44467	821561
0.44533	804050
0.44600	786815
0.44667	769858
0.44733	753182
0.44800	736789
0.44867	720681
0.44933	704860
0.45000	689327
0.45067	674082
0.45133	659126
0.45200	644459
0.45267	630080
0.45333	615990
0.45400	602185
0.45467	588666
0.45533	575429
0.45600	562474
0.45667	549797
0.45733	537397
0.45800	525270
0.45867	513413
0.45933	501825
0.46000	490501
0.46067	479440
0.46133	468637
0.46200	458089
0.46267	447795
0.46333	437750
0.46400	427952
0.46467	418398
0.46533	409085
0.46600	400011
0.46667	391173
0.46733	382569
0.46800	374195
0.46867	366049
0.46933	358127
0.47000	350424
0.47067	342934
0.47133	335652
0.47200	328574
0.47267	321693
0.47333	315006
0.47400	308506
0.47467	302191
0.47533	296053
0.47600	290090
0.47667	284295
0.47733	278665
0.47800	273194
0.47867	267878
0.47933	262713
0.48000	257694
0.48067	252818
0.48133	248079
0.48200	243475
0.48267	239000
0.48333	234652
0.48400	230427
0.48467	226321
0.48533	222330
0.48600	218451
0.48667	214682
0.48733	211018
0.48800	207456
0.48867	203994
0.48933	200629
0.49000	197357
0.49067	194175
0.49133	191081
0.49200	188072
0.49267	185146
0.49333	182298
0.49400	179528
0.49467	176833
0.49533	174209
0.49600	171655
0.49667	169169
0.49733	166749
0.49800	164392
0.49867	162097
0.49933	159862
0.50000	157684
0.50067	155562
0.50133	153494
0.50200	151479
0.50267	149514
0.50333	147598
0.50400	145729
0.50467	143906
0.50533	142128
0.50600	140392
0.50667	138697
0.50733	137042
0.50800	135426
0.50867	133847
0.50933	132304
0.51000	130797
0.51067	129323
0.51133	127882
0.51200	126472
0.51267	125094
0.51333	123745
0.51400	122425
0.51467	121133
0.51533	119868
0.51600	118629
0.51667	117416
0.51733	116227
0.51800	115062
0.51867	113920
0.51933	112800
0.52000	111702
0.52067	110626
0.52133	109569
0.52200	108533
0.52267	107515
0.52333	106517
0.52400	105536
0.52467	104573
0.52533	103627
0.52600	102698
0.52667	101785
0.52733	100888
0.52800	100006
0.52867	99138
0.52933	98285
0.53000	97446
0.53067	96621
0.53133	95809
0.53200	95009
0.53267	94222
0.53333	93448
0.53400	92685
0.53467	91934
0.53533	91194
0.53600	90465
0.53667	89747
0.53733	89040
0.53800	88342
0.53867	87655
0.53933	86977
0.54000	86308
0.54067	85649
0.54133	84999
0.54200	84357
0.54267	83725
0.54333	83101
0.54400	82485
0.54467	81877
0.54533	81277
0.54600	80685
0.54667	80101
0.54733	79524
0.54800	78955
0.54867	78392
0.54933	77837
0.55000	77289
0.55067	76748
0.55133	76214
0.55200	75686
0.55267	75166
0.55333	74652
0.55400	74145
0.55467	73644
0.55533	73150
0.55600	72662
0.55667	72180
0.55733	71705
0.55800	71236
0.55867	70773
0.55933	70316
0.56000	69865
0.56067	69420
0.56133	68980
0.56200	68546
0.56267	68117
0.56333	67694
0.56400	67275
0.56467	66862
0.56533	66453
0.56600	66049
0.56667	65649
0.56733	65254
0.56800	64863
0.56867	64476
0.56933	64092
0.57000	63713
0.57067	63337
0.57133	62965
0.57200	62596
0.57267	62231
0.57333	61869
0.57400	61510
0.57467	61155
0.57533	60802
0.57600	60453
0.57667	60107
0.57733	59763
0.57800	59422
0.57867	59085
0.57933	58749
0.58000	58417
0.58067	58087
0.58133	57760
0.58200	57435
0.58267	57113
0.58333	56793
0.58400	56475
0.58467	56160
0.58533	55848
0.58600	55538
0.58667	55230
0.58733	54924
0.58800	54621
0.58867	54320
0.58933	54022
0.59000	53726
0.59067	53432
0.59133	53140
0.59200	52850
0.59267	52563
0.59333	52278
0.59400	51996
0.59467	51716
0.59533	51438
0.59600	51162
0.59667	50889
0.59733	50617
0.59800	50348
0.59867	50081
0.59933	49817
0.60000	49554
0.60067	49294
0.60133	49036
0.60200	48780
0.60267	48527
0.60333	48275
0.60400	48026
0.60467	47779
0.60533	47534
0.60600	47291
0.60667	47051
0.60733	46812
0.60800	46576
0.60867	46342
0.60933	46110
0.61000	45880
0.61067	45653
0.61133	45427
0.61200	45204
0.61267	44983
0.61333	44764
0.61400	44547
0.61467	44332
0.61533	44119
0.61600	43909
0.61667	43700
0.61733	43494
0.61800	43290
0.61867	43088
0.61933	42888
0.62000	42690
0.62067	42494
0.62133	42300
0.62200	42108
0.62267	41917
0.62333	41729
0.62400	41542
0.62467	41356
0.62533	41173
0.62600	40991
0.62667	40811
0.62733	40632
0.62800	40454
0.62867	40278
0.62933	40104
0.63000	39930
0.63067	39759
0.63133	39588
0.63200	39419
0.63267	39251
0.63333	39084
0.63400	38919
0.63467	38755
0.63533	38592
0.63600	38430
0.63667	38270
0.63733	38110
0.63800	37953
0.63867	37796
0.63933	37640
0.64000	37486
0.64067	37334
0.64133	37182
0.64200	37032
0.64267	36883
0.64333	36735
0.64400	36589
0.64467	36444
0.64533	36300
0.64600	36157
0.64667	36016
0.64733	35875
0.64800	35736
0.64867	35598
0.64933	35461
0.65000	35325
0.65067	35190
0.65133	35057
0.65200	34924
0.65267	34792
0.65333	34661
0.65400	34531
0.65467	34402
0.65533	34273
0.65600	34145
0.65667	34018
0.65733	33891
0.65800	33766
0.65867	33640
0.65933	33516
0.66000	33392
0.66067	33268
0.66133	33145
0.66200	33023
0.66267	32901
0.66333	32779
0.66400	32658
0.66467	32537
0.66533	32417
0.66600	32298
0.66667	32179
0.66733	32060
0.66800	31942
0.66867	31824
0.66933	31707
0.67000	31590
0.67067	31474
0.67133	31358
0.67200	31243
0.67267	31129
0.67333	31015
0.67400	30901
0.67467	30788
0.67533	30676
0.67600	30564
0.67667	30453
0.67733	30343
0.67800	30233
0.67867	30124
0.67933	30016
0.68000	29909
0.68067	29803
0.68133	29698
0.68200	29594
0.68267	29492
0.68333	29391
0.68400	29291
0.68467	29193
0.68533	29097
0.68600	29003
0.68667	28911
0.68733	28822
0.68800	28735
0.68867	28651
0.68933	28570
0.69000	28492
0.69067	28417
0.69133	28346
0.69200	28279
0.69267	28216
0.69333	28157
0.69400	28102
0.69467	28052
0.69533	28006
0.69600	27966
0.69667	27930
0.69733	27899
0.69800	27872
0.69867	27850
0.69933	27832
0.70000	27819
0.70067	27809
0.70133	27803
0.70200	27801
0.70267	27801
0.70333	27804
0.70400	27808
0.70467	27815
0.70533	27822
0.70600	27829
0.70667	27837
0.70733	27844
0.70800	27849
0.70867	27854
0.70933	27856
0.71000	27856
0.71067	27852
0.71133	27846
0.71200	27837
0.71267	27824
0.71333	27807
0.71400	27786
0.71467	27761
0.71533	27732
0.71600	27699
0.71667	27662
0.71733	27620
0.71800	27575
0.71867	27526
0.71933	27474
0.72000	27418
0.72067	27358
0.72133	27295
0.72200	27229
0.72267	27159
0.72333	27088
0.72400	27013
0.72467	26936
0.72533	26857
0.72600	26776
0.72667	26693
0.72733	26608
0.72800	26521
0.72867	26433
0.72933	26343
0.73000	26252
0.73067	26160
0.73133	26067
0.73200	25973
0.73267	25879
0.73333	25784
0.73400	25688
0.73467	25592
0.73533	25495
0.73600	25398
0.73667	25301
0.73733	25204
0.73800	25106
0.73867	25009
0.73933	24912
0.74000	24814
0.74067	24717
0.74133	24621
0.74200	24524
0.74267	24428
0.74333	24332
0.74400	24236
0.74467	24141
0.74533	24046
0.74600	23952
0.74667	23858
0.74733	23765
0.74800	23672
0.74867	23580
0.74933	23489
0.75000	23398
0.75067	23308
0.75133	23218
0.75200	23129
0.75267	23041
0.75333	22953
0.75400	22867
0.75467	22780
0.75533	22695
0.75600	22610
0.75667	22526
0.75733	22443
0.75800	22360
0.75867	22279
0.75933	22198
0.76000	22117
0.76067	22038
0.76133	21959
0.76200	21881
0.76267	21803
0.76333	21727
0.76400	21651
0.76467	21576
0.76533	21501
0.76600	21427
0.76667	21354
0.76733	21282
0.76800	21211
0.76867	21140
0.76933	21070
0.77000	21001
0.77067	20932
0.77133	20864
0.77200	20797
0.77267	20730
0.77333	20665
0.77400	20599
0.77467	20535
0.77533	20471
0.77600	20407
0.77667	20345
0.77733	20283
0.77800	20221
0.77867	20161
0.77933	20100
0.78000	20041
0.78067	19982
0.78133	19924
0.78200	19866
0.78267	19808
0.78333	19752
0.78400	19696
0.78467	19640
0.78533	19585
0.78600	19530
0.78667	19476
0.78733	19422
0.78800	19369
0.78867	19316
0.78933	19264
0.79000	19212
0.79067	19161
0.79133	19110
0.79200	19059
0.79267	19009
0.79333	18960
0.79400	18911
0.79467	18862
0.79533	18814
0.79600	18766
0.79667	18719
0.79733	18672
0.79800	18625
0.79867	18579
0.79933	18533
0.80000	18488
0.80067	18443
0.80133	18398
0.80200	18354
0.80267	18311
0.80333	18267
0.80400	18224
0.80467	18182
0.80533	18139
0.80600	18097
0.80667	18056
0.80733	18014
0.80800	17973
0.80867	17933
0.80933	17893
0.81000	17853
0.81067	17813
0.81133	17774
0.81200	17735
0.81267	17696
0.81333	17658
0.81400	17620
0.81467	17583
0.81533	17546
0.81600	17509
0.81667	17473
0.81733	17437
0.81800	17401
0.81867	17366
0.81933	17331
0.82000	17297
0.82067	17263
0.82133	17229
0.82200	17196
0.82267	17162
0.82333	17129
0.82400	17097
0.82467	17065
0.82533	17033
0.82600	17001
0.82667	16969
0.82733	16938
0.82800	16907
0.82867	16876
0.82933	16845
0.83000	16815
0.83067	16785
0.83133	16755
0.83200	16725
0.83267	16695
0.83333	16665
0.83400	16636
0.83467	16606
0.83533	16577
0.83600	16548
0.83667	16519
0.83733	16491
0.83800	16462
0.83867	16434
0.83933	16405
0.84000	16377
0.84067	16349
0.84133	16320
0.84200	16292
0.84267	16264
0.84333	16236
0.84400	16208
0.84467	16181
0.84533	16153
0.84600	16125
0.84667	16098
0.84733	16070
0.84800	16043
0.84867	16015
0.84933	15988
0.85000	15961
0.85067	15933
0.85133	15906
0.85200	15879
0.85267	15852
0.85333	15825
0.85400	15797
0.85467	15770
0.85533	15743
0.85600	15716
0.85667	15689
0.85733	15662
0.85800	15635
0.85867	15608
0.85933	15581
0.86000	15554
0.86067	15528
0.86133	15501
0.86200	15474
0.86267	15448
0.86333	15421
0.86400	15395
0.86467	15369
0.86533	15342
0.86600	15316
0.86667	15290
0.86733	15264
0.86800	15238
0.86867	15212
0.86933	15186
0.87000	15161
0.87067	15135
0.87133	15110
0.87200	15084
0.87267	15059
0.87333	15034
0.87400	15008
0.87467	14983
0.87533	14958
0.87600	14933
0.87667	14909
0.87733	14884
0.87800	14860
0.87867	14835
0.87933	14811
0.88000	14787
0.88067	14763
0.88133	14739
0.88200	14715
0.88267	14691
0.88333	14668
0.88400	14644
0.88467	14621
0.88533	14598
0.88600	14574
0.88667	14552
0.88733	14529
0.88800	14506
0.88867	14484
0.88933	14461
0.89000	14439
0.89067	14417
0.89133	14395
0.89200	14373
0.89267	14351
0.89333	14330
0.89400	14308
0.89467	14287
0.89533	14265
0.89600	14244
0.89667	14223
0.89733	14202
0.89800	14181
0.89867	14160
0.89933	14139
0.90000	14118
0.90067	14098
0.90133	14077
0.90200	14056
0.90267	14036
0.90333	14015
0.90400	13995
0.90467	13975
0.90533	13955
0.90600	13935
0.90667	13915
0.90733	13895
0.90800	13875
0.90867	13855
0.90933	13835
0.91000	13816
0.91067	13796
0.91133	13777
0.91200	13757
0.91267	13738
0.91333	13718
0.91400	13699
0.91467	13680
0.91533	13661
0.91600	13642
0.91667	13623
0.91733	13604
0.91800	13585
0.91867	13566
0.91933	13548
0.92000	13529
0.92067	13511
0.92133	13492
0.92200	13474
0.92267	13456
0.92333	13438
0.92400	13420
0.92467	13402
0.92533	13384
0.92600	13367
0.92667	13349
0.92733	13331
0.92800	13314
0.92867	13297
0.92933	13279
0.93000	13262
0.93067	13245
0.93133	13228
0.93200	13211
0.93267	13194
0.93333	13178
0.93400	13161
0.93467	13144
0.93533	13128
0.93600	13111
0.93667	13095
0.93733	13078
0.93800	13062
0.93867	13046
0.93933	13029
0.94000	13013
0.94067	12997
0.94133	12981
0.94200	12965
0.94267	12949
0.94333	12933
0.94400	12917
0.94467	12901
0.94533	12886
0.94600	12870
0.94667	12854
0.94733	12839
0.94800	12823
0.94867	12807
0.94933	12792
0.95000	12776
0.95067	12761
0.95133	12745
0.95200	12730
0.95267	12715
0.95333	12699
0.95400	12684
0.95467	12669
0.95533	12654
0.95600	12639
0.95667	12624
0.95733	12609
0.95800	12594
0.95867	12579
0.95933	12564
0.96000	12550
0.96067	12535
0.96133	12520
0.96200	12506
0.96267	12492
0.96333	12478
0.96400	12464
0.96467	12450
0.96533	12436
0.96600	12422
0.96667	12409
0.96733	12395
0.96800	12381
0.96867	12368
0.96933	12354
0.97000	12341
0.97067	12328
0.97133	12314
0.97200	12301
0.97267	12288
0.97333	12274
0.97400	12261
0.97467	12248
0.97533	12234
0.97600	12221
0.97667	12208
0.97733	12194
0.97800	12181
0.97867	12167
0.97933	12154
0.98000	12141
0.98067	12127
0.98133	12113
0.98200	12100
0.98267	12086
0.98333	12072
0.98400	12059
0.98467	12045
0.98533	12031
0.98600	12017
0.98667	12003
0.98733	11989
0.98800	11975
0.98867	11961
0.98933	11947
0.99000	11933
0.99067	11919
0.99133	11905
0.99200	11890
0.99267	11876
0.99333	11862
0.99400	11848
0.99467	11834
0.99533	11819
0.99600	11805
0.99667	11791
0.99733	11777
0.99800	11763
0.99867	11749
0.99933	11735
1.00000	11721
1.00067	11707
1.00133	11693
1.00200	11679
1.00267	11665
1.00333	11652
1.00400	11638
1.00467	11624
1.00533	11610
1.00600	11597
1.00667	11583
1.00733	11570
1.00800	11556
1.00867	11543
1.00933	11529
1.01000	11516
1.01067	11503
1.01133	11490
1.01200	11477
1.01267	11465
1.01333	11452
1.01400	11440
1.01467	11428
1.01533	11416
1.01600	11405
1.01667	11394
1.01733	11382
1.01800	11372
1.01867	11361
1.01933	11351
1.02000	11341
1.02067	11331
1.02133	11322
1.02200	11313
1.02267	11304
1.02333	11296
1.02400	11287
1.02467	11280
1.02533	11272
1.02600	11265
1.02667	11257
1.02733	11250
1.02800	11244
1.02867	11237
1.02933	11231
1.03000	11224
1.03067	11218
1.03133	11212
1.03200	11206
1.03267	11200
1.03333	11194
1.03400	11188
1.03467	11182
1.03533	11176
1.03600	11169
1.03667	11163
1.03733	11156
1.03800	11150
1.03867	11143
1.03933	11136
1.04000	11129
1.04067	11122
1.04133	11114
1.04200	11106
1.04267	11099
1.04333	11091
1.04400	11083
1.04467	11074
1.04533	11066
1.04600	11057
1.04667	11049
1.04733	11040
1.04800	11031
1.04867	11021
1.04933	11012
1.05000	11002
1.05067	10993
1.05133	10983
1.05200	10973
1.05267	10963
1.05333	10952
1.05400	10942
1.05467	10932
1.05533	10921
1.05600	10910
1.05667	10899
1.05733	10888
1.05800	10877
1.05867	10866
1.05933	10855
1.06000	10844
1.06067	10833
1.06133	10822
1.06200	10810
1.06267	10799
1.06333	10788
1.06400	10777
1.06467	10766
1.06533	10754
1.06600	10743
1.06667	10732
1.06733	10721
1.06800	10709
1.06867	10698
1.06933	10687
1.07000	10676
1.07067	10664
1.07133	10653
1.07200	10642
1.07267	10631
1.07333	10619
1.07400	10608
1.07467	10597
1.07533	10586
1.07600	10574
1.07667	10563
1.07733	10552
1.07800	10541
1.07867	10530
1.07933	10519
1.08000	10508
1.08067	10497
1.08133	10486
1.08200	10475
1.08267	10464
1.08333	10453
1.08400	10442
1.08467	10432
1.08533	10421
1.08600	10410
1.08667	10399
1.08733	10389
1.08800	10378
1.08867	10368
1.08933	10357
1.09000	10347
1.09067	10336
1.09133	10326
1.09200	10315
1.09267	10305
1.09333	10295
1.09400	10285
1.09467	10274
1.09533	10264
1.09600	10254
1.09667	10244
1.09733	10234
1.09800	10224
1.09867	10215
1.09933	10205
1.10000	10195
1.10067	10185
1.10133	10175
1.10200	10166
1.10267	10156
1.10333	10147
1.10400	10137
1.10467	10127
1.10533	10118
1.10600	10108
1.10667	10099
1.10733	10089
1.10800	10080
1.10867	10071
1.10933	10061
1.11000	10052
1.11067	10042
1.11133	10033
1.11200	10024
1.11267	10015
1.11333	10005
1.11400	9996
1.11467	9987
1.11533	9978
1.11600	9969
1.11667	9960
1.11733	9952
1.11800	9943
1.11867	9934
1.11933	9926
1.12000	9918
1.12067	9909
1.12133	9901
1.12200	9893
1.12267	9886
1.12333	9878
1.12400	9871
1.12467	9864
1.12533	9857
1.12600	9850
1.12667	9844
1.12733	9838
1.12800	9832
1.12867	9827
1.12933	9822
1.13000	9818
1.13067	9813
1.13133	9810
1.13200	9807
1.13267	9804
1.13333	9802
1.13400	9801
1.13467	9800
1.13533	9799
1.13600	9799
1.13667	9799
1.13733	9800
1.13800	9801
1.13867	9803
1.13933	9804
1.14000	9806
1.14067	9808
1.14133	9810
1.14200	9813
1.14267	9815
1.14333	9818
1.14400	9820
1.14467	9822
1.14533	9824
1.14600	9826
1.14667	9828
1.14733	9829
1.14800	9831
1.14867	9832
1.14933	9832
1.15000	9833
1.15067	9833
1.15133	9832
1.15200	9832
1.15267	9831
1.15333	9829
1.15400	9827
1.15467	9825
1.15533	9822
1.15600	9819
1.15667	9816
1.15733	9812
1.15800	9808
1.15867	9803
1.15933	9798
1.16000	9793
1.16067	9787
1.16133	9781
1.16200	9775
1.16267	9769
1.16333	9762
1.16400	9755
1.16467	9748
1.16533	9740
1.16600	9732
1.16667	9724
1.16733	9716
1.16800	9707
1.16867	9699
1.16933	9690
1.17000	9681
1.17067	9672
1.17133	9662
1.17200	9653
1.17267	9644
1.17333	9634
1.17400	9624
1.17467	9615
1.17533	9605
1.17600	9595
1.17667	9585
1.17733	9575
1.17800	9565
1.17867	9555
1.17933	9545
1.18000	9535
1.18067	9525
1.18133	9515
1.18200	9505
1.18267	9495
1.18333	9485
1.18400	9475
1.18467	9465
1.18533	9455
1.18600	9445
1.18667	9435
1.18733	9425
1.18800	9416
1.18867	9406
1.18933	9397
1.19000	9387
1.19067	9378
1.19133	9368
1.19200	9359
1.19267	9350
1.19333	9341
1.19400	9332
1.19467	9323
1.19533	9314
1.19600	9306
1.19667	9297
1.19733	9289
1.19800	9281
1.19867	9273
1.19933	9265
1.20000	9257
1.20067	9249
1.20133	9241
1.20200	9234
1.20267	9226
1.20333	9219
1.20400	9212
1.20467	9205
1.20533	9198
1.20600	9192
1.20667	9185
1.20733	9178
1.20800	9172
1.20867	9166
1.20933	9160
1.21000	9154
1.21067	9148
1.21133	9143
1.21200	9137
1.21267	9132
1.21333	9127
1.21400	9122
1.21467	9117
1.21533	9112
1.21600	9108
1.21667	9103
1.21733	9099
1.21800	9094
1.21867	9090
1.21933	9086
1.22000	9081
1.22067	9077
1.22133	9073
1.22200	9069
1.22267	9065
1.22333	9062
1.22400	9058
1.22467	9054
1.22533	9050
1.22600	9046
1.22667	9043
1.22733	9039
1.22800	9035
1.22867	9032
1.22933	9028
1.23000	9025
1.23067	9021
1.23133	9017
1.23200	9014
1.23267	9010
1.23333	9007
1.23400	9003
1.23467	9000
1.23533	8996
1.23600	8993
1.23667	8989
1.23733	8986
1.23800	8983
1.23867	8979
1.23933	8976
1.24000	8972
1.24067	8969
1.24133	8965
1.24200	8962
1.24267	8959
1.24333	8955
1.24400	8952
1.24467	8948
1.24533	8945
1.24600	8942
1.24667	8938
1.24733	8935
1.24800	8932
1.24867	8928
1.24933	8925
1.25000	8922
1.25067	8919
1.25133	8915
1.25200	8912
1.25267	8909
1.25333	8906
1.25400	8903
1.25467	8900
1.25533	8897
1.25600	8895
1.25667	8892
1.25733	8889
1.25800	8887
1.25867	8884
1.25933	8882
1.26000	8879
1.26067	8877
1.26133	8875
1.26200	8873
1.26267	8871
1.26333	8870
1.26400	8868
1.26467	8867
1.26533	8865
1.26600	8864
1.26667	8863
1.26733	8862
1.26800	8862
1.26867	8861
1.26933	8861
1.27000	8860
1.27067	8860
1.27133	8861
1.27200	8861
1.27267	8862
1.27333	8863
1.27400	8864
1.27467	8866
1.27533	8867
1.27600	8870
1.27667	8872
1.27733	8875
1.27800	8878
1.27867	8881
1.27933	8884
1.28000	8888
1.28067	8893
1.28133	8897
1.28200	8902
1.28267	8907
1.28333	8912
1.28400	8917
1.28467	8923
1.28533	8928
1.28600	8934
1.28667	8940
1.28733	8945
1.28800	8951
1.28867	8957
1.28933	8962
1.29000	8968
1.29067	8973
1.29133	8978
1.29200	8982
1.29267	8987
1.29333	8991
1.29400	8995
1.29467	8999
1.29533	9002
1.29600	9005
1.29667	9008
1.29733	9010
1.29800	9012
1.29867	9013
1.29933	9015
1.30000	9015
1.30067	9016
1.30133	9016
1.30200	9016
1.30267	9015
1.30333	9014
1.30400	9013
1.30467	9011
1.30533	9009
1.30600	9006
1.30667	9004
1.30733	9001
1.30800	8997
1.30867	8994
1.30933	8990
1.31000	8986
1.31067	8982
1.31133	8977
1.31200	8972
1.31267	8967
1.31333	8962
1.31400	8957
1.31467	8951
1.31533	8946
1.31600	8940
1.31667	8934
1.31733	8928
1.31800	8922
1.31867	8915
1.31933	8909
1.32000	8902
1.32067	8896
1.32133	8889
1.32200	8882
1.32267	8875
1.32333	8868
1.32400	8860
1.32467	8853
1.32533	8846
1.32600	8838
1.32667	8830
1.32733	8823
1.32800	8815
1.32867	8807
1.32933	8799
1.33000	8791
1.33067	8783
1.33133	8775
1.33200	8766
1.33267	8758
1.33333	8750
1.33400	8741
1.33467	8733
1.33533	8724
1.33600	8716
1.33667	8707
1.33733	8698
1.33800	8690
1.33867	8681
1.33933	8672
1.34000	8663
1.34067	8655
1.34133	8646
1.34200	8637
1.34267	8628
1.34333	8619
1.34400	8611
1.34467	8602
1.34533	8593
1.34600	8584
1.34667	8576
1.34733	8567
1.34800	8558
1.34867	8549
1.34933	8541
1.35000	8532
1.35067	8523
1.35133	8515
1.35200	8506
1.35267	8497
1.35333	8489
1.35400	8480
1.35467	8472
1.35533	8463
1.35600	8455
1.35667	8446
1.35733	8438
1.35800	8430
1.35867	8422
1.35933	8414
1.36000	8405
1.36067	8397
1.36133	8390
1.36200	8382
1.36267	8374
1.36333	8366
1.36400	8359
1.36467	8351
1.36533	8344
1.36600	8336
1.36667	8329
1.36733	8322
1.36800	8315
1.36867	8308
1.36933	8301
1.37000	8294
1.37067	8288
1.37133	8281
1.37200	8274
1.37267	8268
1.37333	8261
1.37400	8255
1.37467	8249
1.37533	8243
1.37600	8237
1.37667	8231
1.37733	8225
1.37800	8219
1.37867	8213
1.37933	8207
1.38000	8202
1.38067	8196
1.38133	8191
1.38200	8185
1.38267	8180
1.38333	8174
1.38400	8169
1.38467	8164
1.38533	8158
1.38600	8153
1.38667	8148
1.38733	8143
1.38800	8138
1.38867	8133
1.38933	8128
1.39000	8123
1.39067	8119
1.39133	8114
1.39200	8109
1.39267	8104
1.39333	8099
1.39400	8095
1.39467	8090
1.39533	8085
1.39600	8080
1.39667	8076
1.39733	8071
1.39800	8066
1.39867	8061
1.39933	8056
1.40000	8052
1.40067	8047
1.40133	8042
1.40200	8037
1.40267	8032
1.40333	8027
1.40400	8023
1.40467	8018
1.40533	8013
1.40600	8008
1.40667	8003
1.40733	7998
1.40800	7994
1.40867	7989
1.40933	7984
1.41000	7979
1.41067	7974
1.41133	7969
1.41200	7965
1.41267	7960
1.41333	7955
1.41400	7950
1.41467	7945
1.41533	7941
1.41600	7936
1.41667	7931
1.41733	7927
1.41800	7922
1.41867	7917
1.41933	7913
1.42000	7908
1.42067	7904
1.42133	7899
1.42200	7895
1.42267	7890
1.42333	7885
1.42400	7881
1.42467	7876
1.42533	7872
1.42600	7868
1.42667	7863
1.42733	7859
1.42800	7855
1.42867	7851
1.42933	7846
1.43000	7842
1.43067	7839
1.43133	7835
1.43200	7831
1.43267	7827
1.43333	7823
1.43400	7820
1.43467	7816
1.43533	7812
1.43600	7809
1.43667	7805
1.43733	7802
1.43800	7798
1.43867	7795
1.43933	7792
1.44000	7788
1.44067	7785
1.44133	7782
1.44200	7779
1.44267	7776
1.44333	7772
1.44400	7769
1.44467	7766
1.44533	7763
1.44600	7760
1.44667	7757
1.44733	7754
1.44800	7750
1.44867	7747
1.44933	7744
1.45000	7741
1.45067	7738
1.45133	7735
1.45200	7731
1.45267	7728
1.45333	7725
1.45400	7722
1.45467	7719
1.45533	7716
1.45600	7713
1.45667	7710
1.45733	7707
1.45800	7704
1.45867	7701
1.45933	7698
1.46000	7695
1.46067	7692
1.46133	7689
1.46200	7686
1.46267	7683
1.46333	7680
1.46400	7678
1.46467	7675
1.46533	7672
1.46600	7669
1.46667	7666
1.46733	7664
1.46800	7661
1.46867	7658
1.46933	7656
1.47000	7653
1.47067	7651
1.47133	7648
1.47200	7646
1.47267	7643
1.47333	7641
1.47400	7638
1.47467	7636
1.47533	7633
1.47600	7631
1.47667	7629
1.47733	7626
1.47800	7624
1.47867	7622
1.47933	7619
1.48000	7617
1.48067	7614
1.48133	7612
1.48200	7610
1.48267	7607
1.48333	7605
1.48400	7603
1.48467	7600
1.48533	7598
1.48600	7595
1.48667	7593
1.48733	7590
1.48800	7588
1.48867	7585
1.48933	7583
1.49000	7580
1.49067	7577
1.49133	7575
1.49200	7572
1.49267	7569
1.49333	7566
1.49400	7564
1.49467	7561
1.49533	7558
1.49600	7555
1.49667	7552
1.49733	7549
1.49800	7546
1.49867	7543
1.49933	7540
1.50000	7537
1.50067	7534
1.50133	7531
1.50200	7527
1.50267	7524
1.50333	7521
1.50400	7518
1.50467	7515
1.50533	7512
1.50600	7509
1.50667	7506
1.50733	7503
1.50800	7500
1.50867	7497
1.50933	7494
1.51000	7491
1.51067	7487
1.51133	7484
1.51200	7481
1.51267	7478
1.51333	7475
1.51400	7471
1.51467	7468
1.51533	7465
1.51600	7461
1.51667	7458
1.51733	7455
1.51800	7451
1.51867	7448
1.51933	7445
1.52000	7442
1.52067	7438
1.52133	7435
1.52200	7432
1.52267	7429
1.52333	7426
1.52400	7423
1.52467	7420
1.52533	7417
1.52600	7414
1.52667	7411
1.52733	7409
1.52800	7406
1.52867	7403
1.52933	7400
1.53000	7398
1.53067	7395
1.53133	7393
1.53200	7390
1.53267	7387
1.53333	7385
1.53400	7382
1.53467	7380
1.53533	7377
1.53600	7374
1.53667	7372
1.53733	7369
1.53800	7367
1.53867	7364
1.53933	7362
1.54000	7359
1.54067	7357
1.54133	7354
1.54200	7352
1.54267	7349
1.54333	7347
1.54400	7344
1.54467	7342
1.54533	7339
1.54600	7337
1.54667	7335
1.54733	7332
1.54800	7330
1.54867	7328
1.54933	7325
1.55000	7323
1.55067	7321
1.55133	7318
1.55200	7316
1.55267	7314
1.55333	7311
1.55400	7309
1.55467	7306
1.55533	7304
1.55600	7302
1.55667	7299
1.55733	7297
1.55800	7294
1.55867	7292
1.55933	7289
1.56000	7287
1.56067	7284
1.56133	7282
1.56200	7279
1.56267	7277
1.56333	7274
1.56400	7272
1.56467	7269
1.56533	7267
1.56600	7264
1.56667	7262
1.56733	7260
1.56800	7257
1.56867	7255
1.56933	7252
1.57000	7250
1.57067	7248
1.57133	7245
1.57200	7243
1.57267	7241
1.57333	7238
1.57400	7236
1.57467	7234
1.57533	7231
1.57600	7229
1.57667	7227
1.57733	7225
1.57800	7223
1.57867	7221
1.57933	7218
1.58000	7216
1.58067	7214
1.58133	7212
1.58200	7210
1.58267	7208
1.58333	7206
1.58400	7204
1.58467	7202
1.58533	7201
1.58600	7199
1.58667	7197
1.58733	7195
1.58800	7193
1.58867	7191
1.58933	7189
1.59000	7187
1.59067	7186
1.59133	7184
1.59200	7182
1.59267	7180
1.59333	7178
1.59400	7176
1.59467	7174
1.59533	7172
1.59600	7170
1.59667	7168
1.59733	7166
1.59800	7164
1.59867	7162
1.59933	7160
1.60000	7158
1.60067	7156
1.60133	7154
1.60200	7152
1.60267	7150
1.60333	7148
1.60400	7146
1.60467	7144
1.60533	7142
1.60600	7140
1.60667	7138
1.60733	7136
1.60800	7134
1.60867	7131
1.60933	7129
1.61000	7127
1.61067	7125
1.61133	7123
1.61200	7121
1.61267	7119
1.61333	7117
1.61400	7115
1.61467	7113
1.61533	7111
1.61600	7109
1.61667	7108
1.61733	7106
1.61800	7104
1.61867	7102
1.61933	7100
1.62000	7099
1.62067	7097
1.62133	7095
1.62200	7093
1.62267	7091
1.62333	7090
1.62400	7088
1.62467	7086
1.62533	7084
1.62600	7083
1.62667	7081
1.62733	7079
1.62800	7078
1.62867	7076
1.62933	7074
1.63000	7073
1.63067	7071
1.63133	7069
1.63200	7068
1.63267	7066
1.63333	7064
1.63400	7063
1.63467	7061
1.63533	7060
1.63600	7058
1.63667	7057
1.63733	7055
1.63800	7054
1.63867	7052
1.63933	7051
1.64000	7050
1.64067	7048
1.64133	7047
1.64200	7046
1.64267	7045
1.64333	7044
1.64400	7042
1.64467	7041
1.64533	7040
1.64600	7039
1.64667	7038
1.64733	7037
1.64800	7036
1.64867	7035
1.64933	7034
1.65000	7033
1.65067	7032
1.65133	7031
1.65200	7030
1.65267	7029
1.65333	7028
1.65400	7027
1.65467	7026
1.65533	7025
1.65600	7024
1.65667	7024
1.65733	7023
1.65800	7022
1.65867	7021
1.65933	7020
1.66000	7019
1.66067	7018
1.66133	7017
1.66200	7016
1.66267	7015
1.66333	7014
1.66400	7013
1.66467	7012
1.66533	7011
1.66600	7010
1.66667	7009
1.66733	7008
1.66800	7007
1.66867	7006
1.66933	7005
1.67000	7003
1.67067	7002
1.67133	7001
1.67200	6999
1.67267	6998
1.67333	6996
1.67400	6995
1.67467	6993
1.67533	6991
1.67600	6990
1.67667	6988
1.67733	6986
1.67800	6985
1.67867	6983
1.67933	6981
1.68000	6979
1.68067	6977
1.68133	6975
1.68200	6973
1.68267	6971
1.68333	6969
1.68400	6967
1.68467	6965
1.68533	6963
1.68600	6960
1.68667	6958
1.68733	6956
1.68800	6954
1.68867	6952
1.68933	6950
1.69000	6948
1.69067	6946
1.69133	6944
1.69200	6942
1.69267	6940
1.69333	6938
1.69400	6936
1.69467	6934
1.69533	6932
1.69600	6930
1.69667	6928
1.69733	6926
1.69800	6924
1.69867	6922
1.69933	6920
1.70000	6918
1.70067	6916
1.70133	6914
1.70200	6912
1.70267	6910
1.70333	6908
1.70400	6907
1.70467	6905
1.70533	6903
1.70600	6901
1.70667	6899
1.70733	6897
1.70800	6896
1.70867	6894
1.70933	6892
1.71000	6890
1.71067	6888
1.71133	6887
1.71200	6885
1.71267	6883
1.71333	6882
1.71400	6880
1.71467	6879
1.71533	6878
1.71600	6877
1.71667	6876
1.71733	6876
1.71800	6876
1.71867	6876
1.71933	6877
1.72000	6879
1.72067	6882
1.72133	6886
1.72200	6892
1.72267	6900
1.72333	6910
1.72400	6922
1.72467	6939
1.72533	6959
1.72600	6985
1.72667	7016
1.72733	7055
1.72800	7102
1.72867	7160
1.72933	7230
1.73000	7313
1.73067	7414
1.73133	7534
1.73200	7676
1.73267	7844
1.73333	8042
1.73400	8274
1.73467	8543
1.73533	8856
1.73600	9219
1.73667	9636
1.73733	10114
1.73800	10662
1.73867	11284
1.73933	11990
1.74000	12787
1.74067	13684
1.74133	14690
1.74200	15813
1.74267	17064
1.74333	18453
1.74400	19991
1.74467	21686
1.74533	23549
1.74600	25590
1.74667	27817
1.74733	30239
1.74800	32863
1.74867	35699
1.74933	38754
1.75000	42033
1.75067	45544
1.75133	49290
1.75200	53277
1.75267	57504
1.75333	61973
1.75400	66683
1.75467	71633
1.75533	76818
1.75600	82231
1.75667	87862
1.75733	93702
1.75800	99736
1.75867	105951
1.75933	112331
1.76000	118860
1.76067	125520
1.76133	132288
1.76200	139140
1.76267	146053
1.76333	152998
1.76400	159951
1.76467	166885
1.76533	173775
1.76600	180591
1.76667	187307
1.76733	193893
1.76800	200324
1.76867	206571
1.76933	212609
1.77000	218412
1.77067	223959
1.77133	229228
1.77200	234202
1.77267	238865
1.77333	243205
1.77400	247212
1.77467	250878
1.77533	254198
1.77600	257170
1.77667	259792
1.77733	262066
1.77800	263995
1.77867	265586
1.77933	266843
1.78000	267776
1.78067	268393
1.78133	268705
1.78200	268723
1.78267	268458
1.78333	267923
1.78400	267130
1.78467	266091
1.78533	264821
1.78600	263332
1.78667	261638
1.78733	259751
1.78800	257686
1.78867	255453
1.78933	253067
1.79000	250538
1.79067	247879
1.79133	245101
1.79200	242215
1.79267	239231
1.79333	236159
1.79400	233009
1.79467	229790
1.79533	226510
1.79600	223178
1.79667	219801
1.79733	216387
1.79800	212942
1.79867	209473
1.79933	205986
1.80000	202487
1.80067	198981
1.80133	195472
1.80200	191966
1.80267	188467
1.80333	184979
1.80400	181505
1.80467	178050
1.80533	174615
1.80600	171205
1.80667	167822
1.80733	164468
1.80800	161146
1.80867	157857
1.80933	154604
1.81000	151389
1.81067	148212
1.81133	145075
1.81200	141980
1.81267	138928
1.81333	135919
1.81400	132954
1.81467	130035
1.81533	127161
1.81600	124334
1.81667	121553
1.81733	118819
1.81800	116132
1.81867	113492
1.81933	110900
1.82000	108356
1.82067	105859
1.82133	103409
1.82200	101006
1.82267	98651
1.82333	96342
1.82400	94080
1.82467	91864
1.82533	89694
1.82600	87569
1.82667	85490
1.82733	83455
1.82800	81464
1.82867	79516
1.82933	77612
1.83000	75750
1.83067	73931
1.83133	72152
1.83200	70415
1.83267	68717
1.83333	67059
1.83400	65441
1.83467	63860
1.83533	62318
1.83600	60812
1.83667	59343
1.83733	57909
1.83800	56511
1.83867	55147
1.83933	53817
1.84000	52520
1.84067	51256
1.84133	50024
1.84200	48823
1.84267	47653
1.84333	46512
1.84400	45401
1.84467	44319
1.84533	43265
1.84600	42239
1.84667	41239
1.84733	40266
1.84800	39318
1.84867	38396
1.84933	37498
1.85000	36624
1.85067	35774
1.85133	34947
1.85200	34142
1.85267	33358
1.85333	32597
1.85400	31856
1.85467	31135
1.85533	30434
1.85600	29752
1.85667	29090
1.85733	28445
1.85800	27818
1.85867	27209
1.85933	26617
1.86000	26041
1.86067	25481
1.86133	24937
1.86200	24409
1.86267	23895
1.86333	23395
1.86400	22910
1.86467	22438
1.86533	21980
1.86600	21534
1.86667	21102
1.86733	20681
1.86800	20273
1.86867	19876
1.86933	19490
1.87000	19115
1.87067	18751
1.87133	18398
1.87200	18054
1.87267	17721
1.87333	17397
1.87400	17082
1.87467	16777
1.87533	16480
1.87600	16191
1.87667	15911
1.87733	15639
1.87800	15375
1.87867	15119
1.87933	14870
1.88000	14629
1.88067	14394
1.88133	14166
1.88200	13945
1.88267	13731
1.88333	13522
1.88400	13320
1.88467	13124
1.88533	12933
1.88600	12748
1.88667	12568
1.88733	12394
1.88800	12225
1.88867	12061
1.88933	11901
1.89000	11747
1.89067	11596
1.89133	11451
1.89200	11309
1.89267	11172
1.89333	11039
1.89400	10909
1.89467	10784
1.89533	10662
1.89600	10543
1.89667	10428
1.89733	10317
1.89800	10208
1.89867	10103
1.89933	10001
1.90000	9902
1.90067	9806
1.90133	9712
1.90200	9622
1.90267	9533
1.90333	9448
1.90400	9365
1.90467	9284
1.90533	9205
1.90600	9129
1.90667	9055
1.90733	8983
1.90800	8913
1.90867	8845
1.90933	8779
1.91000	8714
1.91067	8652
1.91133	8591
1.91200	8532
1.91267	8475
1.91333	8419
1.91400	8364
1.91467	8311
1.91533	8260
1.91600	8210
1.91667	8161
1.91733	8114
1.91800	8067
1.91867	8022
1.91933	7978
1.92000	7935
1.92067	7894
1.92133	7853
1.92200	7813
1.92267	7774
1.92333	7737
1.92400	7700
1.92467	7664
1.92533	7629
1.92600	7594
1.92667	7561
1.92733	7528
1.92800	7496
1.92867	7465
1.92933	7435
1.93000	7405
1.93067	7376
1.93133	7347
1.93200	7320
1.93267	7292
1.93333	7266
1.93400	7240
1.93467	7215
1.93533	7190
1.93600	7166
1.93667	7142
1.93733	7119
1.93800	7096
1.93867	7074
1.93933	7052
1.94000	7031
1.94067	7011
1.94133	6990
1.94200	6971
1.94267	6951
1.94333	6933
1.94400	6914
1.94467	6896
1.94533	6879
1.94600	6862
1.94667	6845
1.94733	6829
1.94800	6813
1.94867	6798
1.94933	6783
1.95000	6768
1.95067	6754
1.95133	6740
1.95200	6726
1.95267	6713
1.95333	6700
1.95400	6687
1.95467	6675
1.95533	6663
1.95600	6651
1.95667	6640
1.95733	6628
1.95800	6617
1.95867	6606
1.95933	6596
1.96000	6585
1.96067	6575
1.96133	6565
1.96200	6555
1.96267	6545
1.96333	6536
1.96400	6526
1.96467	6517
1.96533	6508
1.96600	6499
1.96667	6490
1.96733	6482
1.96800	6473
1.96867	6464
1.96933	6456
1.97000	6448
1.97067	6440
1.97133	6431
1.97200	6423
1.97267	6416
1.97333	6408
1.97400	6400
1.97467	6393
1.97533	6385
1.97600	6378
1.97667	6371
1.97733	6364
1.97800	6357
1.97867	6350
1.97933	6343
1.98000	6336
1.98067	6330
1.98133	6323
1.98200	6317
1.98267	6311
1.98333	6305
1.98400	6299
1.98467	6293
1.98533	6287
1.98600	6282
1.98667	6276
1.98733	6270
1.98800	6265
1.98867	6260
1.98933	6254
1.99000	6249
1.99067	6244
1.99133	6238
1.99200	6233
1.99267	6228
1.99333	6223
1.99400	6218
1.99467	6213
1.99533	6208
1.99600	6203
1.99667	6198
1.99733	6194
1.99800	6189
1.99867	6184
1.99933	6179
2.00000	6174
2.00067	6169
2.00133	6164
2.00200	6160
2.00267	6155
2.00333	6150
2.00400	6145
2.00467	6141
2.00533	6136
2.00600	6131
2.00667	6127
2.00733	6122
2.00800	6118
2.00867	6113
2.00933	6109
2.01000	6104
2.01067	6100
2.01133	6095
2.01200	6091
2.01267	6087
2.01333	6083
2.01400	6078
2.01467	6074
2.01533	6070
2.01600	6066
2.01667	6062
2.01733	6058
2.01800	6053
2.01867	6049
2.01933	6046
2.02000	6042
2.02067	6038
2.02133	6034
2.02200	6030
2.02267	6026
2.02333	6022
2.02400	6018
2.02467	6015
2.02533	6011
2.02600	6007
2.02667	6003
2.02733	6000
2.02800	5996
2.02867	5992
2.02933	5988
2.03000	5984
2.03067	5981
2.03133	5977
2.03200	5973
2.03267	5969
2.03333	5966
2.03400	5962
2.03467	5958
2.03533	5955
2.03600	5951
2.03667	5948
2.03733	5944
2.03800	5941
2.03867	5938
2.03933	5934
2.04000	5931
2.04067	5928
2.04133	5925
2.04200	5921
2.04267	5918
2.04333	5915
2.04400	5912
2.04467	5909
2.04533	5906
2.04600	5902
2.04667	5899
2.04733	5896
2.04800	5893
2.04867	5890
2.04933	5887
2.05000	5885
2.05067	5882
2.05133	5879
2.05200	5876
2.05267	5873
2.05333	5870
2.05400	5867
2.05467	5864
2.05533	5861
2.05600	5858
2.05667	5855
2.05733	5852
2.05800	5849
2.05867	5846
2.05933	5844
2.06000	5841
2.06067	5838
2.06133	5835
2.06200	5832
2.06267	5830
2.06333	5827
2.06400	5824
2.06467	5821
2.06533	5819
2.06600	5816
2.06667	5813
2.06733	5811
2.06800	5808
2.06867	5805
2.06933	5802
2.07000	5800
2.07067	5797
2.07133	5794
2.07200	5792
2.07267	5789
2.07333	5786
2.07400	5783
2.07467	5780
2.07533	5778
2.07600	5775
2.07667	5772
2.07733	5769
2.07800	5766
2.07867	5763
2.07933	5761
2.08000	5758
2.08067	5755
2.08133	5752
2.08200	5750
2.08267	5747
2.08333	5744
2.08400	5741
2.08467	5739
2.08533	5736
2.08600	5733
2.08667	5730
2.08733	5728
2.08800	5725
2.08867	5722
2.08933	5720
2.09000	5717
2.09067	5715
2.09133	5712
2.09200	5709
2.09267	5707
2.09333	5704
2.09400	5701
2.09467	5699
2.09533	5696
2.09600	5694
2.09667	5691
2.09733	5689
2.09800	5686
2.09867	5684
2.09933	5681
2.10000	5679
2.10067	5676
2.10133	5674
2.10200	5672
2.10267	5669
2.10333	5667
2.10400	5665
2.10467	5662
2.10533	5660
2.10600	5658
2.10667	5656
2.10733	5653
2.10800	5651
2.10867	5649
2.10933	5647
2.11000	5644
2.11067	5642
2.11133	5640
2.11200	5638
2.11267	5636
2.11333	5633
2.11400	5631
2.11467	5629
2.11533	5627
2.11600	5624
2.11667	5622
2.11733	5620
2.11800	5618
2.11867	5615
2.11933	5613
2.12000	5611
2.12067	5608
2.12133	5606
2.12200	5604
2.12267	5601
2.12333	5599
2.12400	5596
2.12467	5594
2.12533	5592
2.12600	5589
2.12667	5587
2.12733	5585
2.12800	5582
2.12867	5580
2.12933	5578
2.13000	5575
2.13067	5573
2.13133	5571
2.13200	5568
2.13267	5566
2.13333	5564
2.13400	5562
2.13467	5560
2.13533	5558
2.13600	5555
2.13667	5553
2.13733	5551
2.13800	5549
2.13867	5547
2.13933	5545
2.14000	5543
2.14067	5541
2.14133	5539
2.14200	5537
2.14267	5535
2.14333	5533
2.14400	5531
2.14467	5529
2.14533	5527
2.14600	5525
2.14667	5523
2.14733	5521
2.14800	5520
2.14867	5518
2.14933	5516
2.15000	5514
2.15067	5512
2.15133	5510
2.15200	5508
2.15267	5506
2.15333	5505
2.15400	5503
2.15467	5501
2.15533	5499
2.15600	5497
2.15667	5495
2.15733	5493
2.15800	5491
2.15867	5489
2.15933	5487
2.16000	5486
2.16067	5484
2.16133	5482
2.16200	5480
2.16267	5478
2.16333	5476
2.16400	5474
2.16467	5472
2.16533	5470
2.16600	5468
2.16667	5467
2.16733	5465
2.16800	5463
2.16867	5461
2.16933	5459
2.17000	5458
2.17067	5456
2.17133	5454
2.17200	5452
2.17267	5450
2.17333	5448
2.17400	5446
2.17467	5444
2.17533	5443
2.17600	5441
2.17667	5439
2.17733	5437
2.17800	5435
2.17867	5433
2.17933	5432
2.18000	5430
2.18067	5428
2.18133	5426
2.18200	5425
2.18267	5423
2.18333	5421
2.18400	5420
2.18467	5418
2.18533	5416
2.18600	5415
2.18667	5413
2.18733	5411
2.18800	5410
2.18867	5408
2.18933	5406
2.19000	5405
2.19067	5403
2.19133	5401
2.19200	5400
2.19267	5398
2.19333	5397
2.19400	5395
2.19467	5393
2.19533	5392
2.19600	5390
2.19667	5389
2.19733	5387
2.19800	5386
2.19867	5385
2.19933	5383
2.20000	5382
2.20067	5380
2.20133	5379
2.20200	5378
2.20267	5376
2.20333	5375
2.20400	5374
2.20467	5372
2.20533	5371
2.20600	5370
2.20667	5369
2.20733	5368
2.20800	5367
2.20867	5366
2.20933	5365
2.21000	5364
2.21067	5363
2.21133	5362
2.21200	5361
2.21267	5360
2.21333	5360
2.21400	5359
2.21467	5358
2.21533	5358
2.21600	5357
2.21667	5356
2.21733	5356
2.21800	5355
2.21867	5355
2.21933	5354
2.22000	5354
2.22067	5353
2.22133	5353
2.22200	5353
2.22267	5352
2.22333	5352
2.22400	5352
2.22467	5351
2.22533	5351
2.22600	5351
2.22667	5351
2.22733	5350
2.22800	5350
2.22867	5349
2.22933	5349
2.23000	5348
2.23067	5348
2.23133	5348
2.23200	5347
2.23267	5346
2.23333	5346
2.23400	5345
2.23467	5345
2.23533	5344
2.23600	5343
2.23667	5342
2.23733	5342
2.23800	5341
2.23867	5340
2.23933	5339
2.24000	5339
2.24067	5338
2.24133	5337
2.24200	5336
2.24267	5335
2.24333	5334
2.24400	5334
2.24467	5333
2.24533	5332
2.24600	5331
2.24667	5330
2.24733	5330
2.24800	5329
2.24867	5328
2.24933	5327
2.25000	5326
2.25067	5326
2.25133	5325
2.25200	5324
2.25267	5323
2.25333	5322
2.25400	5322
2.25467	5321
2.25533	5320
2.25600	5319
2.25667	5318
2.25733	5317
2.25800	5316
2.25867	5315
2.25933	5314
2.26000	5313
2.26067	5312
2.26133	5311
2.26200	5310
2.26267	5309
2.26333	5308
2.26400	5307
2.26467	5306
2.26533	5304
2.26600	5303
2.26667	5302
2.26733	5300
2.26800	5299
2.26867	5297
2.26933	5296
2.27000	5295
2.27067	5293
2.27133	5292
2.27200	5290
2.27267	5288
2.27333	5287
2.27400	5285
2.27467	5284
2.27533	5282
2.27600	5280
2.27667	5279
2.27733	5277
2.27800	5275
2.27867	5273
2.27933	5272
2.28000	5270
2.28067	5268
2.28133	5266
2.28200	5264
2.28267	5262
2.28333	5260
2.28400	5258
2.28467	5257
2.28533	5255
2.28600	5253
2.28667	5251
2.28733	5249
2.28800	5247
2.28867	5245
2.28933	5244
2.29000	5242
2.29067	5240
2.29133	5238
2.29200	5236
2.29267	5235
2.29333	5233
2.29400	5231
2.29467	5229
2.29533	5227
2.29600	5226
2.29667	5224
2.29733	5222
2.29800	5221
2.29867	5219
2.29933	5218
2.30000	5216
2.30067	5215
2.30133	5213
2.30200	5212
2.30267	5211
2.30333	5209
2.30400	5208
2.30467	5207
2.30533	5206
2.30600	5204
2.30667	5203
2.30733	5202
2.30800	5201
2.30867	5200
2.30933	5199
2.31000	5199
2.31067	5198
2.31133	5197
2.31200	5196
2.31267	5195
2.31333	5194
2.31400	5194
2.31467	5193
2.31533	5192
2.31600	5191
2.31667	5191
2.31733	5190
2.31800	5190
2.31867	5189
2.31933	5189
2.32000	5188
2.32067	5188
2.32133	5187
2.32200	5187
2.32267	5186
2.32333	5186
2.32400	5186
2.32467	5186
2.32533	5185
2.32600	5185
2.32667	5185
2.32733	5185
2.32800	5184
2.32867	5184
2.32933	5184
2.33000	5184
2.33067	5184
2.33133	5184
2.33200	5184
2.33267	5184
2.33333	5184
2.33400	5184
2.33467	5184
2.33533	5184
2.33600	5184
2.33667	5184
2.33733	5184
2.33800	5184
2.33867	5184
2.33933	5185
2.34000	5185
2.34067	5185
2.34133	5185
2.34200	5185
2.34267	5186
2.34333	5186
2.34400	5186
2.34467	5187
2.34533	5187
2.34600	5188
2.34667	5188
2.34733	5188
2.34800	5189
2.34867	5189
2.34933	5190
2.35000	5190
2.35067	5191
2.35133	5192
2.35200	5192
2.35267	5193
2.35333	5194
2.35400	5194
2.35467	5195
2.35533	5196
2.35600	5197
2.35667	5198
2.35733	5199
2.35800	5200
2.35867	5201
2.35933	5202
2.36000	5203
2.36067	5204
2.36133	5205
2.36200	5206
2.36267	5208
2.36333	5209
2.36400	5210
2.36467	5211
2.36533	5212
2.36600	5213
2.36667	5214
2.36733	5215
2.36800	5216
2.36867	5216
2.36933	5217
2.37000	5218
2.37067	5219
2.37133	5219
2.37200	5220
2.37267	5220
2.37333	5221
2.37400	5221
2.37467	5222
2.37533	5222
2.37600	5222
2.37667	5223
2.37733	5223
2.37800	5223
2.37867	5223
2.37933	5223
2.38000	5223
2.38067	5222
2.38133	5222
2.38200	5222
2.38267	5222
2.38333	5221
2.38400	5221
2.38467	5220
2.38533	5220
2.38600	5219
2.38667	5219
2.38733	5218
2.38800	5218
2.38867	5217
2.38933	5217
2.39000	5216
2.39067	5215
2.39133	5214
2.39200	5214
2.39267	5213
2.39333	5212
2.39400	5211
2.39467	5210
2.39533	5209
2.39600	5208
2.39667	5207
2.39733	5206
2.39800	5205
2.39867	5204
2.39933	5203
2.40000	5202
2.40067	5201
2.40133	5200
2.40200	5199
2.40267	5198
2.40333	5197
2.40400	5196
2.40467	5195
2.40533	5194
2.40600	5193
2.40667	5192
2.40733	5190
2.40800	5189
2.40867	5188
2.40933	5187
2.41000	5186
2.41067	5184
2.41133	5183
2.41200	5182
2.41267	5181
2.41333	5180
2.41400	5179
2.41467	5177
2.41533	5176
2.41600	5175
2.41667	5174
2.41733	5172
2.41800	5171
2.41867	5170
2.41933	5168
2.42000	5167
2.42067	5166
2.42133	5164
2.42200	5163
2.42267	5161
2.42333	5160
2.42400	5159
2.42467	5157
2.42533	5155
2.42600	5154
2.42667	5152
2.42733	5151
2.42800	5149
2.42867	5147
2.42933	5145
2.43000	5144
2.43067	5142
2.43133	5140
2.43200	5138
2.43267	5136
2.43333	5134
2.43400	5132
2.43467	5130
2.43533	5128
2.43600	5126
2.43667	5124
2.43733	5122
2.43800	5120
2.43867	5118
2.43933	5115
2.44000	5113
2.44067	5111
2.44133	5109
2.44200	5107
2.44267	5104
2.44333	5102
2.44400	5100
2.44467	5097
2.44533	5095
2.44600	5092
2.44667	5090
2.44733	5087
2.44800	5085
2.44867	5082
2.44933	5080
2.45000	5077
2.45067	5075
2.45133	5072
2.45200	5070
2.45267	5067
2.45333	5065
2.45400	5062
2.45467	5059
2.45533	5057
2.45600	5054
2.45667	5052
2.45733	5049
2.45800	5047
2.45867	5044
2.45933	5041
2.46000	5039
2.46067	5036
2.46133	5034
2.46200	5031
2.46267	5028
2.46333	5026
2.46400	5023
2.46467	5021
2.46533	5018
2.46600	5016
2.46667	5013
2.46733	5011
2.46800	5009
2.46867	5006
2.46933	5004
2.47000	5001
2.47067	4999
2.47133	4996
2.47200	4994
2.47267	4992
2.47333	4989
2.47400	4987
2.47467	4985
2.47533	4982
2.47600	4980
2.47667	4977
2.47733	4975
2.47800	4973
2.47867	4970
2.47933	4968
2.48000	4966
2.48067	4963
2.48133	4961
2.48200	4958
2.48267	4956
2.48333	4954
2.48400	4951
2.48467	4949
2.48533	4947
2.48600	4945
2.48667	4942
2.48733	4940
2.48800	4938
2.48867	4935
2.48933	4933
2.49000	4931
2.49067	4929
2.49133	4926
2.49200	4924
2.49267	4922
2.49333	4920
2.49400	4917
2.49467	4915
2.49533	4913
2.49600	4911
2.49667	4909
2.49733	4907
2.49800	4904
2.49867	4902
2.49933	4900
2.50000	4898
2.50067	4896
2.50133	4894
2.50200	4892
2.50267	4890
2.50333	4888
2.50400	4886
2.50467	4884
2.50533	4882
2.50600	4880
2.50667	4878
2.50733	4876
2.50800	4874
2.50867	4873
2.50933	4871
2.51000	4869
2.51067	4867
2.51133	4865
2.51200	4863
2.51267	4861
2.51333	4859
2.51400	4857
2.51467	4855
2.51533	4853
2.51600	4852
2.51667	4850
2.51733	4848
2.51800	4846
2.51867	4844
2.51933	4842
2.52000	4841
2.52067	4839
2.52133	4837
2.52200	4835
2.52267	4834
2.52333	4832
2.52400	4830
2.52467	4829
2.52533	4827
2.52600	4825
2.52667	4824
2.52733	4822
2.52800	4820
2.52867	4818
2.52933	4817
2.53000	4815
2.53067	4813
2.53133	4812
2.53200	4810
2.53267	4808
2.53333	4807
2.53400	4805
2.53467	4803
2.53533	4802
2.53600	4800
2.53667	4798
2.53733	4796
2.53800	4795
2.53867	4793
2.53933	4791
2.54000	4789
2.54067	4788
2.54133	4786
2.54200	4784
2.54267	4782
2.54333	4780
2.54400	4779
2.54467	4777
2.54533	4775
2.54600	4774
2.54667	4772
2.54733	4771
2.54800	4769
2.54867	4767
2.54933	4766
2.55000	4765
2.55067	4763
2.55133	4762
2.55200	4761
2.55267	4759
2.55333	4758
2.55400	4757
2.55467	4755
2.55533	4754
2.55600	4752
2.55667	4751
2.55733	4750
2.55800	4748
2.55867	4747
2.55933	4746
2.56000	4745
2.56067	4743
2.56133	4742
2.56200	4741
2.56267	4740
2.56333	4738
2.56400	4737
2.56467	4736
2.56533	4734
2.56600	4733
2.56667	4732
2.56733	4731
2.56800	4729
2.56867	4728
2.56933	4727
2.57000	4725
2.57067	4724
2.57133	4723
2.57200	4722
2.57267	4720
2.57333	4719
2.57400	4718
2.57467	4717
2.57533	4715
2.57600	4714
2.57667	4713
2.57733	4712
2.57800	4711
2.57867	4710
2.57933	4708
2.58000	4707
2.58067	4706
2.58133	4705
2.58200	4704
2.58267	4702
2.58333	4701
2.58400	4700
2.58467	4699
2.58533	4698
2.58600	4696
2.58667	4695
2.58733	4694
2.58800	4693
2.58867	4692
2.58933	4691
2.59000	4689
2.59067	4688
2.59133	4687
2.59200	4686
2.59267	4685
2.59333	4684
2.59400	4682
2.59467	4681
2.59533	4680
2.59600	4679
2.59667	4678
2.59733	4676
2.59800	4675
2.59867	4674
2.59933	4673
2.60000	4672
2.60067	4670
2.60133	4669
2.60200	4668
2.60267	4667
2.60333	4666
2.60400	4664
2.60467	4663
2.60533	4662
2.60600	4661
2.60667	4660
2.60733	4659
2.60800	4658
2.60867	4657
2.60933	4655
2.61000	4654
2.61067	4653
2.61133	4652
2.61200	4651
2.61267	4650
2.61333	4648
2.61400	4647
2.61467	4646
2.61533	4645
2.61600	4643
2.61667	4642
2.61733	4641
2.61800	4640
2.61867	4638
2.61933	4637
2.62000	4636
2.62067	4634
2.62133	4633
2.62200	4632
2.62267	4630
2.62333	4629
2.62400	4628
2.62467	4626
2.62533	4625
2.62600	4624
2.62667	4622
2.62733	4621
2.62800	4619
2.62867	4618
2.62933	4617
2.63000	4615
2.63067	4614
2.63133	4612
2.63200	4611
2.63267	4610
2.63333	4608
2.63400	4607
2.63467	4605
2.63533	4604
2.63600	4603
2.63667	4602
2.63733	4601
2.63800	4599
2.63867	4598
2.63933	4597
2.64000	4596
2.64067	4595
2.64133	4594
2.64200	4593
2.64267	4592
2.64333	4591
2.64400	4589
2.64467	4588
2.64533	4587
2.64600	4586
2.64667	4585
2.64733	4583
2.64800	4582
2.64867	4581
2.64933	4580
2.65000	4578
2.65067	4577
2.65133	4576
2.65200	4574
2.65267	4573
2.65333	4572
2.65400	4571
2.65467	4569
2.65533	4568
2.65600	4567
2.65667	4565
2.65733	4564
2.65800	4563
2.65867	4561
2.65933	4560
2.66000	4559
2.66067	4557
2.66133	4556
2.66200	4555
2.66267	4554
2.66333	4552
2.66400	4551
2.66467	4549
2.66533	4548
2.66600	4547
2.66667	4545
2.66733	4544
2.66800	4543
2.66867	4541
2.66933	4540
2.67000	4539
2.67067	4538
2.67133	4536
2.67200	4535
2.67267	4534
2.67333	4532
2.67400	4531
2.67467	4529
2.67533	4528
2.67600	4527
2.67667	4525
2.67733	4524
2.67800	4522
2.67867	4521
2.67933	4520
2.68000	4518
2.68067	4517
2.68133	4516
2.68200	4514
2.68267	4513
2.68333	4512
2.68400	4511
2.68467	4509
2.68533	4508
2.68600	4507
2.68667	4506
2.68733	4504
2.68800	4503
2.68867	4502
2.68933	4501
2.69000	4500
2.69067	4499
2.69133	4497
2.69200	4496
2.69267	4495
2.69333	4494
2.69400	4493
2.69467	4492
2.69533	4491
2.69600	4489
2.69667	4488
2.69733	4487
2.69800	4486
2.69867	4485
2.69933	4484
2.70000	4483
2.70067	4482
2.70133	4481
2.70200	4480
2.70267	4479
2.70333	4478
2.70400	4477
2.70467	4476
2.70533	4476
2.70600	4475
2.70667	4474
2.70733	4473
2.70800	4472
2.70867	4471
2.70933	4471
2.71000	4470
2.71067	4469
2.71133	4468
2.71200	4467
2.71267	4466
2.71333	4466
2.71400	4465
2.71467	4464
2.71533	4463
2.71600	4462
2.71667	4461
2.71733	4460
2.71800	4459
2.71867	4459
2.71933	4458
2.72000	4457
2.72067	4456
2.72133	4455
2.72200	4455
2.72267	4454
2.72333	4453
2.72400	4452
2.72467	4452
2.72533	4451
2.72600	4450
2.72667	4450
2.72733	4449
2.72800	4448
2.72867	4447
2.72933	4447
2.73000	4446
2.73067	4445
2.73133	4444
2.73200	4443
2.73267	4443
2.73333	4442
2.73400	4441
2.73467	4440
2.73533	4439
2.73600	4439
2.73667	4438
2.73733	4437
2.73800	4436
2.73867	4436
2.73933	4435
2.74000	4434
2.74067	4434
2.74133	4433
2.74200	4432
2.74267	4432
2.74333	4431
2.74400	4430
2.74467	4430
2.74533	4429
2.74600	4428
2.74667	4428
2.74733	4427
2.74800	4426
2.74867	4426
2.74933	4425
2.75000	4425
2.75067	4424
2.75133	4423
2.75200	4423
2.75267	4422
2.75333	4422
2.75400	4421
2.75467	4421
2.75533	4420
2.75600	4420
2.75667	4420
2.75733	4419
2.75800	4419
2.75867	4419
2.75933	4418
2.76000	4418
2.76067	4418
2.76133	4418
2.76200	4417
2.76267	4417
2.76333	4417
2.76400	4417
2.76467	4417
2.76533	4416
2.76600	4416
2.76667	4416
2.76733	4416
2.76800	4416
2.76867	4416
2.76933	4416
2.77000	4416
2.77067	4416
2.77133	4416
2.77200	4416
2.77267	4416
2.77333	4416
2.77400	4416
2.77467	4416
2.77533	4416
2.77600	4417
2.77667	4417
2.77733	4417
2.77800	4418
2.77867	4418
2.77933	4418
2.78000	4419
2.78067	4419
2.78133	4420
2.78200	4420
2.78267	4421
2.78333	4421
2.78400	4422
2.78467	4422
2.78533	4423
2.78600	4424
2.78667	4425
2.78733	4425
2.78800	4426
2.78867	4427
2.78933	4428
2.79000	4428
2.79067	4429
2.79133	4430
2.79200	4431
2.79267	4432
2.79333	4433
2.79400	4434
2.79467	4434
2.79533	4435
2.79600	4436
2.79667	4437
2.79733	4438
2.79800	4439
2.79867	4439
2.79933	4440
2.80000	4441
2.80067	4442
2.80133	4443
2.80200	4444
2.80267	4445
2.80333	4445
2.80400	4446
2.80467	4447
2.80533	4448
2.80600	4449
2.80667	4449
2.80733	4450
2.80800	4451
2.80867	4452
2.80933	4453
2.81000	4453
2.81067	4454
2.81133	4455
2.81200	4455
2.81267	4456
2.81333	4457
2.81400	4457
2.81467	4458
2.81533	4458
2.81600	4459
2.81667	4459
2.81733	4460
2.81800	4460
2.81867	4460
2.81933	4461
2.82000	4461
2.82067	4462
2.82133	4462
2.82200	4462
2.82267	4463
2.82333	4463
2.82400	4463
2.82467	4463
2.82533	4463
2.82600	4464
2.82667	4464
2.82733	4464
2.82800	4464
2.82867	4464
2.82933	4464
2.83000	4464
2.83067	4464
2.83133	4464
2.83200	4464
2.83267	4464
2.83333	4464
2.83400	4464
2.83467	4464
2.83533	4464
2.83600	4463
2.83667	4463
2.83733	4463
2.83800	4463
2.83867	4463
2.83933	4463
2.84000	4462
2.84067	4462
2.84133	4462
2.84200	4462
2.84267	4462
2.84333	4462
2.84400	4462
2.84467	4461
2.84533	4461
2.84600	4461
2.84667	4461
2.84733	4461
2.84800	4460
2.84867	4460
2.84933	4460
2.85000	4460
2.85067	4459
2.85133	4459
2.85200	4459
2.85267	4459
2.85333	4459
2.85400	4459
2.85467	4458
2.85533	4458
2.85600	4458
2.85667	4458
2.85733	4458
2.85800	4458
2.85867	4458
2.85933	4458
2.86000	4459
2.86067	4459
2.86133	4459
2.86200	4459
2.86267	4459
2.86333	4459
2.86400	4459
2.86467	4460
2.86533	4460
2.86600	4460
2.86667	4460
2.86733	4461
2.86800	4461
2.86867	4462
2.86933	4462
2.87000	4463
2.87067	4463
2.87133	4464
2.87200	4464
2.87267	4465
2.87333	4465
2.87400	4466
2.87467	4467
2.87533	4467
2.87600	4468
2.87667	4469
2.87733	4469
2.87800	4470
2.87867	4471
2.87933	4472
2.88000	4473
2.88067	4474
2.88133	4475
2.88200	4476
2.88267	4476
2.88333	4477
2.88400	4478
2.88467	4479
2.88533	4480
2.88600	4481
2.88667	4482
2.88733	4483
2.88800	4485
2.88867	4486
2.88933	4487
2.89000	4488
2.89067	4489
2.89133	4490
2.89200	4491
2.89267	4492
2.89333	4494
2.89400	4495
2.89467	4496
2.89533	4497
2.89600	4498
2.89667	4499
2.89733	4500
2.89800	4501
2.89867	4502
2.89933	4502
2.90000	4503
2.90067	4504
2.90133	4504
2.90200	4505
2.90267	4505
2.90333	4506
2.90400	4506
2.90467	4507
2.90533	4507
2.90600	4507
2.90667	4507
2.90733	4507
2.90800	4507
2.90867	4507
2.90933	4506
2.91000	4506
2.91067	4506
2.91133	4505
2.91200	4504
2.91267	4503
2.91333	4502
2.91400	4501
2.91467	4500
2.91533	4499
2.91600	4498
2.91667	4496
2.91733	4494
2.91800	4493
2.91867	4491
2.91933	4489
2.92000	4487
2.92067	4484
2.92133	4482
2.92200	4479
2.92267	4477
2.92333	4474
2.92400	4471
2.92467	4468
2.92533	4465
2.92600	4461
2.92667	4458
2.92733	4455
2.92800	4451
2.92867	4447
2.92933	4444
2.93000	4440
2.93067	4436
2.93133	4432
2.93200	4428
2.93267	4424
2.93333	4420
2.93400	4415
2.93467	4411
2.93533	4407
2.93600	4402
2.93667	4398
2.93733	4393
2.93800	4389
2.93867	4384
2.93933	4380
2.94000	4375
2.94067	4370
2.94133	4366
2.94200	4361
2.94267	4356
2.94333	4351
2.94400	4347
2.94467	4342
2.94533	4337
2.94600	4332
2.94667	4327
2.94733	4322
2.94800	4318
2.94867	4313
2.94933	4308
2.95000	4303
2.95067	4298
2.95133	4294
2.95200	4289
2.95267	4284
2.95333	4280
2.95400	4275
2.95467	4270
2.95533	4266
2.95600	4261
2.95667	4257
2.95733	4252
2.95800	4248
2.95867	4244
2.95933	4240
2.96000	4236
2.96067	4232
2.96133	4228
2.96200	4224
2.96267	4220
2.96333	4216
2.96400	4212
2.96467	4208
2.96533	4204
2.96600	4201
2.96667	4197
2.96733	4193
2.96800	4190
2.96867	4186
2.96933	4183
2.97000	4180
2.97067	4176
2.97133	4173
2.97200	4170
2.97267	4167
2.97333	4163
2.97400	4160
2.97467	4157
2.97533	4154
2.97600	4151
2.97667	4148
2.97733	4145
2.97800	4142
2.97867	4140
2.97933	4137
2.98000	4134
2.98067	4131
2.98133	4129
2.98200	4126
2.98267	4124
2.98333	4121
2.98400	4119
2.98467	4116
2.98533	4114
2.98600	4111
2.98667	4109
2.98733	4106
2.98800	4104
2.98867	4102
2.98933	4099
2.99000	4097
2.99067	4095
2.99133	4093
2.99200	4091
2.99267	4089
2.99333	4087
2.99400	4085
2.99467	4083
2.99533	4080
2.99600	4078
2.99667	4077
2.99733	4075
2.99800	4073
2.99867	4071
2.99933	4069
3.00000	4067
3.00067	4065
3.00133	4064
3.00200	4062
3.00267	4060
3.00333	4058
3.00400	4056
3.00467	4055
3.00533	4053
3.00600	4051
3.00667	4049
3.00733	4047
3.00800	4046
3.00867	4044
3.00933	4042
3.01000	4041
3.01067	4039
3.01133	4037
3.01200	4036
3.01267	4034
3.01333	4032
3.01400	4030
3.01467	4029
3.01533	4027
3.01600	4026
3.01667	4024
3.01733	4023
3.01800	4021
3.01867	4020
3.01933	4018
3.02000	4017
3.02067	4016
3.02133	4014
3.02200	4013
3.02267	4012
3.02333	4010
3.02400	4009
3.02467	4007
3.02533	4006
3.02600	4005
3.02667	4003
3.02733	4002
3.02800	4001
3.02867	3999
3.02933	3998
3.03000	3997
3.03067	3995
3.03133	3994
3.03200	3993
3.03267	3991
3.03333	3990
3.03400	3989
3.03467	3987
3.03533	3986
3.03600	3985
3.03667	3983
3.03733	3982
3.03800	3981
3.03867	3980
3.03933	3978
3.04000	3977
3.04067	3976
3.04133	3975
3.04200	3973
3.04267	3972
3.04333	3971
3.04400	3970
3.04467	3969
3.04533	3968
3.04600	3967
3.04667	3966
3.04733	3965
3.04800	3964
3.04867	3963
3.04933	3962
3.05000	3961
3.05067	3959
3.05133	3958
3.05200	3958
3.05267	3957
3.05333	3956
3.05400	3955
3.05467	3954
3.05533	3953
3.05600	3952
3.05667	3952
3.05733	3951
3.05800	3950
3.05867	3950
3.05933	3949
3.06000	3948
3.06067	3948
3.06133	3947
3.06200	3947
3.06267	3946
3.06333	3945
3.06400	3945
3.06467	3944
3.06533	3944
3.06600	3943
3.06667	3943
3.06733	3942
3.06800	3942
3.06867	3941
3.06933	3941
3.07000	3940
3.07067	3940
3.07133	3940
3.07200	3939
3.07267	3939
3.07333	3939
3.07400	3938
3.07467	3938
3.07533	3938
3.07600	3938
3.07667	3937
3.07733	3937
3.07800	3937
3.07867	3937
3.07933	3936
3.08000	3936
3.08067	3936
3.08133	3936
3.08200	3936
3.08267	3936
3.08333	3935
3.08400	3935
3.08467	3935
3.08533	3935
3.08600	3934
3.08667	3934
3.08733	3934
3.08800	3934
3.08867	3933
3.08933	3933
3.09000	3933
3.09067	3932
3.09133	3932
3.09200	3932
3.09267	3931
3.09333	3931
3.09400	3930
3.09467	3930
3.09533	3929
3.09600	3929
3.09667	3928
3.09733	3928
3.09800	3927
3.09867	3927
3.09933	3926
3.10000	3925
3.10067	3925
3.10133	3924
3.10200	3924
3.10267	3923
3.10333	3923
3.10400	3922
3.10467	3921
3.10533	3921
3.10600	3920
3.10667	3919
3.10733	3919
3.10800	3918
3.10867	3918
3.10933	3917
3.11000	3916
3.11067	3915
3.11133	3915
3.11200	3914
3.11267	3913
3.11333	3912
3.11400	3912
3.11467	3911
3.11533	3910
3.11600	3909
3.11667	3908
3.11733	3908
3.11800	3907
3.11867	3906
3.11933	3905
3.12000	3904
3.12067	3903
3.12133	3903
3.12200	3902
3.12267	3901
3.12333	3900
3.12400	3899
3.12467	3898
3.12533	3897
3.12600	3897
3.12667	3896
3.12733	3895
3.12800	3894
3.12867	3893
3.12933	3893
3.13000	3892
3.13067	3891
3.13133	3890
3.13200	3889
3.13267	3888
3.13333	3887
3.13400	3887
3.13467	3886
3.13533	3885
3.13600	3884
3.13667	3883
3.13733	3882
3.13800	3881
3.13867	3880
3.13933	3879
3.14000	3878
3.14067	3877
3.14133	3876
3.14200	3875
3.14267	3874
3.14333	3874
3.14400	3873
3.14467	3872
3.14533	3871
3.14600	3870
3.14667	3870
3.14733	3869
3.14800	3868
3.14867	3867
3.14933	3866
3.15000	3866
3.15067	3865
3.15133	3864
3.15200	3863
3.15267	3863
3.15333	3862
3.15400	3861
3.15467	3860
3.15533	3860
3.15600	3859
3.15667	3858
3.15733	3858
3.15800	3857
3.15867	3856
3.15933	3856
3.16000	3855
3.16067	3854
3.16133	3854
3.16200	3853
3.16267	3853
3.16333	3852
3.16400	3851
3.16467	3851
3.16533	3850
3.16600	3850
3.16667	3849
3.16733	3848
3.16800	3848
3.16867	3847
3.16933	3847
3.17000	3846
3.17067	3845
3.17133	3845
3.17200	3844
3.17267	3844
3.17333	3843
3.17400	3843
3.17467	3842
3.17533	3841
3.17600	3841
3.17667	3840
3.17733	3839
3.17800	3839
3.17867	3838
3.17933	3838
3.18000	3837
3.18067	3836
3.18133	3836
3.18200	3835
3.18267	3835
3.18333	3834
3.18400	3833
3.18467	3833
3.18533	3832
3.18600	3832
3.18667	3831
3.18733	3831
3.18800	3830
3.18867	3830
3.18933	3830
3.19000	3829
3.19067	3829
3.19133	3828
3.19200	3828
3.19267	3827
3.19333	3827
3.19400	3827
3.19467	3826
3.19533	3826
3.19600	3825
3.19667	3825
3.19733	3824
3.19800	3824
3.19867	3823
3.19933	3823
3.20000	3822
3.20067	3822
3.20133	3822
3.20200	3821
3.20267	3821
3.20333	3821
3.20400	3820
3.20467	3820
3.20533	3819
3.20600	3819
3.20667	3819
3.20733	3818
3.20800	3818
3.20867	3817
3.20933	3817
3.21000	3816
3.21067	3816
3.21133	3816
3.21200	3815
3.21267	3815
3.21333	3814
3.21400	3814
3.21467	3813
3.21533	3813
3.21600	3813
3.21667	3812
3.21733	3812
3.21800	3812
3.21867	3811
3.21933	3811
3.22000	3811
3.22067	3810
3.22133	3810
3.22200	3810
3.22267	3809
3.22333	3809
3.22400	3808
3.22467	3808
3.22533	3808
3.22600	3807
3.22667	3807
3.22733	3807
3.22800	3806
3.22867	3806
3.22933	3806
3.23000	3806
3.23067	3805
3.23133	3805
3.23200	3805
3.23267	3805
3.23333	3804
3.23400	3804
3.23467	3804
3.23533	3804
3.23600	3804
3.23667	3803
3.23733	3803
3.23800	3803
3.23867	3803
3.23933	3803
3.24000	3803
3.24067	3803
3.24133	3803
3.24200	3803
3.24267	3803
3.24333	3803
3.24400	3803
3.24467	3804
3.24533	3804
3.24600	3804
3.24667	3804
3.24733	3804
3.24800	3804
3.24867	3804
3.24933	3805
3.25000	3805
3.25067	3805
3.25133	3805
3.25200	3805
3.25267	3806
3.25333	3806
3.25400	3806
3.25467	3806
3.25533	3806
3.25600	3807
3.25667	3807
3.25733	3807
3.25800	3807
3.25867	3807
3.25933	3807
3.26000	3807
3.26067	3807
3.26133	3807
3.26200	3807
3.26267	3808
3.26333	3808
3.26400	3808
3.26467	3808
3.26533	3808
3.26600	3808
3.26667	3809
3.26733	3809
3.26800	3809
3.26867	3809
3.26933	3809
3.27000	3809
3.27067	3809
3.27133	3809
3.27200	3809
3.27267	3810
3.27333	3810
3.27400	3810
3.27467	3810
3.27533	3810
3.27600	3810
3.27667	3810
3.27733	3810
3.27800	3811
3.27867	3811
3.27933	3811
3.28000	3811
3.28067	3811
3.28133	3811
3.28200	3812
3.28267	3812
3.28333	3812
3.28400	3812
3.28467	3812
3.28533	3813
3.28600	3813
3.28667	3813
3.28733	3813
3.28800	3814
3.28867	3814
3.28933	3814
3.29000	3814
3.29067	3815
3.29133	3815
3.29200	3815
3.29267	3815
3.29333	3815
3.29400	3815
3.29467	3815
3.29533	3815
3.29600	3816
3.29667	3816
3.29733	3816
3.29800	3816
3.29867	3816
3.29933	3817
3.30000	3817
3.30067	3817
3.30133	3818
3.30200	3818
3.30267	3818
3.30333	3819
3.30400	3819
3.30467	3819
3.30533	3820
3.30600	3820
3.30667	3821
3.30733	3821
3.30800	3821
3.30867	3822
3.30933	3822
3.31000	3822
3.31067	3823
3.31133	3823
3.31200	3824
3.31267	3824
3.31333	3824
3.31400	3825
3.31467	3825
3.31533	3825
3.31600	3826
3.31667	3826
3.31733	3826
3.31800	3827
3.31867	3827
3.31933	3827
3.32000	3828
3.32067	3828
3.32133	3828
3.32200	3829
3.32267	3829
3.32333	3829
3.32400	3830
3.32467	3830
3.32533	3830
3.32600	3831
3.32667	3831
3.32733	3831
3.32800	3832
3.32867	3832
3.32933	3833
3.33000	3833
3.33067	3833
3.33133	3834
3.33200	3834
3.33267	3834
3.33333	3835
3.33400	3835
3.33467	3835
3.33533	3836
3.33600	3836
3.33667	3836
3.33733	3836
3.33800	3836
3.33867	3836
3.33933	3837
3.34000	3837
3.34067	3837
3.34133	3837
3.34200	3837
3.34267	3837
3.34333	3837
3.34400	3838
3.34467	3838
3.34533	3838
3.34600	3838
3.34667	3838
3.34733	3838
3.34800	3838
3.34867	3839
3.34933	3839
3.35000	3839
3.35067	3839
3.35133	3839
3.35200	3839
3.35267	3839
3.35333	3840
3.35400	3840
3.35467	3840
3.35533	3840
3.35600	3840
3.35667	3841
3.35733	3841
3.35800	3841
3.35867	3841
3.35933	3842
3.36000	3842
3.36067	3842
3.36133	3843
3.36200	3843
3.36267	3843
3.36333	3843
3.36400	3844
3.36467	3844
3.36533	3844
3.36600	3844
3.36667	3844
3.36733	3845
3.36800	3845
3.36867	3845
3.36933	3845
3.37000	3845
3.37067	3846
3.37133	3846
3.37200	3846
3.37267	3846
3.37333	3847
3.37400	3847
3.37467	3847
3.37533	3848
3.37600	3848
3.37667	3848
3.37733	3848
3.37800	3849
3.37867	3849
3.37933	3849
3.38000	3849
3.38067	3850
3.38133	3850
3.38200	3850
3.38267	3851
3.38333	3851
3.38400	3851
3.38467	3851
3.38533	3852
3.38600	3852
3.38667	3852
3.38733	3853
3.38800	3853
3.38867	3853
3.38933	3854
3.39000	3854
3.39067	3854
3.39133	3854
3.39200	3855
3.39267	3855
3.39333	3855
3.39400	3855
3.39467	3856
3.39533	3856
3.39600	3856
3.39667	3856
3.39733	3856
3.39800	3856
3.39867	3856
3.39933	3857
3.40000	3857
3.40067	3857
3.40133	3857
3.40200	3857
3.40267	3857
3.40333	3857
3.40400	3858
3.40467	3858
3.40533	3858
3.40600	3858
3.40667	3859
3.40733	3859
3.40800	3859
3.40867	3859
3.40933	3860
3.41000	3860
3.41067	3860
3.41133	3860
3.41200	3861
3.41267	3861
3.41333	3861
3.41400	3861
3.41467	3862
3.41533	3862
3.41600	3862
3.41667	3863
3.41733	3863
3.41800	3863
3.41867	3864
3.41933	3864
3.42000	3864
3.42067	3865
3.42133	3865
3.42200	3866
3.42267	3866
3.42333	3866
3.42400	3867
3.42467	3867
3.42533	3867
3.42600	3868
3.42667	3868
3.42733	3869
3.42800	3869
3.42867	3869
3.42933	3870
3.43000	3870
3.43067	3871
3.43133	3871
3.43200	3872
3.43267	3872
3.43333	3873
3.43400	3873
3.43467	3874
3.43533	3874
3.43600	3875
3.43667	3875
3.43733	3876
3.43800	3876
3.43867	3877
3.43933	3878
3.44000	3878
3.44067	3879
3.44133	3879
3.44200	3880
3.44267	3881
3.44333	3882
3.44400	3882
3.44467	3883
3.44533	3884
3.44600	3885
3.44667	3886
3.44733	3886
3.44800	3887
3.44867	3888
3.44933	3889
3.45000	3890
3.45067	3891
3.45133	3893
3.45200	3894
3.45267	3895
3.45333	3896
3.45400	3897
3.45467	3898
3.45533	3900
3.45600	3901
3.45667	3902
3.45733	3904
3.45800	3905
3.45867	3906
3.45933	3908
3.46000	3909
3.46067	3911
3.46133	3913
3.46200	3914
3.46267	3916
3.46333	3917
3.46400	3919
3.46467	3921
3.46533	3923
3.46600	3925
3.46667	3926
3.46733	3928
3.46800	3930
3.46867	3932
3.46933	3934
3.47000	3936
3.47067	3939
3.47133	3941
3.47200	3943
3.47267	3945
3.47333	3947
3.47400	3949
3.47467	3952
3.47533	3954
3.47600	3956
3.47667	3958
3.47733	3961
3.47800	3963
3.47867	3966
3.47933	3968
3.48000	3971
3.48067	3974
3.48133	3976
3.48200	3979
3.48267	3982
3.48333	3985
3.48400	3987
3.48467	3990
3.48533	3993
3.48600	3997
3.48667	4000
3.48733	4003
3.48800	4006
3.48867	4010
3.48933	4013
3.49000	4017
3.49067	4020
3.49133	4024
3.49200	4028
3.49267	4032
3.49333	4037
3.49400	4041
3.49467	4046
3.49533	4050
3.49600	4056
3.49667	4061
3.49733	4066
3.49800	4072
3.49867	4078
3.49933	4084
3.50000	4091
3.50067	4098
3.50133	4105
3.50200	4113
3.50267	4121
3.50333	4129
3.50400	4138
3.50467	4147
3.50533	4157
3.50600	4167
3.50667	4177
3.50733	4188
3.50800	4200
3.50867	4212
3.50933	4224
3.51000	4237
3.51067	4251
3.51133	4265
3.51200	4280
3.51267	4295
3.51333	4311
3.51400	4328
3.51467	4345
3.51533	4364
3.51600	4382
3.51667	4402
3.51733	4422
3.51800	4443
3.51867	4465
3.51933	4487
3.52000	4511
3.52067	4535
3.52133	4560
3.52200	4585
3.52267	4612
3.52333	4639
3.52400	4668
3.52467	4697
3.52533	4727
3.52600	4758
3.52667	4789
3.52733	4822
3.52800	4855
3.52867	4889
3.52933	4925
3.53000	4961
3.53067	4997
3.53133	5035
3.53200	5073
3.53267	5112
3.53333	5152
3.53400	5193
3.53467	5234
3.53533	5276
3.53600	5319
3.53667	5362
3.53733	5406
3.53800	5450
3.53867	5495
3.53933	5540
3.54000	5586
3.54067	5633
3.54133	5680
3.54200	5727
3.54267	5774
3.54333	5822
3.54400	5870
3.54467	5919
3.54533	5967
3.54600	6016
3.54667	6065
3.54733	6114
3.54800	6162
3.54867	6211
3.54933	6260
3.55000	6308
3.55067	6357
3.55133	6405
3.55200	6453
3.55267	6501
3.55333	6548
3.55400	6595
3.55467	6641
3.55533	6687
3.55600	6733
3.55667	6777
3.55733	6822
3.55800	6865
3.55867	6909
3.55933	6951
3.56000	6993
3.56067	7034
3.56133	7074
3.56200	7113
3.56267	7152
3.56333	7190
3.56400	7226
3.56467	7263
3.56533	7298
3.56600	7332
3.56667	7365
3.56733	7397
3.56800	7429
3.56867	7459
3.56933	7488
3.57000	7516
3.57067	7543
3.57133	7569
3.57200	7595
3.57267	7619
3.57333	7642
3.57400	7663
3.57467	7684
3.57533	7704
3.57600	7723
3.57667	7741
3.57733	7758
3.57800	7773
3.57867	7788
3.57933	7802
3.58000	7815
3.58067	7827
3.58133	7839
3.58200	7849
3.58267	7859
3.58333	7867
3.58400	7875
3.58467	7883
3.58533	7889
3.58600	7895
3.58667	7900
3.58733	7904
3.58800	7908
3.58867	7911
3.58933	7913
3.59000	7915
3.59067	7916
3.59133	7916
3.59200	7916
3.59267	7915
3.59333	7914
3.59400	7912
3.59467	7909
3.59533	7907
3.59600	7903
3.59667	7899
3.59733	7895
3.59800	7890
3.59867	7885
3.59933	7880
3.60000	7873
3.60067	7867
3.60133	7860
3.60200	7853
3.60267	7845
3.60333	7837
3.60400	7828
3.60467	7819
3.60533	7809
3.60600	7799
3.60667	7789
3.60733	7778
3.60800	7767
3.60867	7755
3.60933	7743
3.61000	7731
3.61067	7718
3.61133	7705
3.61200	7691
3.61267	7677
3.61333	7662
3.61400	7647
3.61467	7632
3.61533	7616
3.61600	7599
3.61667	7582
3.61733	7565
3.61800	7547
3.61867	7528
3.61933	7510
3.62000	7490
3.62067	7470
3.62133	7450
3.62200	7429
3.62267	7408
3.62333	7386
3.62400	7364
3.62467	7341
3.62533	7318
3.62600	7295
3.62667	7271
3.62733	7246
3.62800	7221
3.62867	7196
3.62933	7170
3.63000	7144
3.63067	7117
3.63133	7090
3.63200	7063
3.63267	7035
3.63333	7007
3.63400	6978
3.63467	6949
3.63533	6920
3.63600	6890
3.63667	6860
3.63733	6830
3.63800	6800
3.63867	6769
3.63933	6738
3.64000	6706
3.64067	6675
3.64133	6643
3.64200	6611
3.64267	6579
3.64333	6546
3.64400	6513
3.64467	6481
3.64533	6448
3.64600	6415
3.64667	6382
3.64733	6348
3.64800	6315
3.64867	6282
3.64933	6249
3.65000	6215
3.65067	6182
3.65133	6148
3.65200	6115
3.65267	6082
3.65333	6048
3.65400	6015
3.65467	5982
3.65533	5949
3.65600	5916
3.65667	5883
3.65733	5851
3.65800	5818
3.65867	5786
3.65933	5753
3.66000	5721
3.66067	5689
3.66133	5658
3.66200	5626
3.66267	5595
3.66333	5564
3.66400	5533
3.66467	5502
3.66533	5472
3.66600	5442
3.66667	5412
3.66733	5383
3.66800	5354
3.66867	5325
3.66933	5296
3.67000	5268
3.67067	5240
3.67133	5212
3.67200	5185
3.67267	5158
3.67333	5131
3.67400	5104
3.67467	5078
3.67533	5052
3.67600	5027
3.67667	5002
3.67733	4977
3.67800	4953
3.67867	4929
3.67933	4905
3.68000	4881
3.68067	4858
3.68133	4836
3.68200	4813
3.68267	4791
3.68333	4769
3.68400	4748
3.68467	4727
3.68533	4706
3.68600	4686
3.68667	4666
3.68733	4646
3.68800	4627
3.68867	4608
3.68933	4589
3.69000	4570
3.69067	4552
3.69133	4534
3.69200	4517
3.69267	4500
3.69333	4483
3.69400	4466
3.69467	4450
3.69533	4434
3.69600	4418
3.69667	4402
3.69733	4387
3.69800	4372
3.69867	4357
3.69933	4343
3.70000	4329
3.70067	4315
3.70133	4301
3.70200	4287
3.70267	4274
3.70333	4261
3.70400	4248
3.70467	4236
3.70533	4223
3.70600	4211
3.70667	4199
3.70733	4188
3.70800	4176
3.70867	4165
3.70933	4154
3.71000	4143
3.71067	4133
3.71133	4122
3.71200	4112
3.71267	4102
3.71333	4092
3.71400	4083
3.71467	4073
3.71533	4064
3.71600	4055
3.71667	4046
3.71733	4037
3.71800	4028
3.71867	4020
3.71933	4012
3.72000	4003
3.72067	3996
3.72133	3988
3.72200	3980
3.72267	3972
3.72333	3965
3.72400	3958
3.72467	3951
3.72533	3943
3.72600	3937
3.72667	3930
3.72733	3923
3.72800	3917
3.72867	3910
3.72933	3904
3.73000	3897
3.73067	3891
3.73133	3885
3.73200	3879
3.73267	3873
3.73333	3868
3.73400	3862
3.73467	3856
3.73533	3851
3.73600	3845
3.73667	3840
3.73733	3835
3.73800	3830
3.73867	3825
3.73933	3820
3.74000	3816
3.74067	3811
3.74133	3806
3.74200	3802
3.74267	3798
3.74333	3793
3.74400	3789
3.74467	3785
3.74533	3781
3.74600	3777
3.74667	3773
3.74733	3769
3.74800	3765
3.74867	3761
3.74933	3757
3.75000	3753
3.75067	3750
3.75133	3746
3.75200	3743
3.75267	3739
3.75333	3736
3.75400	3732
3.75467	3729
3.75533	3725
3.75600	3722
3.75667	3719
3.75733	3715
3.75800	3712
3.75867	3709
3.75933	3706
3.76000	3703
3.76067	3700
3.76133	3696
3.76200	3693
3.76267	3690
3.76333	3687
3.76400	3685
3.76467	3682
3.76533	3679
3.76600	3676
3.76667	3673
3.76733	3670
3.76800	3668
3.76867	3665
3.76933	3662
3.77000	3660
3.77067	3657
3.77133	3655
3.77200	3652
3.77267	3650
3.77333	3648
3.77400	3645
3.77467	3643
3.77533	3641
3.77600	3638
3.77667	3636
3.77733	3634
3.77800	3632
3.77867	3630
3.77933	3627
3.78000	3625
3.78067	3623
3.78133	3621
3.78200	3619
3.78267	3617
3.78333	3614
3.78400	3612
3.78467	3610
3.78533	3608
3.78600	3606
3.78667	3604
3.78733	3602
3.78800	3600
3.78867	3598
3.78933	3596
3.79000	3594
3.79067	3592
3.79133	3590
3.79200	3588
3.79267	3586
3.79333	3584
3.79400	3582
3.79467	3580
3.79533	3578
3.79600	3576
3.79667	3574
3.79733	3572
3.79800	3570
3.79867	3568
3.79933	3566
3.80000	3564
3.80067	3563
3.80133	3561
3.80200	3559
3.80267	3557
3.80333	3555
3.80400	3554
3.80467	3552
3.80533	3550
3.80600	3548
3.80667	3547
3.80733	3545
3.80800	3544
3.80867	3542
3.80933	3541
3.81000	3539
3.81067	3538
3.81133	3536
3.81200	3535
3.81267	3533
3.81333	3532
3.81400	3530
3.81467	3529
3.81533	3527
3.81600	3526
3.81667	3524
3.81733	3523
3.81800	3521
3.81867	3520
3.81933	3518
3.82000	3517
3.82067	3515
3.82133	3514
3.82200	3512
3.82267	3510
3.82333	3509
3.82400	3507
3.82467	3506
3.82533	3504
3.82600	3502
3.82667	3501
3.82733	3499
3.82800	3498
3.82867	3496
3.82933	3494
3.83000	3493
3.83067	3491
3.83133	3490
3.83200	3488
3.83267	3486
3.83333	3485
3.83400	3483
3.83467	3482
3.83533	3480
3.83600	3479
3.83667	3477
3.83733	3476
3.83800	3474
3.83867	3473
3.83933	3472
3.84000	3470
3.84067	3469
3.84133	3467
3.84200	3466
3.84267	3465
3.84333	3463
3.84400	3462
3.84467	3461
3.84533	3460
3.84600	3458
3.84667	3457
3.84733	3456
3.84800	3455
3.84867	3454
3.84933	3452
3.85000	3451
3.85067	3450
3.85133	3449
3.85200	3448
3.85267	3447
3.85333	3446
3.85400	3445
3.85467	3444
3.85533	3443
3.85600	3442
3.85667	3441
3.85733	3440
3.85800	3439
3.85867	3438
3.85933	3437
3.86000	3436
3.86067	3435
3.86133	3434
3.86200	3433
3.86267	3432
3.86333	3431
3.86400	3431
3.86467	3430
3.86533	3429
3.86600	3428
3.86667	3427
3.86733	3426
3.86800	3425
3.86867	3424
3.86933	3423
3.87000	3422
3.87067	3421
3.87133	3420
3.87200	3420
3.87267	3419
3.87333	3418
3.87400	3417
3.87467	3416
3.87533	3415
3.87600	3415
3.87667	3414
3.87733	3413
3.87800	3412
3.87867	3411
3.87933	3411
3.88000	3410
3.88067	3409
3.88133	3408
3.88200	3407
3.88267	3407
3.88333	3406
3.88400	3405
3.88467	3405
3.88533	3404
3.88600	3403
3.88667	3403
3.88733	3402
3.88800	3401
3.88867	3400
3.88933	3400
3.89000	3399
3.89067	3398
3.89133	3398
3.89200	3397
3.89267	3396
3.89333	3395
3.89400	3395
3.89467	3394
3.89533	3393
3.89600	3393
3.89667	3392
3.89733	3391
3.89800	3391
3.89867	3390
3.89933	3389
3.90000	3389
3.90067	3388
3.90133	3387
3.90200	3387
3.90267	3386
3.90333	3385
3.90400	3384
3.90467	3384
3.90533	3383
3.90600	3382
3.90667	3382
3.90733	3381
3.90800	3381
3.90867	3380
3.90933	3379
3.91000	3379
3.91067	3378
3.91133	3378
3.91200	3377
3.91267	3376
3.91333	3376
3.91400	3375
3.91467	3375
3.91533	3374
3.91600	3373
3.91667	3373
3.91733	3372
3.91800	3371
3.91867	3371
3.91933	3370
3.92000	3370
3.92067	3369
3.92133	3368
3.92200	3368
3.92267	3367
3.92333	3367
3.92400	3366
3.92467	3366
3.92533	3365
3.92600	3364
3.92667	3364
3.92733	3363
3.92800	3363
3.92867	3362
3.92933	3362
3.93000	3361
3.93067	3361
3.93133	3360
3.93200	3360
3.93267	3359
3.93333	3358
3.93400	3358
3.93467	3357
3.93533	3357
3.93600	3356
3.93667	3356
3.93733	3355
3.93800	3355
3.93867	3354
3.93933	3353
3.94000	3353
3.94067	3352
3.94133	3352
3.94200	3352
3.94267	3351
3.94333	3351
3.94400	3350
3.94467	3350
3.94533	3349
3.94600	3349
3.94667	3349
3.94733	3348
3.94800	3348
3.94867	3347
3.94933	3347
3.95000	3347
3.95067	3346
3.95133	3346
3.95200	3345
3.95267	3345
3.95333	3345
3.95400	3344
3.95467	3344
3.95533	3343
3.95600	3343
3.95667	3343
3.95733	3342
3.95800	3342
3.95867	3341
3.95933	3341
3.96000	3340
3.96067	3340
3.96133	3340
3.96200	3339
3.96267	3339
3.96333	3338
3.96400	3338
3.96467	3337
3.96533	3337
3.96600	3337
3.96667	3336
3.96733	3336
3.96800	3336
3.96867	3335
3.96933	3335
3.97000	3335
3.97067	3334
3.97133	3334
3.97200	3333
3.97267	3333
3.97333	3333
3.97400	3332
3.97467	3332
3.97533	3332
3.97600	3332
3.97667	3331
3.97733	3331
3.97800	3331
3.97867	3330
3.97933	3330
3.98000	3330
3.98067	3330
3.98133	3329
3.98200	3329
3.98267	3329
3.98333	3329
3.98400	3328
3.98467	3328
3.98533	3328
3.98600	3328
3.98667	3328
3.98733	3327
3.98800	3327
3.98867	3327
3.98933	3327
3.99000	3327
3.99067	3327
3.99133	3327
3.99200	3327
3.99267	3327
3.99333	3327
3.99400	3327
3.99467	3327
3.99533	3327
3.99600	3327
3.99667	3327
3.99733	3327
3.99800	3327
3.99867	3327
3.99933	3327
4.00000	3327
4.00067	3327
4.00133	3327
4.00200	3327
4.00267	3327
4.00333	3327
4.00400	3328
4.00467	3328
4.00533	3328
4.00600	3328
4.00667	3328
4.00733	3329
4.00800	3329
4.00867	3329
4.00933	3329
4.01000	3330
4.01067	3330
4.01133	3330
4.01200	3331
4.01267	3331
4.01333	3331
4.01400	3332
4.01467	3332
4.01533	3332
4.01600	3333
4.01667	3333
4.01733	3333
4.01800	3334
4.01867	3334
4.01933	3335
4.02000	3335
4.02067	3336
4.02133	3336
4.02200	3337
4.02267	3337
4.02333	3338
4.02400	3339
4.02467	3339
4.02533	3340
4.02600	3341
4.02667	3342
4.02733	3342
4.02800	3343
4.02867	3344
4.02933	3345
4.03000	3346
4.03067	3347
4.03133	3348
4.03200	3349
4.03267	3350
4.03333	3351
4.03400	3352
4.03467	3352
4.03533	3353
4.03600	3354
4.03667	3355
4.03733	3356
4.03800	3357
4.03867	3358
4.03933	3360
4.04000	3361
4.04067	3362
4.04133	3363
4.04200	3364
4.04267	3365
4.04333	3366
4.04400	3367
4.04467	3368
4.04533	3370
4.04600	3371
4.04667	3372
4.04733	3373
4.04800	3375
4.04867	3376
4.04933	3378
4.05000	3379
4.05067	3381
4.05133	3382
4.05200	3384
4.05267	3385
4.05333	3387
4.05400	3388
4.05467	3390
4.05533	3391
4.05600	3393
4.05667	3395
4.05733	3396
4.05800	3398
4.05867	3400
4.05933	3402
4.06000	3404
4.06067	3406
4.06133	3407
4.06200	3409
4.06267	3411
4.06333	3414
4.06400	3416
4.06467	3418
4.06533	3420
4.06600	3422
4.06667	3425
4.06733	3427
4.06800	3429
4.06867	3431
4.06933	3434
4.07000	3436
4.07067	3439
4.07133	3441
4.07200	3444
4.07267	3446
4.07333	3449
4.07400	3452
4.07467	3454
4.07533	3457
4.07600	3460
4.07667	3463
4.07733	3466
4.07800	3469
4.07867	3472
4.07933	3475
4.08000	3478
4.08067	3481
4.08133	3484
4.08200	3487
4.08267	3490
4.08333	3493
4.08400	3497
4.08467	3500
4.08533	3503
4.08600	3507
4.08667	3510
4.08733	3514
4.08800	3517
4.08867	3521
4.08933	3524
4.09000	3528
4.09067	3531
4.09133	3535
4.09200	3538
4.09267	3542
4.09333	3546
4.09400	3549
4.09467	3553
4.09533	3557
4.09600	3560
4.09667	3564
4.09733	3568
4.09800	3572
4.09867	3575
4.09933	3579
4.10000	3583
4.10067	3587
4.10133	3591
4.10200	3594
4.10267	3598
4.10333	3602
4.10400	3605
4.10467	3609
4.10533	3612
4.10600	3616
4.10667	3619
4.10733	3622
4.10800	3626
4.10867	3629
4.10933	3632
4.11000	3635
4.11067	3638
4.11133	3641
4.11200	3645
4.11267	3648
4.11333	3651
4.11400	3654
4.11467	3656
4.11533	3659
4.11600	3662
4.11667	3665
4.11733	3668
4.11800	3670
4.11867	3673
4.11933	3675
4.12000	3678
4.12067	3680
4.12133	3683
4.12200	3685
4.12267	3687
4.12333	3689
4.12400	3691
4.12467	3693
4.12533	3695
4.12600	3697
4.12667	3699
4.12733	3701
4.12800	3703
4.12867	3704
4.12933	3706
4.13000	3707
4.13067	3709
4.13133	3710
4.13200	3711
4.13267	3712
4.13333	3714
4.13400	3715
4.13467	3716
4.13533	3716
4.13600	3717
4.13667	3718
4.13733	3719
4.13800	3720
4.13867	3720
4.13933	3721
4.14000	3721
4.14067	3722
4.14133	3722
4.14200	3722
4.14267	3723
4.14333	3723
4.14400	3723
4.14467	3723
4.14533	3722
4.14600	3722
4.14667	3722
4.14733	3722
4.14800	3722
4.14867	3721
4.14933	3721
4.15000	3721
4.15067	3720
4.15133	3720
4.15200	3719
4.15267	3719
4.15333	3718
4.15400	3718
4.15467	3717
4.15533	3717
4.15600	3716
4.15667	3715
4.15733	3715
4.15800	3714
4.15867	3713
4.15933	3713
4.16000	3712
4.16067	3711
4.16133	3711
4.16200	3710
4.16267	3710
4.16333	3709
4.16400	3708
4.16467	3708
4.16533	3707
4.16600	3707
4.16667	3707
4.16733	3706
4.16800	3706
4.16867	3705
4.16933	3705
4.17000	3705
4.17067	3705
4.17133	3704
4.17200	3704
4.17267	3704
4.17333	3704
4.17400	3705
4.17467	3705
4.17533	3705
4.17600	3705
4.17667	3706
4.17733	3706
4.17800	3707
4.17867	3708
4.17933	3708
4.18000	3709
4.18067	3710
4.18133	3711
4.18200	3712
4.18267	3714
4.18333	3715
4.18400	3717
4.18467	3718
4.18533	3720
4.18600	3722
4.18667	3724
4.18733	3726
4.18800	3728
4.18867	3731
4.18933	3733
4.19000	3736
4.19067	3739
4.19133	3742
4.19200	3745
4.19267	3749
4.19333	3752
4.19400	3756
4.19467	3760
4.19533	3764
4.19600	3768
4.19667	3773
4.19733	3777
4.19800	3782
4.19867	3787
4.19933	3792
4.20000	3797
4.20067	3802
4.20133	3808
4.20200	3814
4.20267	3820
4.20333	3826
4.20400	3833
4.20467	3839
4.20533	3846
4.20600	3853
4.20667	3861
4.20733	3869
4.20800	3876
4.20867	3885
4.20933	3893
4.21000	3902
4.21067	3911
4.21133	3920
4.21200	3929
4.21267	3939
4.21333	3949
4.21400	3960
4.21467	3971
4.21533	3982
4.21600	3993
4.21667	4005
4.21733	4017
4.21800	4030
4.21867	4042
4.21933	4056
4.22000	4069
4.22067	4083
4.22133	4098
4.22200	4113
4.22267	4128
4.22333	4143
4.22400	4160
4.22467	4176
4.22533	4193
4.22600	4211
4.22667	4229
4.22733	4247
4.22800	4266
4.22867	4286
4.22933	4306
4.23000	4326
4.23067	4347
4.23133	4369
4.23200	4391
4.23267	4414
4.23333	4437
4.23400	4460
4.23467	4484
4.23533	4509
4.23600	4534
4.23667	4560
4.23733	4586
4.23800	4613
4.23867	4641
4.23933	4669
4.24000	4697
4.24067	4726
4.24133	4756
4.24200	4786
4.24267	4817
4.24333	4848
4.24400	4880
4.24467	4912
4.24533	4945
4.24600	4979
4.24667	5013
4.24733	5048
4.24800	5083
4.24867	5119
4.24933	5155
4.25000	5192
4.25067	5230
4.25133	5268
4.25200	5306
4.25267	5346
4.25333	5385
4.25400	5426
4.25467	5467
4.25533	5508
4.25600	5550
4.25667	5592
4.25733	5635
4.25800	5678
4.25867	5722
4.25933	5767
4.26000	5812
4.26067	5857
4.26133	5903
4.26200	5949
4.26267	5996
4.26333	6043
4.26400	6091
4.26467	6140
4.26533	6188
4.26600	6238
4.26667	6287
4.26733	6337
4.26800	6388
4.26867	6438
4.26933	6490
4.27000	6541
4.27067	6593
4.27133	6645
4.27200	6697
4.27267	6749
4.27333	6802
4.27400	6855
4.27467	6908
4.27533	6961
4.27600	7015
4.27667	7069
4.27733	7123
4.27800	7177
4.27867	7231
4.27933	7285
4.28000	7339
4.28067	7394
4.28133	7448
4.28200	7502
4.28267	7557
4.28333	7611
4.28400	7666
4.28467	7720
4.28533	7775
4.28600	7829
4.28667	7883
4.28733	7938
4.28800	7992
4.28867	8045
4.28933	8099
4.29000	8153
4.29067	8206
4.29133	8259
4.29200	8311
4.29267	8364
4.29333	8416
4.29400	8468
4.29467	8520
4.29533	8571
4.29600	8622
4.29667	8673
4.29733	8723
4.29800	8773
4.29867	8823
4.29933	8872
4.30000	8921
4.30067	8970
4.30133	9018
4.30200	9066
4.30267	9113
4.30333	9160
4.30400	9207
4.30467	9253
4.30533	9298
4.30600	9343
4.30667	9387
4.30733	9431
4.30800	9474
4.30867	9516
4.30933	9558
4.31000	9599
4.31067	9639
4.31133	9679
4.31200	9718
4.31267	9757
4.31333	9795
4.31400	9832
4.31467	9869
4.31533	9905
4.31600	9940
4.31667	9974
4.31733	10008
4.31800	10041
4.31867	10073
4.31933	10104
4.32000	10134
4.32067	10164
4.32133	10192
4.32200	10220
4.32267	10246
4.32333	10272
4.32400	10296
4.32467	10319
4.32533	10341
4.32600	10362
4.32667	10382
4.32733	10401
4.32800	10419
4.32867	10436
4.32933	10452
4.33000	10466
4.33067	10480
4.33133	10492
4.33200	10503
4.33267	10513
4.33333	10522
4.33400	10530
4.33467	10536
4.33533	10542
4.33600	10546
4.33667	10550
4.33733	10552
4.33800	10553
4.33867	10553
4.33933	10552
4.34000	10550
4.34067	10547
4.34133	10543
4.34200	10537
4.34267	10531
4.34333	10524
4.34400	10516
4.34467	10507
4.34533	10496
4.34600	10485
4.34667	10473
4.34733	10460
4.34800	10446
4.34867	10431
4.34933	10415
4.35000	10398
4.35067	10380
4.35133	10361
4.35200	10341
4.35267	10320
4.35333	10299
4.35400	10277
4.35467	10253
4.35533	10230
4.35600	10205
4.35667	10180
4.35733	10153
4.35800	10127
4.35867	10099
4.35933	10071
4.36000	10042
4.36067	10013
4.36133	9982
4.36200	9952
4.36267	9920
4.36333	9888
4.36400	9856
4.36467	9823
4.36533	9789
4.36600	9755
4.36667	9720
4.36733	9685
4.36800	9649
4.36867	9613
4.36933	9577
4.37000	9540
4.37067	9502
4.37133	9465
4.37200	9427
4.37267	9388
4.37333	9350
4.37400	9311
4.37467	9272
4.37533	9232
4.37600	9193
4.37667	9153
4.37733	9113
4.37800	9073
4.37867	9032
4.37933	8992
4.38000	8951
4.38067	8910
4.38133	8870
4.38200	8829
4.38267	8788
4.38333	8748
4.38400	8707
4.38467	8666
4.38533	8625
4.38600	8585
4.38667	8544
4.38733	8504
4.38800	8464
4.38867	8423
4.38933	8383
4.39000	8343
4.39067	8304
4.39133	8264
4.39200	8225
4.39267	8186
4.39333	8147
4.39400	8108
4.39467	8070
4.39533	8031
4.39600	7993
4.39667	7955
4.39733	7918
4.39800	7881
4.39867	7844
4.39933	7807
4.40000	7771
4.40067	7735
4.40133	7699
4.40200	7664
4.40267	7629
4.40333	7595
4.40400	7561
4.40467	7527
4.40533	7493
4.40600	7460
4.40667	7428
4.40733	7395
4.40800	7363
4.40867	7332
4.40933	7301
4.41000	7270
4.41067	7239
4.41133	7209
4.41200	7179
4.41267	7150
4.41333	7121
4.41400	7092
4.41467	7064
4.41533	7036
4.41600	7008
4.41667	6981
4.41733	6955
4.41800	6928
4.41867	6902
4.41933	6877
4.42000	6852
4.42067	6827
4.42133	6803
4.42200	6779
4.42267	6756
4.42333	6733
4.42400	6710
4.42467	6688
4.42533	6667
4.42600	6645
4.42667	6624
4.42733	6604
4.42800	6583
4.42867	6563
4.42933	6544
4.43000	6525
4.43067	6506
4.43133	6488
4.43200	6470
4.43267	6453
4.43333	6436
4.43400	6419
4.43467	6402
4.43533	6386
4.43600	6370
4.43667	6355
4.43733	6340
4.43800	6325
4.43867	6311
4.43933	6297
4.44000	6283
4.44067	6270
4.44133	6257
4.44200	6244
4.44267	6231
4.44333	6219
4.44400	6208
4.44467	6196
4.44533	6185
4.44600	6175
4.44667	6164
4.44733	6154
4.44800	6144
4.44867	6135
4.44933	6126
4.45000	6117
4.45067	6108
4.45133	6100
4.45200	6091
4.45267	6084
4.45333	6076
4.45400	6069
4.45467	6062
4.45533	6055
4.45600	6049
4.45667	6043
4.45733	6037
4.45800	6031
4.45867	6026
4.45933	6021
4.46000	6016
4.46067	6011
4.46133	6007
4.46200	6003
4.46267	5999
4.46333	5995
4.46400	5992
4.46467	5989
4.46533	5986
4.46600	5983
4.46667	5981
4.46733	5979
4.46800	5977
4.46867	5975
4.46933	5974
4.47000	5972
4.47067	5971
4.47133	5970
4.47200	5970
4.47267	5969
4.47333	5969
4.47400	5969
4.47467	5969
4.47533	5969
4.47600	5970
4.47667	5970
4.47733	5971
4.47800	5972
4.47867	5973
4.47933	5974
4.48000	5975
4.48067	5977
4.48133	5978
4.48200	5980
4.48267	5982
4.48333	5984
4.48400	5986
4.48467	5988
4.48533	5990
4.48600	5992
4.48667	5994
4.48733	5997
4.48800	5999
4.48867	6002
4.48933	6004
4.49000	6007
4.49067	6010
4.49133	6013
4.49200	6015
4.49267	6018
4.49333	6021
4.49400	6024
4.49467	6027
4.49533	6030
4.49600	6033
4.49667	6036
4.49733	6039
4.49800	6041
4.49867	6044
4.49933	6047
4.50000	6050
4.50067	6053
4.50133	6056
4.50200	6059
4.50267	6062
4.50333	6065
4.50400	6067
4.50467	6070
4.50533	6073
4.50600	6075
4.50667	6078
4.50733	6080
4.50800	6082
4.50867	6084
4.50933	6087
4.51000	6089
4.51067	6091
4.51133	6092
4.51200	6094
4.51267	6096
4.51333	6098
4.51400	6100
4.51467	6101
4.51533	6103
4.51600	6104
4.51667	6106
4.51733	6107
4.51800	6109
4.51867	6110
4.51933	6112
4.52000	6113
4.52067	6115
4.52133	6116
4.52200	6118
4.52267	6119
4.52333	6121
4.52400	6122
4.52467	6124
4.52533	6126
4.52600	6127
4.52667	6129
4.52733	6131
4.52800	6133
4.52867	6135
4.52933	6137
4.53000	6139
4.53067	6141
4.53133	6144
4.53200	6147
4.53267	6150
4.53333	6153
4.53400	6156
4.53467	6159
4.53533	6163
4.53600	6167
4.53667	6171
4.53733	6175
4.53800	6179
4.53867	6184
4.53933	6188
4.54000	6193
4.54067	6198
4.54133	6204
4.54200	6209
4.54267	6215
4.54333	6221
4.54400	6228
4.54467	6235
4.54533	6241
4.54600	6249
4.54667	6256
4.54733	6264
4.54800	6272
4.54867	6281
4.54933	6290
4.55000	6299
4.55067	6309
4.55133	6318
4.55200	6329
4.55267	6339
4.55333	6350
4.55400	6361
4.55467	6373
4.55533	6384
4.55600	6397
4.55667	6409
4.55733	6422
4.55800	6435
4.55867	6448
4.55933	6462
4.56000	6476
4.56067	6490
4.56133	6504
4.56200	6519
4.56267	6535
4.56333	6550
4.56400	6566
4.56467	6582
4.56533	6598
4.56600	6615
4.56667	6631
4.56733	6649
4.56800	6666
4.56867	6683
4.56933	6701
4.57000	6719
4.57067	6737
4.57133	6755
4.57200	6774
4.57267	6792
4.57333	6811
4.57400	6830
4.57467	6849
4.57533	6868
4.57600	6887
4.57667	6906
4.57733	6925
4.57800	6944
4.57867	6964
4.57933	6983
4.58000	7003
4.58067	7022
4.58133	7042
4.58200	7062
4.58267	7082
4.58333	7101
4.58400	7121
4.58467	7141
4.58533	7160
4.58600	7180
4.58667	7200
4.58733	7219
4.58800	7239
4.58867	7258
4.58933	7278
4.59000	7297
4.59067	7316
4.59133	7335
4.59200	7354
4.59267	7373
4.59333	7392
4.59400	7410
4.59467	7428
4.59533	7446
4.59600	7464
4.59667	7482
4.59733	7500
4.59800	7517
4.59867	7534
4.59933	7551
4.60000	7568
4.60067	7584
4.60133	7600
4.60200	7616
4.60267	7632
4.60333	7647
4.60400	7662
4.60467	7677
4.60533	7692
4.60600	7706
4.60667	7720
4.60733	7733
4.60800	7747
4.60867	7760
4.60933	7772
4.61000	7784
4.61067	7796
4.61133	7808
4.61200	7819
4.61267	7830
4.61333	7840
4.61400	7850
4.61467	7860
4.61533	7869
4.61600	7878
4.61667	7887
4.61733	7895
4.61800	7903
4.61867	7911
4.61933	7918
4.62000	7925
4.62067	7932
4.62133	7938
4.62200	7944
4.62267	7949
4.62333	7954
4.62400	7959
4.62467	7964
4.62533	7967
4.62600	7971
4.62667	7974
4.62733	7977
4.62800	7980
4.62867	7982
4.62933	7984
4.63000	7986
4.63067	7987
4.63133	7988
4.63200	7988
4.63267	7988
4.63333	7988
4.63400	7987
4.63467	7986
4.63533	7985
4.63600	7983
4.63667	7981
4.63733	7979
4.63800	7976
4.63867	7973
4.63933	7970
4.64000	7967
4.64067	7963
4.64133	7959
4.64200	7954
4.64267	7950
4.64333	7945
4.64400	7940
4.64467	7935
4.64533	7929
4.64600	7923
4.64667	7917
4.64733	7911
4.64800	7904
4.64867	7898
4.64933	7891
4.65000	7884
4.65067	7876
4.65133	7869
4.65200	7861
4.65267	7853
4.65333	7845
4.65400	7837
4.65467	7828
4.65533	7820
4.65600	7811
4.65667	7802
4.65733	7793
4.65800	7784
4.65867	7774
4.65933	7765
4.66000	7755
4.66067	7746
4.66133	7736
4.66200	7726
4.66267	7716
4.66333	7705
4.66400	7695
4.66467	7684
4.66533	7674
4.66600	7663
4.66667	7652
4.66733	7641
4.66800	7630
4.66867	7619
4.66933	7608
4.67000	7597
4.67067	7586
4.67133	7575
4.67200	7564
4.67267	7552
4.67333	7541
4.67400	7530
4.67467	7519
4.67533	7507
4.67600	7496
4.67667	7484
4.67733	7473
4.67800	7462
4.67867	7450
4.67933	7439
4.68000	7428
4.68067	7416
4.68133	7405
4.68200	7393
4.68267	7382
4.68333	7371
4.68400	7359
4.68467	7348
4.68533	7336
4.68600	7325
4.68667	7313
4.68733	7302
4.68800	7290
4.68867	7279
4.68933	7267
4.69000	7256
4.69067	7244
4.69133	7233
4.69200	7222
4.69267	7210
4.69333	7199
4.69400	7188
4.69467	7177
4.69533	7166
4.69600	7155
4.69667	7145
4.69733	7134
4.69800	7123
4.69867	7113
4.69933	7102
4.70000	7091
4.70067	7081
4.70133	7071
4.70200	7060
4.70267	7050
4.70333	7039
4.70400	7029
4.70467	7019
4.70533	7009
4.70600	6999
4.70667	6989
4.70733	6979
4.70800	6970
4.70867	6960
4.70933	6951
4.71000	6941
4.71067	6932
4.71133	6923
4.71200	6914
4.71267	6905
4.71333	6896
4.71400	6887
4.71467	6878
4.71533	6870
4.71600	6861
4.71667	6853
4.71733	6844
4.71800	6836
4.71867	6828
4.71933	6820
4.72000	6811
4.72067	6803
4.72133	6795
4.72200	6787
4.72267	6779
4.72333	6771
4.72400	6763
4.72467	6756
4.72533	6748
4.72600	6740
4.72667	6733
4.72733	6725
4.72800	6718
4.72867	6710
4.72933	6703
4.73000	6695
4.73067	6688
4.73133	6681
4.73200	6674
4.73267	6667
4.73333	6659
4.73400	6652
4.73467	6645
4.73533	6638
4.73600	6631
4.73667	6624
4.73733	6618
4.73800	6611
4.73867	6604
4.73933	6597
4.74000	6591
4.74067	6584
4.74133	6578
4.74200	6571
4.74267	6565
4.74333	6559
4.74400	6552
4.74467	6546
4.74533	6540
4.74600	6534
4.74667	6528
4.74733	6522
4.74800	6516
4.74867	6510
4.74933	6504
4.75000	6498
4.75067	6493
4.75133	6487
4.75200	6481
4.75267	6476
4.75333	6471
4.75400	6465
4.75467	6460
4.75533	6455
4.75600	6449
4.75667	6444
4.75733	6439
4.75800	6434
4.75867	6429
4.75933	6424
4.76000	6419
4.76067	6413
4.76133	6408
4.76200	6403
4.76267	6398
4.76333	6393
4.76400	6388
4.76467	6384
4.76533	6379
4.76600	6374
4.76667	6369
4.76733	6364
4.76800	6359
4.76867	6354
4.76933	6349
4.77000	6344
4.77067	6339
4.77133	6335
4.77200	6330
4.77267	6325
4.77333	6320
4.77400	6315
4.77467	6311
4.77533	6306
4.77600	6301
4.77667	6296
4.77733	6292
4.77800	6287
4.77867	6282
4.77933	6278
4.78000	6273
4.78067	6268
4.78133	6264
4.78200	6259
4.78267	6255
4.78333	6250
4.78400	6246
4.78467	6241
4.78533	6237
4.78600	6232
4.78667	6228
4.78733	6224
4.78800	6220
4.78867	6215
4.78933	6211
4.79000	6207
4.79067	6203
4.79133	6199
4.79200	6195
4.79267	6191
4.79333	6187
4.79400	6183
4.79467	6179
4.79533	6175
4.79600	6171
4.79667	6167
4.79733	6163
4.79800	6160
4.79867	6156
4.79933	6152
4.80000	6148
4.80067	6145
4.80133	6141
4.80200	6137
4.80267	6134
4.80333	6130
4.80400	6126
4.80467	6123
4.80533	6119
4.80600	6116
4.80667	6113
4.80733	6109
4.80800	6106
4.80867	6102
4.80933	6099
4.81000	6096
4.81067	6092
4.81133	6089
4.81200	6086
4.81267	6082
4.81333	6079
4.81400	6076
4.81467	6072
4.81533	6069
4.81600	6066
4.81667	6063
4.81733	6059
4.81800	6056
4.81867	6053
4.81933	6049
4.82000	6046
4.82067	6043
4.82133	6040
4.82200	6036
4.82267	6033
4.82333	6030
4.82400	6027
4.82467	6023
4.82533	6020
4.82600	6017
4.82667	6013
4.82733	6010
4.82800	6007
4.82867	6004
4.82933	6000
4.83000	5997
4.83067	5994
4.83133	5991
4.83200	5987
4.83267	5984
4.83333	5981
4.83400	5978
4.83467	5974
4.83533	5971
4.83600	5968
4.83667	5965
4.83733	5961
4.83800	5958
4.83867	5955
4.83933	5951
4.84000	5948
4.84067	5945
4.84133	5941
4.84200	5938
4.84267	5935
4.84333	5931
4.84400	5928
4.84467	5924
4.84533	5921
4.84600	5918
4.84667	5914
4.84733	5911
4.84800	5908
4.84867	5904
4.84933	5901
4.85000	5897
4.85067	5894
4.85133	5890
4.85200	5887
4.85267	5883
4.85333	5879
4.85400	5876
4.85467	5872
4.85533	5868
4.85600	5864
4.85667	5861
4.85733	5857
4.85800	5853
4.85867	5849
4.85933	5845
4.86000	5842
4.86067	5838
4.86133	5834
4.86200	5830
4.86267	5827
4.86333	5823
4.86400	5819
4.86467	5816
4.86533	5812
4.86600	5809
4.86667	5805
4.86733	5802
4.86800	5798
4.86867	5795
4.86933	5791
4.87000	5788
4.87067	5784
4.87133	5781
4.87200	5777
4.87267	5774
4.87333	5771
4.87400	5767
4.87467	5764
4.87533	5761
4.87600	5758
4.87667	5754
4.87733	5751
4.87800	5748
4.87867	5745
4.87933	5741
4.88000	5738
4.88067	5735
4.88133	5732
4.88200	5729
4.88267	5726
4.88333	5723
4.88400	5720
4.88467	5717
4.88533	5714
4.88600	5711
4.88667	5709
4.88733	5706
4.88800	5703
4.88867	5700
4.88933	5698
4.89000	5695
4.89067	5692
4.89133	5689
4.89200	5687
4.89267	5684
4.89333	5681
4.89400	5679
4.89467	5676
4.89533	5673
4.89600	5671
4.89667	5668
4.89733	5665
4.89800	5663
4.89867	5660
4.89933	5657
4.90000	5654
4.90067	5652
4.90133	5649
4.90200	5646
4.90267	5644
4.90333	5641
4.90400	5639
4.90467	5636
4.90533	5633
4.90600	5631
4.90667	5628
4.90733	5625
4.90800	5623
4.90867	5620
4.90933	5618
4.91000	5615
4.91067	5613
4.91133	5610
4.91200	5608
4.91267	5605
4.91333	5603
4.91400	5600
4.91467	5597
4.91533	5595
4.91600	5592
4.91667	5590
4.91733	5587
4.91800	5585
4.91867	5582
4.91933	5580
4.92000	5577
4.92067	5575
4.92133	5572
4.92200	5570
4.92267	5567
4.92333	5565
4.92400	5562
4.92467	5560
4.92533	5558
4.92600	5555
4.92667	5553
4.92733	5550
4.92800	5548
4.92867	5545
4.92933	5543
4.93000	5541
4.93067	5538
4.93133	5536
4.93200	5534
4.93267	5532
4.93333	5529
4.93400	5527
4.93467	5525
4.93533	5523
4.93600	5521
4.93667	5519
4.93733	5517
4.93800	5515
4.93867	5513
4.93933	5511
4.94000	5509
4.94067	5507
4.94133	5505
4.94200	5503
4.94267	5501
4.94333	5499
4.94400	5497
4.94467	5495
4.94533	5493
4.94600	5491
4.94667	5489
4.94733	5487
4.94800	5486
4.94867	5484
4.94933	5482
4.95000	5480
4.95067	5478
4.95133	5477
4.95200	5475
4.95267	5473
4.95333	5471
4.95400	5470
4.95467	5468
4.95533	5466
4.95600	5465
4.95667	5463
4.95733	5461
4.95800	5460
4.95867	5458
4.95933	5456
4.96000	5454
4.96067	5453
4.96133	5451
4.96200	5449
4.96267	5448
4.96333	5446
4.96400	5444
4.96467	5442
4.96533	5441
4.96600	5439
4.96667	5437
4.96733	5435
4.96800	5434
4.96867	5432
4.96933	5430
4.97000	5428
4.97067	5426
4.97133	5425
4.97200	5423
4.97267	5421
4.97333	5419
4.97400	5417
4.97467	5415
4.97533	5413
4.97600	5411
4.97667	5409
4.97733	5408
4.97800	5406
4.97867	5404
4.97933	5402
4.98000	5400
4.98067	5398
4.98133	5396
4.98200	5394
4.98267	5392
4.98333	5391
4.98400	5389
4.98467	5387
4.98533	5385
4.98600	5383
4.98667	5382
4.98733	5380
4.98800	5378
4.98867	5376
4.98933	5374
4.99000	5373
4.99067	5371
4.99133	5369
4.99200	5367
4.99267	5365
4.99333	5364
4.99400	5362
4.99467	5360
4.99533	5358
4.99600	5356
4.99667	5354
4.99733	5352
4.99800	5350
4.99867	5349
4.99933	5347
5.00000	5345
5.00067	5343
5.00133	5341
5.00200	5339
5.00267	5337
5.00333	5335
5.00400	5333
5.00467	5331
5.00533	5329
5.00600	5327
5.00667	5325
5.00733	5323
5.00800	5321
5.00867	5319
5.00933	5317
5.01000	5315
5.01067	5313
5.01133	5310
5.01200	5308
5.01267	5306
5.01333	5304
5.01400	5303
5.01467	5301
5.01533	5299
5.01600	5297
5.01667	5295
5.01733	5293
5.01800	5291
5.01867	5290
5.01933	5288
5.02000	5286
5.02067	5285
5.02133	5283
5.02200	5282
5.02267	5280
5.02333	5278
5.02400	5277
5.02467	5275
5.02533	5274
5.02600	5272
5.02667	5271
5.02733	5269
5.02800	5268
5.02867	5266
5.02933	5264
5.03000	5263
5.03067	5261
5.03133	5260
5.03200	5258
5.03267	5257
5.03333	5255
5.03400	5254
5.03467	5252
5.03533	5251
5.03600	5249
5.03667	5248
5.03733	5246
5.03800	5245
5.03867	5243
5.03933	5242
5.04000	5240
5.04067	5239
5.04133	5237
5.04200	5236
5.04267	5234
5.04333	5233
5.04400	5232
5.04467	5230
5.04533	5229
5.04600	5227
5.04667	5226
5.04733	5225
5.04800	5223
5.04867	5222
5.04933	5221
5.05000	5219
5.05067	5218
5.05133	5216
5.05200	5215
5.05267	5214
5.05333	5212
5.05400	5211
5.05467	5210
5.05533	5209
5.05600	5207
5.05667	5206
5.05733	5205
5.05800	5204
5.05867	5202
5.05933	5201
5.06000	5200
5.06067	5198
5.06133	5197
5.06200	5195
5.06267	5194
5.06333	5192
5.06400	5191
5.06467	5190
5.06533	5188
5.06600	5187
5.06667	5185
5.06733	5184
5.06800	5182
5.06867	5181
5.06933	5179
5.07000	5178
5.07067	5177
5.07133	5175
5.07200	5174
5.07267	5173
5.07333	5171
5.07400	5170
5.07467	5168
5.07533	5167
5.07600	5166
5.07667	5164
5.07733	5163
5.07800	5162
5.07867	5160
5.07933	5159
5.08000	5157
5.08067	5156
5.08133	5155
5.08200	5153
5.08267	5152
5.08333	5151
5.08400	5149
5.08467	5148
5.08533	5147
5.08600	5145
5.08667	5144
5.08733	5143
5.08800	5141
5.08867	5140
5.08933	5139
5.09000	5137
5.09067	5136
5.09133	5135
5.09200	5134
5.09267	5132
5.09333	5131
5.09400	5130
5.09467	5128
5.09533	5127
5.09600	5126
5.09667	5125
5.09733	5123
5.09800	5122
5.09867	5121
5.09933	5120
5.10000	5118
5.10067	5117
5.10133	5116
5.10200	5115
5.10267	5114
5.10333	5112
5.10400	5111
5.10467	5110
5.10533	5109
5.10600	5108
5.10667	5107
5.10733	5106
5.10800	5105
5.10867	5104
5.10933	5103
5.11000	5102
5.11067	5101
5.11133	5100
5.11200	5099
5.11267	5099
5.11333	5098
5.11400	5097
5.11467	5096
5.11533	5096
5.11600	5095
5.11667	5095
5.11733	5094
5.11800	5094
5.11867	5093
5.11933	5093
5.12000	5092
5.12067	5092
5.12133	5091
5.12200	5091
5.12267	5091
5.12333	5090
5.12400	5090
5.12467	5090
5.12533	5090
5.12600	5090
5.12667	5090
5.12733	5090
5.12800	5090
5.12867	5090
5.12933	5090
5.13000	5090
5.13067	5091
5.13133	5091
5.13200	5091
5.13267	5092
5.13333	5092
5.13400	5093
5.13467	5093
5.13533	5094
5.13600	5094
5.13667	5095
5.13733	5096
5.13800	5097
5.13867	5098
5.13933	5099
5.14000	5100
5.14067	5101
5.14133	5102
5.14200	5103
5.14267	5104
5.14333	5106
5.14400	5107
5.14467	5109
5.14533	5110
5.14600	5112
5.14667	5114
5.14733	5116
5.14800	5117
5.14867	5119
5.14933	5121
5.15000	5123
5.15067	5125
5.15133	5127
5.15200	5130
5.15267	5132
5.15333	5134
5.15400	5137
5.15467	5139
5.15533	5142
5.15600	5145
5.15667	5147
5.15733	5150
5.15800	5153
5.15867	5156
5.15933	5158
5.16000	5161
5.16067	5164
5.16133	5167
5.16200	5170
5.16267	5174
5.16333	5177
5.16400	5181
5.16467	5184
5.16533	5188
5.16600	5192
5.16667	5196
5.16733	5200
5.16800	5204
5.16867	5208
5.16933	5212
5.17000	5216
5.17067	5221
5.17133	5225
5.17200	5230
5.17267	5234
5.17333	5239
5.17400	5244
5.17467	5249
5.17533	5254
5.17600	5259
5.17667	5264
5.17733	5269
5.17800	5274
5.17867	5280
5.17933	5285
5.18000	5290
5.18067	5296
5.18133	5301
5.18200	5307
5.18267	5313
5.18333	5319
5.18400	5324
5.18467	5330
5.18533	5336
5.18600	5342
5.18667	5349
5.18733	5355
5.18800	5361
5.18867	5367
5.18933	5374
5.19000	5380
5.19067	5387
5.19133	5393
5.19200	5400
5.19267	5407
5.19333	5414
5.19400	5420
5.19467	5427
5.19533	5434
5.19600	5441
5.19667	5447
5.19733	5454
5.19800	5461
5.19867	5468
5.19933	5475
5.20000	5481
5.20067	5488
5.20133	5495
5.20200	5502
5.20267	5508
5.20333	5515
5.20400	5521
5.20467	5528
5.20533	5534
5.20600	5540
5.20667	5547
5.20733	5553
5.20800	5559
5.20867	5565
5.20933	5571
5.21000	5577
5.21067	5582
5.21133	5588
5.21200	5594
5.21267	5599
5.21333	5604
5.21400	5609
5.21467	5615
5.21533	5620
5.21600	5625
5.21667	5629
5.21733	5634
5.21800	5639
5.21867	5643
5.21933	5648
5.22000	5652
5.22067	5656
5.22133	5661
5.22200	5665
5.22267	5668
5.22333	5672
5.22400	5676
5.22467	5679
5.22533	5683
5.22600	5686
5.22667	5689
5.22733	5692
5.22800	5695
5.22867	5698
5.22933	5700
5.23000	5703
5.23067	5705
5.23133	5707
5.23200	5709
5.23267	5711
5.23333	5713
5.23400	5715
5.23467	5717
5.23533	5718
5.23600	5719
5.23667	5720
5.23733	5721
5.23800	5722
5.23867	5723
5.23933	5724
5.24000	5724
5.24067	5724
5.24133	5725
5.24200	5725
5.24267	5725
5.24333	5725
5.24400	5724
5.24467	5724
5.24533	5724
5.24600	5723
5.24667	5722
5.24733	5722
5.24800	5721
5.24867	5720
5.24933	5719
5.25000	5718
5.25067	5716
5.25133	5715
5.25200	5713
5.25267	5711
5.25333	5710
5.25400	5708
5.25467	5706
5.25533	5703
5.25600	5701
5.25667	5699
5.25733	5696
5.25800	5694
5.25867	5691
5.25933	5688
5.26000	5686
5.26067	5683
5.26133	5680
5.26200	5676
5.26267	5673
5.26333	5670
5.26400	5667
5.26467	5663
5.26533	5660
5.26600	5656
5.26667	5652
5.26733	5648
5.26800	5645
5.26867	5641
5.26933	5637
5.27000	5633
5.27067	5629
5.27133	5625
5.27200	5621
5.27267	5617
5.27333	5613
5.27400	5609
5.27467	5605
5.27533	5600
5.27600	5596
5.27667	5592
5.27733	5588
5.27800	5584
5.27867	5579
5.27933	5575
5.28000	5571
5.28067	5567
5.28133	5563
5.28200	5558
5.28267	5554
5.28333	5550
5.28400	5546
5.28467	5541
5.28533	5537
5.28600	5533
5.28667	5529
5.28733	5525
5.28800	5520
5.28867	5516
5.28933	5512
5.29000	5508
5.29067	5503
5.29133	5499
5.29200	5495
5.29267	5490
5.29333	5486
5.29400	5482
5.29467	5478
5.29533	5473
5.29600	5469
5.29667	5465
5.29733	5461
5.29800	5457
5.29867	5453
5.29933	5449
5.30000	5445
5.30067	5441
5.30133	5437
5.30200	5433
5.30267	5429
5.30333	5425
5.30400	5421
5.30467	5417
5.30533	5413
5.30600	5408
5.30667	5404
5.30733	5400
5.30800	5397
5.30867	5393
5.30933	5389
5.31000	5385
5.31067	5381
5.31133	5377
5.31200	5373
5.31267	5369
5.31333	5365
5.31400	5361
5.31467	5357
5.31533	5354
5.31600	5350
5.31667	5346
5.31733	5342
5.31800	5339
5.31867	5335
5.31933	5331
5.32000	5328
5.32067	5324
5.32133	5320
5.32200	5317
5.32267	5313
5.32333	5309
5.32400	5306
5.32467	5302
5.32533	5299
5.32600	5295
5.32667	5292
5.32733	5289
5.32800	5285
5.32867	5282
5.32933	5278
5.33000	5275
5.33067	5272
5.33133	5269
5.33200	5265
5.33267	5262
5.33333	5259
5.33400	5256
5.33467	5253
5.33533	5250
5.33600	5247
5.33667	5244
5.33733	5241
5.33800	5238
5.33867	5235
5.33933	5232
5.34000	5229
5.34067	5226
5.34133	5223
5.34200	5220
5.34267	5218
5.34333	5215
5.34400	5212
5.34467	5210
5.34533	5207
5.34600	5204
5.34667	5202
5.34733	5199
5.34800	5197
5.34867	5194
5.34933	5192
5.35000	5189
5.35067	5187
5.35133	5184
5.35200	5182
5.35267	5180
5.35333	5177
5.35400	5175
5.35467	5173
5.35533	5171
5.35600	5168
5.35667	5166
5.35733	5164
5.35800	5162
5.35867	5159
5.35933	5157
5.36000	5155
5.36067	5153
5.36133	5151
5.36200	5149
5.36267	5146
5.36333	5144
5.36400	5142
5.36467	5141
5.36533	5139
5.36600	5137
5.36667	5135
5.36733	5133
5.36800	5131
5.36867	5130
5.36933	5128
5.37000	5126
5.37067	5125
5.37133	5123
5.37200	5122
5.37267	5120
5.37333	5119
5.37400	5117
5.37467	5116
5.37533	5114
5.37600	5113
5.37667	5112
5.37733	5110
5.37800	5109
5.37867	5108
5.37933	5106
5.38000	5105
5.38067	5104
5.38133	5103
5.38200	5101
5.38267	5100
5.38333	5099
5.38400	5098
5.38467	5097
5.38533	5096
5.38600	5095
5.38667	5094
5.38733	5093
5.38800	5092
5.38867	5091
5.38933	5090
5.39000	5089
5.39067	5088
5.39133	5087
5.39200	5086
5.39267	5085
5.39333	5084
5.39400	5083
5.39467	5083
5.39533	5082
5.39600	5081
5.39667	5080
5.39733	5079
5.39800	5078
5.39867	5078
5.39933	5077
5.40000	5076
5.40067	5075
5.40133	5074
5.40200	5074
5.40267	5073
5.40333	5072
5.40400	5071
5.40467	5070
5.40533	5069
5.40600	5069
5.40667	5068
5.40733	5067
5.40800	5066
5.40867	5065
5.40933	5065
5.41000	5064
5.41067	5063
5.41133	5062
5.41200	5061
5.41267	5061
5.41333	5060
5.41400	5059
5.41467	5058
5.41533	5057
5.41600	5056
5.41667	5055
5.41733	5054
5.41800	5053
5.41867	5052
5.41933	5051
5.42000	5050
5.42067	5049
5.42133	5048
5.42200	5047
5.42267	5046
5.42333	5045
5.42400	5044
5.42467	5043
5.42533	5041
5.42600	5040
5.42667	5039
5.42733	5038
5.42800	5036
5.42867	5035
5.42933	5034
5.43000	5032
5.43067	5031
5.43133	5029
5.43200	5028
5.43267	5026
5.43333	5025
5.43400	5023
5.43467	5022
5.43533	5020
5.43600	5019
5.43667	5017
5.43733	5016
5.43800	5014
5.43867	5013
5.43933	5011
5.44000	5010
5.44067	5009
5.44133	5007
5.44200	5006
5.44267	5004
5.44333	5003
5.44400	5001
5.44467	5000
5.44533	4998
5.44600	4997
5.44667	4995
5.44733	4994
5.44800	4992
5.44867	4991
5.44933	4990
5.45000	4988
5.45067	4987
5.45133	4985
5.45200	4984
5.45267	4983
5.45333	4981
5.45400	4980
5.45467	4979
5.45533	4977
5.45600	4976
5.45667	4975
5.45733	4973
5.45800	4972
5.45867	4971
5.45933	4969
5.46000	4968
5.46067	4966
5.46133	4965
5.46200	4964
5.46267	4962
5.46333	4961
5.46400	4960
5.46467	4958
5.46533	4957
5.46600	4956
5.46667	4954
5.46733	4953
5.46800	4952
5.46867	4950
5.46933	4949
5.47000	4948
5.47067	4946
5.47133	4945
5.47200	4943
5.47267	4942
5.47333	4940
5.47400	4939
5.47467	4937
5.47533	4936
5.47600	4934
5.47667	4933
5.47733	4931
5.47800	4930
5.47867	4928
5.47933	4926
5.48000	4925
5.48067	4923
5.48133	4922
5.48200	4920
5.48267	4919
5.48333	4917
5.48400	4916
5.48467	4914
5.48533	4913
5.48600	4911
5.48667	4909
5.48733	4908
5.48800	4906
5.48867	4905
5.48933	4903
5.49000	4902
5.49067	4900
5.49133	4899
5.49200	4897
5.49267	4896
5.49333	4894
5.49400	4893
5.49467	4891
5.49533	4890
5.49600	4888
5.49667	4887
5.49733	4885
5.49800	4884
5.49867	4882
5.49933	4881
5.50000	4879
5.50067	4878
5.50133	4876
5.50200	4875
5.50267	4873
5.50333	4872
5.50400	4870
5.50467	4869
5.50533	4867
5.50600	4866
5.50667	4864
5.50733	4863
5.50800	4861
5.50867	4860
5.50933	4859
5.51000	4857
5.51067	4856
5.51133	4855
5.51200	4854
5.51267	4852
5.51333	4851
5.51400	4850
5.51467	4849
5.51533	4848
5.51600	4846
5.51667	4845
5.51733	4844
5.51800	4843
5.51867	4842
5.51933	4841
5.52000	4840
5.52067	4839
5.52133	4838
5.52200	4837
5.52267	4836
5.52333	4835
5.52400	4834
5.52467	4833
5.52533	4832
5.52600	4831
5.52667	4830
5.52733	4829
5.52800	4828
5.52867	4827
5.52933	4826
5.53000	4825
5.53067	4824
5.53133	4823
5.53200	4822
5.53267	4821
5.53333	4820
5.53400	4819
5.53467	4818
5.53533	4817
5.53600	4816
5.53667	4815
5.53733	4815
5.53800	4814
5.53867	4813
5.53933	4812
5.54000	4811
5.54067	4810
5.54133	4809
5.54200	4808
5.54267	4807
5.54333	4807
5.54400	4806
5.54467	4805
5.54533	4804
5.54600	4803
5.54667	4803
5.54733	4802
5.54800	4801
5.54867	4800
5.54933	4799
5.55000	4798
5.55067	4798
5.55133	4797
5.55200	4796
5.55267	4795
5.55333	4795
5.55400	4794
5.55467	4793
5.55533	4792
5.55600	4792
5.55667	4791
5.55733	4791
5.55800	4790
5.55867	4789
5.55933	4789
5.56000	4788
5.56067	4788
5.56133	4787
5.56200	4787
5.56267	4786
5.56333	4786
5.56400	4786
5.56467	4785
5.56533	4785
5.56600	4784
5.56667	4784
5.56733	4784
5.56800	4783
5.56867	4783
5.56933	4783
5.57000	4782
5.57067	4782
5.57133	4782
5.57200	4781
5.57267	4781
5.57333	4781
5.57400	4780
5.57467	4780
5.57533	4780
5.57600	4780
5.57667	4779
5.57733	4779
5.57800	4779
5.57867	4779
5.57933	4778
5.58000	4778
5.58067	4778
5.58133	4778
5.58200	4778
5.58267	4778
5.58333	4778
5.58400	4777
5.58467	4777
5.58533	4777
5.58600	4777
5.58667	4777
5.58733	4777
5.58800	4777
5.58867	4776
5.58933	4776
5.59000	4776
5.59067	4776
5.59133	4776
5.59200	4775
5.59267	4775
5.59333	4775
5.59400	4775
5.59467	4774
5.59533	4774
5.59600	4774
5.59667	4774
5.59733	4774
5.59800	4773
5.59867	4773
5.59933	4773
5.60000	4773
5.60067	4772
5.60133	4772
5.60200	4772
5.60267	4772
5.60333	4771
5.60400	4771
5.60467	4771
5.60533	4770
5.60600	4770
5.60667	4770
5.60733	4770
5.60800	4769
5.60867	4769
5.60933	4768
5.61000	4768
5.61067	4768
5.61133	4767
5.61200	4767
5.61267	4766
5.61333	4766
5.61400	4765
5.61467	4765
5.61533	4764
5.61600	4763
5.61667	4763
5.61733	4762
5.61800	4761
5.61867	4761
5.61933	4760
5.62000	4759
5.62067	4759
5.62133	4758
5.62200	4757
5.62267	4756
5.62333	4755
5.62400	4755
5.62467	4754
5.62533	4753
5.62600	4752
5.62667	4751
5.62733	4750
5.62800	4750
5.62867	4749
5.62933	4748
5.63000	4747
5.63067	4746
5.63133	4745
5.63200	4744
5.63267	4743
5.63333	4742
5.63400	4741
5.63467	4740
5.63533	4739
5.63600	4738
5.63667	4737
5.63733	4736
5.63800	4735
5.63867	4734
5.63933	4733
5.64000	4732
5.64067	4731
5.64133	4730
5.64200	4729
5.64267	4728
5.64333	4727
5.64400	4727
5.64467	4726
5.64533	4725
5.64600	4724
5.64667	4723
5.64733	4722
5.64800	4722
5.64867	4721
5.64933	4720
5.65000	4719
5.65067	4718
5.65133	4717
5.65200	4716
5.65267	4715
5.65333	4714
5.65400	4713
5.65467	4712
5.65533	4711
5.65600	4710
5.65667	4709
5.65733	4708
5.65800	4707
5.65867	4706
5.65933	4705
5.66000	4703
5.66067	4702
5.66133	4701
5.66200	4700
5.66267	4699
5.66333	4698
5.66400	4697
5.66467	4696
5.66533	4695
5.66600	4694
5.66667	4693
5.66733	4692
5.66800	4690
5.66867	4689
5.66933	4688
5.67000	4687
5.67067	4686
5.67133	4685
5.67200	4684
5.67267	4683
5.67333	4681
5.67400	4680
5.67467	4679
5.67533	4678
5.67600	4677
5.67667	4675
5.67733	4674
5.67800	4673
5.67867	4672
5.67933	4670
5.68000	4669
5.68067	4668
5.68133	4666
5.68200	4665
5.68267	4664
5.68333	4663
5.68400	4661
5.68467	4660
5.68533	4659
5.68600	4657
5.68667	4656
5.68733	4655
5.68800	4654
5.68867	4652
5.68933	4651
5.69000	4650
5.69067	4649
5.69133	4647
5.69200	4646
5.69267	4645
5.69333	4643
5.69400	4642
5.69467	4641
5.69533	4640
5.69600	4638
5.69667	4637
5.69733	4636
5.69800	4635
5.69867	4634
5.69933	4632
5.70000	4631
5.70067	4630
5.70133	4629
5.70200	4628
5.70267	4627
5.70333	4625
5.70400	4624
5.70467	4623
5.70533	4622
5.70600	4621
5.70667	4619
5.70733	4618
5.70800	4617
5.70867	4616
5.70933	4615
5.71000	4613
5.71067	4612
5.71133	4611
5.71200	4610
5.71267	4609
5.71333	4607
5.71400	4606
5.71467	4605
5.71533	4604
5.71600	4603
5.71667	4602
5.71733	4601
5.71800	4599
5.71867	4598
5.71933	4597
5.72000	4596
5.72067	4595
5.72133	4594
5.72200	4593
5.72267	4592
5.72333	4591
5.72400	4590
5.72467	4589
5.72533	4588
5.72600	4588
5.72667	4587
5.72733	4586
5.72800	4585
5.72867	4584
5.72933	4583
5.73000	4583
5.73067	4582
5.73133	4581
5.73200	4580
5.73267	4579
5.73333	4579
5.73400	4578
5.73467	4577
5.73533	4576
5.73600	4575
5.73667	4575
5.73733	4574
5.73800	4573
5.73867	4573
5.73933	4572
5.74000	4571
5.74067	4571
5.74133	4570
5.74200	4569
5.74267	4569
5.74333	4568
5.74400	4567
5.74467	4567
5.74533	4566
5.74600	4565
5.74667	4565
5.74733	4564
5.74800	4563
5.74867	4563
5.74933	4562
5.75000	4561
5.75067	4561
5.75133	4560
5.75200	4560
5.75267	4559
5.75333	4559
5.75400	4558
5.75467	4558
5.75533	4557
5.75600	4557
5.75667	4556
5.75733	4556
5.75800	4556
5.75867	4555
5.75933	4555
5.76000	4554
5.76067	4554
5.76133	4554
5.76200	4553
5.76267	4553
5.76333	4552
5.76400	4552
5.76467	4552
5.76533	4552
5.76600	4551
5.76667	4551
5.76733	4551
5.76800	4551
5.76867	4550
5.76933	4550
5.77000	4550
5.77067	4550
5.77133	4549
5.77200	4549
5.77267	4549
5.77333	4549
5.77400	4548
5.77467	4548
5.77533	4548
5.77600	4548
5.77667	4548
5.77733	4548
5.77800	4548
5.77867	4548
5.77933	4547
5.78000	4547
5.78067	4547
5.78133	4547
5.78200	4547
5.78267	4547
5.78333	4547
5.78400	4547
5.78467	4547
5.78533	4547
5.78600	4546
5.78667	4546
5.78733	4546
5.78800	4546
5.78867	4546
5.78933	4546
5.79000	4546
5.79067	4546
5.79133	4546
5.79200	4546
5.79267	4545
5.79333	4545
5.79400	4545
5.79467	4545
5.79533	4545
5.79600	4546
5.79667	4546
5.79733	4546
5.79800	4546
5.79867	4546
5.79933	4546
5.80000	4546
5.80067	4547
5.80133	4547
5.80200	4547
5.80267	4547
5.80333	4547
5.80400	4547
5.80467	4547
5.80533	4547
5.80600	4548
5.80667	4548
5.80733	4548
5.80800	4548
5.80867	4548
5.80933	4548
5.81000	4548
5.81067	4549
5.81133	4549
5.81200	4549
5.81267	4549
5.81333	4549
5.81400	4549
5.81467	4549
5.81533	4550
5.81600	4550
5.81667	4550
5.81733	4550
5.81800	4550
5.81867	4550
5.81933	4550
5.82000	4550
5.82067	4550
5.82133	4551
5.82200	4551
5.82267	4551
5.82333	4551
5.82400	4551
5.82467	4551
5.82533	4551
5.82600	4551
5.82667	4551
5.82733	4550
5.82800	4550
5.82867	4550
5.82933	4550
5.83000	4550
5.83067	4550
5.83133	4550
5.83200	4550
5.83267	4550
5.83333	4550
5.83400	4550
5.83467	4551
5.83533	4550
5.83600	4550
5.83667	4550
5.83733	4550
5.83800	4550
5.83867	4550
5.83933	4550
5.84000	4550
5.84067	4550
5.84133	4550
5.84200	4550
5.84267	4550
5.84333	4550
5.84400	4549
5.84467	4549
5.84533	4549
5.84600	4549
5.84667	4549
5.84733	4549
5.84800	4549
5.84867	4548
5.84933	4548
5.85000	4548
5.85067	4548
5.85133	4548
5.85200	4547
5.85267	4547
5.85333	4547
5.85400	4546
5.85467	4546
5.85533	4546
5.85600	4546
5.85667	4545
5.85733	4545
5.85800	4545
5.85867	4544
5.85933	4544
5.86000	4544
5.86067	4543
5.86133	4543
5.86200	4543
5.86267	4543
5.86333	4542
5.86400	4542
5.86467	4542
5.86533	4542
5.86600	4541
5.86667	4541
5.86733	4541
5.86800	4540
5.86867	4540
5.86933	4540
5.87000	4540
5.87067	4539
5.87133	4539
5.87200	4539
5.87267	4539
5.87333	4538
5.87400	4538
5.87467	4538
5.87533	4538
5.87600	4537
5.87667	4537
5.87733	4537
5.87800	4537
5.87867	4536
5.87933	4536
5.88000	4536
5.88067	4536
5.88133	4535
5.88200	4535
5.88267	4535
5.88333	4535
5.88400	4535
5.88467	4534
5.88533	4534
5.88600	4534
5.88667	4534
5.88733	4534
5.88800	4534
5.88867	4533
5.88933	4533
5.89000	4533
5.89067	4533
5.89133	4533
5.89200	4533
5.89267	4532
5.89333	4532
5.89400	4532
5.89467	4532
5.89533	4532
5.89600	4532
5.89667	4532
5.89733	4531
5.89800	4531
5.89867	4531
5.89933	4531
5.90000	4531
5.90067	4531
5.90133	4531
5.90200	4531
5.90267	4531
5.90333	4531
5.90400	4531
5.90467	4531
5.90533	4531
5.90600	4531
5.90667	4531
5.90733	4531
5.90800	4531
5.90867	4531
5.90933	4531
5.91000	4531
5.91067	4531
5.91133	4532
5.91200	4532
5.91267	4532
5.91333	4532
5.91400	4532
5.91467	4532
5.91533	4532
5.91600	4532
5.91667	4532
5.91733	4532
5.91800	4532
5.91867	4532
5.91933	4532
5.92000	4533
5.92067	4533
5.92133	4533
5.92200	4533
5.92267	4533
5.92333	4533
5.92400	4533
5.92467	4533
5.92533	4534
5.92600	4534
5.92667	4534
5.92733	4534
5.92800	4534
5.92867	4534
5.92933	4535
5.93000	4535
5.93067	4535
5.93133	4535
5.93200	4535
5.93267	4535
5.93333	4535
5.93400	4535
5.93467	4536
5.93533	4536
5.93600	4536
5.93667	4536
5.93733	4536
5.93800	4536
5.93867	4536
5.93933	4537
5.94000	4537
5.94067	4537
5.94133	4537
5.94200	4537
5.94267	4537
5.94333	4538
5.94400	4538
5.94467	4538
5.94533	4538
5.94600	4539
5.94667	4539
5.94733	4539
5.94800	4540
5.94867	4540
5.94933	4540
5.95000	4540
5.95067	4541
5.95133	4541
5.95200	4542
5.95267	4542
5.95333	4542
5.95400	4543
5.95467	4543
5.95533	4544
5.95600	4544
5.95667	4544
5.95733	4545
5.95800	4545
5.95867	4546
5.95933	4546
5.96000	4546
5.96067	4547
5.96133	4547
5.96200	4548
5.96267	4548
5.96333	4548
5.96400	4549
5.96467	4549
5.96533	4549
5.96600	4550
5.96667	4550
5.96733	4550
5.96800	4551
5.96867	4551
5.96933	4551
5.97000	4552
5.97067	4552
5.97133	4552
5.97200	4553
5.97267	4553
5.97333	4553
5.97400	4554
5.97467	4554
5.97533	4554
5.97600	4555
5.97667	4555
5.97733	4555
5.97800	4555
5.97867	4556
5.97933	4556
5.98000	4556
5.98067	4556
5.98133	4556
5.98200	4557
5.98267	4557
5.98333	4557
5.98400	4557
5.98467	4557
5.98533	4557
5.98600	4557
5.98667	4557
5.98733	4557
5.98800	4558
5.98867	4558
5.98933	4558
5.99000	4558
5.99067	4558
5.99133	4558
5.99200	4558
5.99267	4557
5.99333	4557
5.99400	4557
5.99467	4557
5.99533	4557
5.99600	4557
5.99667	4557
5.99733	4557
5.99800	4557
5.99867	4557
5.99933	4557
6.00000	4557
6.00067	4557
6.00133	4556
6.00200	4556
6.00267	4556
6.00333	4556
6.00400	4556
6.00467	4556
6.00533	4556
6.00600	4556
6.00667	4556
6.00733	4556
6.00800	4556
6.00867	4555
6.00933	4555
6.01000	4555
6.01067	4555
6.01133	4555
6.01200	4555
6.01267	4555
6.01333	4555
6.01400	4555
6.01467	4555
6.01533	4555
6.01600	4555
6.01667	4555
6.01733	4555
6.01800	4555
6.01867	4555
6.01933	4555
6.02000	4555
6.02067	4555
6.02133	4554
6.02200	4554
6.02267	4554
6.02333	4554
6.02400	4554
6.02467	4553
6.02533	4553
6.02600	4553
6.02667	4553
6.02733	4553
6.02800	4552
6.02867	4552
6.02933	4552
6.03000	4551
6.03067	4551
6.03133	4551
6.03200	4551
6.03267	4550
6.03333	4550
6.03400	4550
6.03467	4549
6.03533	4549
6.03600	4549
6.03667	4548
6.03733	4548
6.03800	4548
6.03867	4547
6.03933	4547
6.04000	4546
6.04067	4546
6.04133	4546
6.04200	4545
6.04267	4545
6.04333	4545
6.04400	4544
6.04467	4544
6.04533	4543
6.04600	4543
6.04667	4542
6.04733	4542
6.04800	4541
6.04867	4541
6.04933	4540
6.05000	4540
6.05067	4539
6.05133	4538
6.05200	4538
6.05267	4537
6.05333	4537
6.05400	4536
6.05467	4536
6.05533	4535
6.05600	4535
6.05667	4534
6.05733	4534
6.05800	4533
6.05867	4533
6.05933	4532
6.06000	4532
6.06067	4531
6.06133	4531
6.06200	4531
6.06267	4530
6.06333	4530
6.06400	4529
6.06467	4529
6.06533	4529
6.06600	4528
6.06667	4528
6.06733	4527
6.06800	4527
6.06867	4526
6.06933	4526
6.07000	4525
6.07067	4525
6.07133	4524
6.07200	4524
6.07267	4523
6.07333	4523
6.07400	4522
6.07467	4522
6.07533	4521
6.07600	4520
6.07667	4520
6.07733	4519
6.07800	4519
6.07867	4518
6.07933	4517
6.08000	4517
6.08067	4516
6.08133	4516
6.08200	4515
6.08267	4515
6.08333	4514
6.08400	4513
6.08467	4513
6.08533	4512
6.08600	4512
6.08667	4511
6.08733	4510
6.08800	4510
6.08867	4509
6.08933	4509
6.09000	4508
6.09067	4507
6.09133	4507
6.09200	4506
6.09267	4506
6.09333	4505
6.09400	4505
6.09467	4504
6.09533	4504
6.09600	4503
6.09667	4502
6.09733	4502
6.09800	4501
6.09867	4500
6.09933	4500
6.10000	4499
6.10067	4498
6.10133	4498
6.10200	4497
6.10267	4496
6.10333	4495
6.10400	4495
6.10467	4494
6.10533	4493
6.10600	4492
6.10667	4491
6.10733	4491
6.10800	4490
6.10867	4489
6.10933	4488
6.11000	4488
6.11067	4487
6.11133	4486
6.11200	4485
6.11267	4485
6.11333	4484
6.11400	4483
6.11467	4483
6.11533	4482
6.11600	4482
6.11667	4481
6.11733	4480
6.11800	4479
6.11867	4479
6.11933	4478
6.12000	4477
6.12067	4476
6.12133	4476
6.12200	4475
6.12267	4474
6.12333	4473
6.12400	4473
6.12467	4472
6.12533	4471
6.12600	4470
6.12667	4470
6.12733	4469
6.12800	4468
6.12867	4468
6.12933	4467
6.13000	4466
6.13067	4466
6.13133	4465
6.13200	4464
6.13267	4463
6.13333	4463
6.13400	4462
6.13467	4461
6.13533	4460
6.13600	4460
6.13667	4459
6.13733	4458
6.13800	4457
6.13867	4456
6.13933	4456
6.14000	4455
6.14067	4454
6.14133	4453
6.14200	4452
6.14267	4451
6.14333	4451
6.14400	4450
6.14467	4449
6.14533	4448
6.14600	4447
6.14667	4446
6.14733	4445
6.14800	4444
6.14867	4444
6.14933	4443
6.15000	4442
6.15067	4441
6.15133	4440
6.15200	4439
6.15267	4438
6.15333	4438
6.15400	4437
6.15467	4436
6.15533	4435
6.15600	4434
6.15667	4433
6.15733	4433
6.15800	4432
6.15867	4431
6.15933	4430
6.16000	4429
6.16067	4429
6.16133	4428
6.16200	4427
6.16267	4426
6.16333	4426
6.16400	4425
6.16467	4424
6.16533	4424
6.16600	4423
6.16667	4422
6.16733	4421
6.16800	4421
6.16867	4420
6.16933	4419
6.17000	4418
6.17067	4418
6.17133	4417
6.17200	4416
6.17267	4415
6.17333	4415
6.17400	4414
6.17467	4413
6.17533	4412
6.17600	4412
6.17667	4411
6.17733	4410
6.17800	4410
6.17867	4409
6.17933	4408
6.18000	4408
6.18067	4407
6.18133	4406
6.18200	4406
6.18267	4405
6.18333	4405
6.18400	4404
6.18467	4404
6.18533	4403
6.18600	4403
6.18667	4403
6.18733	4402
6.18800	4402
6.18867	4401
6.18933	4401
6.19000	4400
6.19067	4400
6.19133	4399
6.19200	4399
6.19267	4398
6.19333	4398
6.19400	4398
6.19467	4397
6.19533	4397
6.19600	4396
6.19667	4396
6.19733	4395
6.19800	4395
6.19867	4394
6.19933	4394
6.20000	4393
6.20067	4393
6.20133	4393
6.20200	4392
6.20267	4392
6.20333	4391
6.20400	4391
6.20467	4391
6.20533	4390
6.20600	4390
6.20667	4389
6.20733	4389
6.20800	4389
6.20867	4388
6.20933	4388
6.21000	4388
6.21067	4387
6.21133	4387
6.21200	4387
6.21267	4386
6.21333	4386
6.21400	4386
6.21467	4385
6.21533	4385
6.21600	4385
6.21667	4385
6.21733	4385
6.21800	4385
6.21867	4384
6.21933	4384
6.22000	4384
6.22067	4384
6.22133	4384
6.22200	4384
6.22267	4385
6.22333	4385
6.22400	4385
6.22467	4385
6.22533	4385
6.22600	4385
6.22667	4386
6.22733	4386
6.22800	4386
6.22867	4386
6.22933	4386
6.23000	4387
6.23067	4387
6.23133	4387
6.23200	4387
6.23267	4387
6.23333	4388
6.23400	4388
6.23467	4388
6.23533	4388
6.23600	4388
6.23667	4388
6.23733	4389
6.23800	4389
6.23867	4389
6.23933	4389
6.24000	4389
6.24067	4389
6.24133	4389
6.24200	4389
6.24267	4389
6.24333	4390
6.24400	4390
6.24467	4390
6.24533	4390
6.24600	4390
6.24667	4390
6.24733	4390
6.24800	4391
6.24867	4391
6.24933	4391
6.25000	4391
6.25067	4391
6.25133	4391
6.25200	4392
6.25267	4392
6.25333	4392
6.25400	4392
6.25467	4392
6.25533	4393
6.25600	4393
6.25667	4393
6.25733	4393
6.25800	4393
6.25867	4394
6.25933	4394
6.26000	4394
6.26067	4394
6.26133	4394
6.26200	4394
6.26267	4394
6.26333	4394
6.26400	4395
6.26467	4395
6.26533	4395
6.26600	4395
6.26667	4395
6.26733	4395
6.26800	4395
6.26867	4395
6.26933	4395
6.27000	4395
6.27067	4395
6.27133	4395
6.27200	4396
6.27267	4396
6.27333	4396
6.27400	4396
6.27467	4396
6.27533	4396
6.27600	4396
6.27667	4396
6.27733	4397
6.27800	4397
6.27867	4397
6.27933	4397
6.28000	4397
6.28067	4397
6.28133	4397
6.28200	4397
6.28267	4397
6.28333	4397
6.28400	4397
6.28467	4397
6.28533	4397
6.28600	4397
6.28667	4397
6.28733	4397
6.28800	4397
6.28867	4397
6.28933	4396
6.29000	4396
6.29067	4396
6.29133	4396
6.29200	4395
6.29267	4395
6.29333	4395
6.29400	4395
6.29467	4394
6.29533	4394
6.29600	4394
6.29667	4393
6.29733	4393
6.29800	4393
6.29867	4393
6.29933	4392
6.30000	4392
6.30067	4392
6.30133	4392
6.30200	4391
6.30267	4391
6.30333	4391
6.30400	4391
6.30467	4390
6.30533	4390
6.30600	4390
6.30667	4390
6.30733	4390
6.30800	4389
6.30867	4389
6.30933	4389
6.31000	4389
6.31067	4389
6.31133	4388
6.31200	4388
6.31267	4388
6.31333	4388
6.31400	4387
6.31467	4387
6.31533	4387
6.31600	4387
6.31667	4387
6.31733	4386
6.31800	4386
6.31867	4386
6.31933	4386
6.32000	4385
6.32067	4385
6.32133	4385
6.32200	4385
6.32267	4384
6.32333	4384
6.32400	4384
6.32467	4383
6.32533	4383
6.32600	4382
6.32667	4382
6.32733	4382
6.32800	4381
6.32867	4381
6.32933	4380
6.33000	4380
6.33067	4379
6.33133	4379
6.33200	4378
6.33267	4378
6.33333	4377
6.33400	4377
6.33467	4376
6.33533	4376
6.33600	4375
6.33667	4375
6.33733	4375
6.33800	4374
6.33867	4374
6.33933	4373
6.34000	4373
6.34067	4372
6.34133	4372
6.34200	4372
6.34267	4371
6.34333	4371
6.34400	4371
6.34467	4371
6.34533	4370
6.34600	4370
6.34667	4370
6.34733	4370
6.34800	4370
6.34867	4370
6.34933	4369
6.35000	4369
6.35067	4369
6.35133	4369
6.35200	4369
6.35267	4368
6.35333	4368
6.35400	4368
6.35467	4368
6.35533	4368
6.35600	4367
6.35667	4367
6.35733	4367
6.35800	4367
6.35867	4367
6.35933	4367
6.36000	4366
6.36067	4366
6.36133	4366
6.36200	4366
6.36267	4365
6.36333	4365
6.36400	4365
6.36467	4364
6.36533	4364
6.36600	4363
6.36667	4363
6.36733	4362
6.36800	4362
6.36867	4361
6.36933	4361
6.37000	4360
6.37067	4360
6.37133	4359
6.37200	4359
6.37267	4358
6.37333	4358
6.37400	4358
6.37467	4357
6.37533	4357
6.37600	4356
6.37667	4356
6.37733	4355
6.37800	4355
6.37867	4355
6.37933	4354
6.38000	4354
6.38067	4353
6.38133	4353
6.38200	4353
6.38267	4352
6.38333	4352
6.38400	4351
6.38467	4351
6.38533	4351
6.38600	4350
6.38667	4350
6.38733	4350
6.38800	4349
6.38867	4349
6.38933	4349
6.39000	4348
6.39067	4348
6.39133	4348
6.39200	4348
6.39267	4347
6.39333	4347
6.39400	4347
6.39467	4347
6.39533	4346
6.39600	4346
6.39667	4346
6.39733	4345
6.39800	4345
6.39867	4345
6.39933	4344

