[Header]
Application Name	LabSolutions
Version	5.73
Data File Name	C:\LabSolutions\Data\Project1\stephen\2016-01-06\98.gcd
Output Date	1/11/2016
Output Time	1:20:00 PM

[Configuration]
Instrument Name	WEISSTA-PC-Instrument1
Instrument #	1
Line #	1
# of Detectors	1
Detector ID	DET#2
Detector Name	DFID1
# of Channels	1

[Chromatogram (Ch1)]
Interval(msec)	40
# of Points	9600
Start Time(min)	0.000
End Time(min)	6.399
R.Time (min)	Intensity
0.00000	26
0.00067	26
0.00133	26
0.00200	26
0.00267	26
0.00333	26
0.00400	26
0.00467	26
0.00533	26
0.00600	27
0.00667	27
0.00733	26
0.00800	26
0.00867	26
0.00933	25
0.01000	24
0.01067	22
0.01133	20
0.01200	18
0.01267	15
0.01333	12
0.01400	8
0.01467	5
0.01533	0
0.01600	-4
0.01667	-9
0.01733	-14
0.01800	-19
0.01867	-24
0.01933	-30
0.02000	-35
0.02067	-41
0.02133	-46
0.02200	-51
0.02267	-56
0.02333	-61
0.02400	-66
0.02467	-71
0.02533	-76
0.02600	-80
0.02667	-85
0.02733	-89
0.02800	-93
0.02867	-96
0.02933	-100
0.03000	-103
0.03067	-106
0.03133	-109
0.03200	-112
0.03267	-115
0.03333	-117
0.03400	-119
0.03467	-121
0.03533	-123
0.03600	-125
0.03667	-126
0.03733	-128
0.03800	-129
0.03867	-130
0.03933	-131
0.04000	-132
0.04067	-133
0.04133	-134
0.04200	-135
0.04267	-135
0.04333	-136
0.04400	-136
0.04467	-136
0.04533	-136
0.04600	-136
0.04667	-137
0.04733	-137
0.04800	-137
0.04867	-136
0.04933	-136
0.05000	-136
0.05067	-136
0.05133	-136
0.05200	-136
0.05267	-135
0.05333	-135
0.05400	-135
0.05467	-134
0.05533	-134
0.05600	-134
0.05667	-133
0.05733	-133
0.05800	-133
0.05867	-132
0.05933	-132
0.06000	-132
0.06067	-131
0.06133	-131
0.06200	-131
0.06267	-130
0.06333	-130
0.06400	-130
0.06467	-129
0.06533	-129
0.06600	-129
0.06667	-128
0.06733	-128
0.06800	-128
0.06867	-128
0.06933	-127
0.07000	-127
0.07067	-127
0.07133	-127
0.07200	-126
0.07267	-126
0.07333	-126
0.07400	-125
0.07467	-125
0.07533	-125
0.07600	-125
0.07667	-124
0.07733	-124
0.07800	-124
0.07867	-124
0.07933	-123
0.08000	-123
0.08067	-123
0.08133	-122
0.08200	-122
0.08267	-122
0.08333	-121
0.08400	-121
0.08467	-121
0.08533	-120
0.08600	-118
0.08667	-114
0.08733	-104
0.08800	-86
0.08867	-58
0.08933	-11
0.09000	64
0.09067	163
0.09133	282
0.09200	439
0.09267	635
0.09333	880
0.09400	1187
0.09467	1540
0.09533	1928
0.09600	2343
0.09667	2811
0.09733	3314
0.09800	3867
0.09867	4471
0.09933	5099
0.10000	5763
0.10067	6475
0.10133	7263
0.10200	8103
0.10267	9030
0.10333	10025
0.10400	11103
0.10467	12253
0.10533	13456
0.10600	14713
0.10667	15963
0.10733	17187
0.10800	18399
0.10867	19632
0.10933	20834
0.11000	22087
0.11067	23388
0.11133	24870
0.11200	26416
0.11267	27947
0.11333	29457
0.11400	30934
0.11467	32367
0.11533	33710
0.11600	35015
0.11667	36301
0.11733	37518
0.11800	38673
0.11867	39736
0.11933	40698
0.12000	41582
0.12067	42423
0.12133	43242
0.12200	44029
0.12267	44764
0.12333	45439
0.12400	46055
0.12467	46641
0.12533	47179
0.12600	47695
0.12667	48166
0.12733	48568
0.12800	48910
0.12867	49176
0.12933	49387
0.13000	49579
0.13067	49708
0.13133	49776
0.13200	49779
0.13267	49722
0.13333	49641
0.13400	49539
0.13467	49488
0.13533	49846
0.13600	51768
0.13667	58355
0.13733	76096
0.13800	117527
0.13867	202823
0.13933	361024
0.14000	625238
0.14067	1028930
0.14133	1601670
0.14200	2369882
0.14267	3353914
0.14333	4569054
0.14400	6023586
0.14467	7723008
0.14533	9665261
0.14600	11835573
0.14667	14230032
0.14733	16881483
0.14800	19820082
0.14867	23050472
0.14933	26557840
0.15000	30317176
0.15067	34299653
0.15133	38475432
0.15200	42816289
0.15267	47295995
0.15333	51890710
0.15400	56577088
0.15467	61332552
0.15533	66136255
0.15600	70968958
0.15667	75812427
0.15733	80648444
0.15800	85460570
0.15867	90232440
0.15933	94949302
0.16000	99597160
0.16067	104163049
0.16133	108634640
0.16200	113000950
0.16267	117251734
0.16333	121378021
0.16400	125371489
0.16467	129224698
0.16533	132931082
0.16600	136485024
0.16667	139881713
0.16733	143116832
0.16800	146186690
0.16867	149088447
0.16933	151820141
0.17000	154380253
0.17067	156768330
0.17133	158985075
0.17200	161032106
0.17267	162910735
0.17333	164622199
0.17400	166166894
0.17467	167545632
0.17533	168759539
0.17600	169810510
0.17667	170700718
0.17733	171432958
0.17800	172010382
0.17867	172436763
0.17933	172716163
0.18000	172853081
0.18067	172852233
0.18133	172718483
0.18200	172456727
0.18267	172071852
0.18333	171568726
0.18400	170952186
0.18467	170227078
0.18533	169398209
0.18600	168470362
0.18667	167448253
0.18733	166336658
0.18800	165140264
0.18867	163863786
0.18933	162511792
0.19000	161088889
0.19067	159599548
0.19133	158048241
0.19200	156439326
0.19267	154777103
0.19333	153065734
0.19400	151309289
0.19467	149511677
0.19533	147676698
0.19600	145808012
0.19667	143909211
0.19733	141983929
0.19800	140036130
0.19867	138070021
0.19933	136089581
0.20000	134098072
0.20067	132097896
0.20133	130090885
0.20200	128078501
0.20267	126062138
0.20333	124043188
0.20400	122023113
0.20467	120003356
0.20533	117985375
0.20600	115970572
0.20667	113960374
0.20733	111956153
0.20800	109959273
0.20867	107971047
0.20933	105992764
0.21000	104025646
0.21067	102070875
0.21133	100129577
0.21200	98202827
0.21267	96291632
0.21333	94396947
0.21400	92519653
0.21467	90660579
0.21533	88820505
0.21600	87000146
0.21667	85200146
0.21733	83421101
0.21800	81663571
0.21867	79928069
0.21933	78215064
0.22000	76524967
0.22067	74858142
0.22133	73214910
0.22200	71595560
0.22267	70000336
0.22333	68429457
0.22400	66883101
0.22467	65361403
0.22533	63864465
0.22600	62392367
0.22667	60945161
0.22733	59522871
0.22800	58125496
0.22867	56753010
0.22933	55405365
0.23000	54082488
0.23067	52784284
0.23133	51510640
0.23200	50261427
0.23267	49036492
0.23333	47835669
0.23400	46658773
0.23467	45505607
0.23533	44375959
0.23600	43269608
0.23667	42186318
0.23733	41125840
0.23800	40087918
0.23867	39072287
0.23933	38078674
0.24000	37106798
0.24067	36156371
0.24133	35227097
0.24200	34318676
0.24267	33430803
0.24333	32563171
0.24400	31715468
0.24467	30887379
0.24533	30078585
0.24600	29288766
0.24667	28517599
0.24733	27764763
0.24800	27029931
0.24867	26312780
0.24933	25612988
0.25000	24930232
0.25067	24264191
0.25133	23614546
0.25200	22980978
0.25267	22363169
0.25333	21760807
0.25400	21173579
0.25467	20601177
0.25533	20043294
0.25600	19499627
0.25667	18969877
0.25733	18453748
0.25800	17950946
0.25867	17461181
0.25933	16984167
0.26000	16519623
0.26067	16067270
0.26133	15626832
0.26200	15198036
0.26267	14780615
0.26333	14374309
0.26400	13978869
0.26467	13594053
0.26533	13219626
0.26600	12855361
0.26667	12501028
0.26733	12156395
0.26800	11821225
0.26867	11495279
0.26933	11178320
0.27000	10870109
0.27067	10570415
0.27133	10279008
0.27200	9995666
0.27267	9720179
0.27333	9452354
0.27400	9192018
0.27467	8939008
0.27533	8693166
0.27600	8454329
0.27667	8222325
0.27733	7996977
0.27800	7778104
0.27867	7565522
0.27933	7359051
0.28000	7158510
0.28067	6963723
0.28133	6774516
0.28200	6590721
0.28267	6412173
0.28333	6238714
0.28400	6070189
0.28467	5906450
0.28533	5747353
0.28600	5592759
0.28667	5442533
0.28733	5296545
0.28800	5154670
0.28867	5016787
0.28933	4882780
0.29000	4752538
0.29067	4625952
0.29133	4502917
0.29200	4383333
0.29267	4267102
0.29333	4154132
0.29400	4044333
0.29467	3937617
0.29533	3833899
0.29600	3733101
0.29667	3635142
0.29733	3539948
0.29800	3447445
0.29867	3357562
0.29933	3270232
0.30000	3185386
0.30067	3102962
0.30133	3022897
0.30200	2945129
0.30267	2869599
0.30333	2796251
0.30400	2725030
0.30467	2655882
0.30533	2588756
0.30600	2523602
0.30667	2460372
0.30733	2399018
0.30800	2339497
0.30867	2281764
0.30933	2225776
0.31000	2171490
0.31067	2118866
0.31133	2067862
0.31200	2018440
0.31267	1970560
0.31333	1924185
0.31400	1879278
0.31467	1835806
0.31533	1793733
0.31600	1753027
0.31667	1713658
0.31733	1675594
0.31800	1638807
0.31867	1603266
0.31933	1568945
0.32000	1535816
0.32067	1503851
0.32133	1473024
0.32200	1443309
0.32267	1414683
0.32333	1387123
0.32400	1360609
0.32467	1335121
0.32533	1310641
0.32600	1287154
0.32667	1264643
0.32733	1243093
0.32800	1222487
0.32867	1202808
0.32933	1184041
0.33000	1166167
0.33067	1149170
0.33133	1133033
0.33200	1117738
0.33267	1103270
0.33333	1089614
0.33400	1076755
0.33467	1064683
0.33533	1053387
0.33600	1042856
0.33667	1033078
0.33733	1024041
0.33800	1015732
0.33867	1008132
0.33933	1001222
0.34000	994982
0.34067	989388
0.34133	984416
0.34200	980038
0.34267	976225
0.34333	972947
0.34400	970174
0.34467	967873
0.34533	966015
0.34600	964567
0.34667	963498
0.34733	962778
0.34800	962375
0.34867	962262
0.34933	962407
0.35000	962781
0.35067	963359
0.35133	964116
0.35200	965030
0.35267	966080
0.35333	967247
0.35400	968514
0.35467	969865
0.35533	971287
0.35600	972767
0.35667	974294
0.35733	975860
0.35800	977455
0.35867	979072
0.35933	980707
0.36000	982354
0.36067	984008
0.36133	985668
0.36200	987330
0.36267	988990
0.36333	990647
0.36400	992296
0.36467	993935
0.36533	995560
0.36600	997171
0.36667	998765
0.36733	1000341
0.36800	1001897
0.36867	1003435
0.36933	1004956
0.37000	1006463
0.37067	1007956
0.37133	1009440
0.37200	1010915
0.37267	1012386
0.37333	1013854
0.37400	1015324
0.37467	1016797
0.37533	1018278
0.37600	1019768
0.37667	1021268
0.37733	1022780
0.37800	1024303
0.37867	1025837
0.37933	1027382
0.38000	1028940
0.38067	1030512
0.38133	1032101
0.38200	1033711
0.38267	1035347
0.38333	1037017
0.38400	1038730
0.38467	1040496
0.38533	1042323
0.38600	1044217
0.38667	1046181
0.38733	1048218
0.38800	1050325
0.38867	1052501
0.38933	1054742
0.39000	1057042
0.39067	1059395
0.39133	1061795
0.39200	1064232
0.39267	1066699
0.39333	1069186
0.39400	1071686
0.39467	1074188
0.39533	1076686
0.39600	1079170
0.39667	1081633
0.39733	1084068
0.39800	1086468
0.39867	1088824
0.39933	1091131
0.40000	1093379
0.40067	1095555
0.40133	1097647
0.40200	1099636
0.40267	1101504
0.40333	1103232
0.40400	1104796
0.40467	1106173
0.40533	1107339
0.40600	1108269
0.40667	1108941
0.40733	1109334
0.40800	1109426
0.40867	1109195
0.40933	1108617
0.41000	1107668
0.41067	1106320
0.41133	1104550
0.41200	1102331
0.41267	1099640
0.41333	1096454
0.41400	1092751
0.41467	1088513
0.41533	1083721
0.41600	1078362
0.41667	1072424
0.41733	1065902
0.41800	1058795
0.41867	1051108
0.41933	1042854
0.42000	1034050
0.42067	1024720
0.42133	1014889
0.42200	1004586
0.42267	993845
0.42333	982695
0.42400	971172
0.42467	959308
0.42533	947136
0.42600	934689
0.42667	921999
0.42733	909095
0.42800	896008
0.42867	882766
0.42933	869395
0.43000	855922
0.43067	842369
0.43133	828761
0.43200	815117
0.43267	801457
0.43333	787801
0.43400	774165
0.43467	760566
0.43533	747018
0.43600	733536
0.43667	720132
0.43733	706819
0.43800	693607
0.43867	680509
0.43933	667531
0.44000	654684
0.44067	641975
0.44133	629411
0.44200	616997
0.44267	604740
0.44333	592644
0.44400	580713
0.44467	568952
0.44533	557363
0.44600	545949
0.44667	534712
0.44733	523656
0.44800	512781
0.44867	502091
0.44933	491586
0.45000	481269
0.45067	471139
0.45133	461197
0.45200	451444
0.45267	441879
0.45333	432503
0.45400	423315
0.45467	414314
0.45533	405499
0.45600	396869
0.45667	388422
0.45733	380157
0.45800	372073
0.45867	364168
0.45933	356441
0.46000	348890
0.46067	341512
0.46133	334307
0.46200	327273
0.46267	320408
0.46333	313711
0.46400	307180
0.46467	300814
0.46533	294612
0.46600	288572
0.46667	282694
0.46733	276976
0.46800	271416
0.46867	266012
0.46933	260760
0.47000	255658
0.47067	250700
0.47133	245883
0.47200	241205
0.47267	236660
0.47333	232247
0.47400	227961
0.47467	223799
0.47533	219757
0.47600	215831
0.47667	212018
0.47733	208316
0.47800	204719
0.47867	201226
0.47933	197833
0.48000	194536
0.48067	191334
0.48133	188223
0.48200	185200
0.48267	182263
0.48333	179409
0.48400	176635
0.48467	173939
0.48533	171319
0.48600	168772
0.48667	166297
0.48733	163889
0.48800	161548
0.48867	159271
0.48933	157057
0.49000	154902
0.49067	152806
0.49133	150766
0.49200	148780
0.49267	146847
0.49333	144964
0.49400	143130
0.49467	141343
0.49533	139601
0.49600	137904
0.49667	136249
0.49733	134635
0.49800	133061
0.49867	131526
0.49933	130027
0.50000	128565
0.50067	127137
0.50133	125743
0.50200	124381
0.50267	123051
0.50333	121751
0.50400	120480
0.50467	119237
0.50533	118021
0.50600	116831
0.50667	115666
0.50733	114526
0.50800	113409
0.50867	112314
0.50933	111242
0.51000	110190
0.51067	109160
0.51133	108149
0.51200	107157
0.51267	106184
0.51333	105229
0.51400	104291
0.51467	103370
0.51533	102465
0.51600	101576
0.51667	100702
0.51733	99843
0.51800	98998
0.51867	98168
0.51933	97350
0.52000	96546
0.52067	95754
0.52133	94975
0.52200	94208
0.52267	93452
0.52333	92708
0.52400	91974
0.52467	91252
0.52533	90540
0.52600	89837
0.52667	89145
0.52733	88462
0.52800	87788
0.52867	87124
0.52933	86468
0.53000	85821
0.53067	85182
0.53133	84551
0.53200	83928
0.53267	83313
0.53333	82706
0.53400	82105
0.53467	81512
0.53533	80926
0.53600	80347
0.53667	79775
0.53733	79209
0.53800	78650
0.53867	78097
0.53933	77550
0.54000	77010
0.54067	76475
0.54133	75946
0.54200	75423
0.54267	74905
0.54333	74393
0.54400	73887
0.54467	73386
0.54533	72890
0.54600	72399
0.54667	71914
0.54733	71434
0.54800	70959
0.54867	70489
0.54933	70024
0.55000	69564
0.55067	69109
0.55133	68660
0.55200	68215
0.55267	67776
0.55333	67341
0.55400	66912
0.55467	66488
0.55533	66068
0.55600	65653
0.55667	65244
0.55733	64838
0.55800	64438
0.55867	64042
0.55933	63650
0.56000	63263
0.56067	62879
0.56133	62500
0.56200	62125
0.56267	61754
0.56333	61386
0.56400	61021
0.56467	60660
0.56533	60303
0.56600	59949
0.56667	59597
0.56733	59249
0.56800	58904
0.56867	58561
0.56933	58221
0.57000	57884
0.57067	57550
0.57133	57218
0.57200	56889
0.57267	56562
0.57333	56238
0.57400	55916
0.57467	55597
0.57533	55280
0.57600	54965
0.57667	54653
0.57733	54343
0.57800	54035
0.57867	53730
0.57933	53427
0.58000	53125
0.58067	52826
0.58133	52529
0.58200	52234
0.58267	51941
0.58333	51650
0.58400	51361
0.58467	51074
0.58533	50789
0.58600	50506
0.58667	50225
0.58733	49946
0.58800	49669
0.58867	49394
0.58933	49121
0.59000	48850
0.59067	48581
0.59133	48314
0.59200	48049
0.59267	47787
0.59333	47526
0.59400	47267
0.59467	47010
0.59533	46756
0.59600	46503
0.59667	46253
0.59733	46004
0.59800	45757
0.59867	45513
0.59933	45270
0.60000	45030
0.60067	44791
0.60133	44555
0.60200	44320
0.60267	44087
0.60333	43857
0.60400	43628
0.60467	43402
0.60533	43177
0.60600	42955
0.60667	42734
0.60733	42516
0.60800	42299
0.60867	42085
0.60933	41872
0.61000	41662
0.61067	41453
0.61133	41247
0.61200	41043
0.61267	40840
0.61333	40640
0.61400	40442
0.61467	40246
0.61533	40052
0.61600	39861
0.61667	39671
0.61733	39483
0.61800	39297
0.61867	39113
0.61933	38931
0.62000	38751
0.62067	38572
0.62133	38396
0.62200	38221
0.62267	38047
0.62333	37875
0.62400	37705
0.62467	37536
0.62533	37369
0.62600	37203
0.62667	37038
0.62733	36874
0.62800	36712
0.62867	36551
0.62933	36391
0.63000	36233
0.63067	36075
0.63133	35919
0.63200	35763
0.63267	35609
0.63333	35456
0.63400	35304
0.63467	35153
0.63533	35003
0.63600	34854
0.63667	34707
0.63733	34560
0.63800	34414
0.63867	34270
0.63933	34127
0.64000	33984
0.64067	33843
0.64133	33703
0.64200	33564
0.64267	33426
0.64333	33289
0.64400	33154
0.64467	33019
0.64533	32886
0.64600	32753
0.64667	32622
0.64733	32492
0.64800	32362
0.64867	32234
0.64933	32107
0.65000	31980
0.65067	31855
0.65133	31730
0.65200	31606
0.65267	31483
0.65333	31360
0.65400	31238
0.65467	31117
0.65533	30997
0.65600	30877
0.65667	30758
0.65733	30639
0.65800	30521
0.65867	30404
0.65933	30287
0.66000	30171
0.66067	30055
0.66133	29939
0.66200	29825
0.66267	29710
0.66333	29597
0.66400	29483
0.66467	29371
0.66533	29258
0.66600	29146
0.66667	29035
0.66733	28924
0.66800	28814
0.66867	28704
0.66933	28594
0.67000	28485
0.67067	28377
0.67133	28269
0.67200	28161
0.67267	28054
0.67333	27947
0.67400	27841
0.67467	27735
0.67533	27630
0.67600	27526
0.67667	27422
0.67733	27319
0.67800	27217
0.67867	27115
0.67933	27015
0.68000	26916
0.68067	26817
0.68133	26720
0.68200	26625
0.68267	26531
0.68333	26438
0.68400	26348
0.68467	26259
0.68533	26172
0.68600	26088
0.68667	26007
0.68733	25928
0.68800	25853
0.68867	25780
0.68933	25712
0.69000	25647
0.69067	25586
0.69133	25530
0.69200	25478
0.69267	25430
0.69333	25388
0.69400	25350
0.69467	25318
0.69533	25291
0.69600	25269
0.69667	25253
0.69733	25241
0.69800	25234
0.69867	25232
0.69933	25234
0.70000	25240
0.70067	25250
0.70133	25262
0.70200	25277
0.70267	25294
0.70333	25312
0.70400	25331
0.70467	25350
0.70533	25368
0.70600	25385
0.70667	25401
0.70733	25414
0.70800	25426
0.70867	25434
0.70933	25439
0.71000	25440
0.71067	25438
0.71133	25431
0.71200	25421
0.71267	25405
0.71333	25386
0.71400	25362
0.71467	25334
0.71533	25301
0.71600	25264
0.71667	25223
0.71733	25177
0.71800	25128
0.71867	25075
0.71933	25019
0.72000	24959
0.72067	24896
0.72133	24830
0.72200	24761
0.72267	24689
0.72333	24615
0.72400	24539
0.72467	24460
0.72533	24379
0.72600	24297
0.72667	24213
0.72733	24127
0.72800	24040
0.72867	23952
0.72933	23863
0.73000	23773
0.73067	23681
0.73133	23590
0.73200	23497
0.73267	23404
0.73333	23311
0.73400	23217
0.73467	23123
0.73533	23029
0.73600	22934
0.73667	22840
0.73733	22745
0.73800	22651
0.73867	22557
0.73933	22463
0.74000	22370
0.74067	22276
0.74133	22183
0.74200	22091
0.74267	21998
0.74333	21906
0.74400	21815
0.74467	21724
0.74533	21634
0.74600	21544
0.74667	21455
0.74733	21366
0.74800	21278
0.74867	21190
0.74933	21104
0.75000	21018
0.75067	20932
0.75133	20848
0.75200	20764
0.75267	20680
0.75333	20598
0.75400	20516
0.75467	20435
0.75533	20355
0.75600	20275
0.75667	20196
0.75733	20118
0.75800	20041
0.75867	19965
0.75933	19889
0.76000	19814
0.76067	19740
0.76133	19666
0.76200	19594
0.76267	19522
0.76333	19450
0.76400	19380
0.76467	19310
0.76533	19241
0.76600	19173
0.76667	19106
0.76733	19039
0.76800	18973
0.76867	18907
0.76933	18843
0.77000	18779
0.77067	18715
0.77133	18653
0.77200	18591
0.77267	18529
0.77333	18469
0.77400	18409
0.77467	18349
0.77533	18291
0.77600	18233
0.77667	18175
0.77733	18118
0.77800	18062
0.77867	18006
0.77933	17951
0.78000	17897
0.78067	17843
0.78133	17789
0.78200	17736
0.78267	17684
0.78333	17633
0.78400	17581
0.78467	17531
0.78533	17481
0.78600	17431
0.78667	17382
0.78733	17333
0.78800	17285
0.78867	17238
0.78933	17190
0.79000	17144
0.79067	17097
0.79133	17052
0.79200	17006
0.79267	16961
0.79333	16917
0.79400	16873
0.79467	16829
0.79533	16785
0.79600	16743
0.79667	16700
0.79733	16658
0.79800	16616
0.79867	16575
0.79933	16534
0.80000	16493
0.80067	16453
0.80133	16413
0.80200	16374
0.80267	16335
0.80333	16296
0.80400	16258
0.80467	16220
0.80533	16182
0.80600	16145
0.80667	16108
0.80733	16071
0.80800	16035
0.80867	15998
0.80933	15963
0.81000	15927
0.81067	15892
0.81133	15857
0.81200	15823
0.81267	15788
0.81333	15755
0.81400	15721
0.81467	15688
0.81533	15655
0.81600	15622
0.81667	15590
0.81733	15558
0.81800	15526
0.81867	15495
0.81933	15464
0.82000	15433
0.82067	15403
0.82133	15372
0.82200	15343
0.82267	15313
0.82333	15283
0.82400	15254
0.82467	15225
0.82533	15197
0.82600	15168
0.82667	15140
0.82733	15112
0.82800	15084
0.82867	15057
0.82933	15029
0.83000	15002
0.83067	14975
0.83133	14948
0.83200	14921
0.83267	14895
0.83333	14868
0.83400	14842
0.83467	14815
0.83533	14789
0.83600	14763
0.83667	14737
0.83733	14712
0.83800	14686
0.83867	14661
0.83933	14635
0.84000	14610
0.84067	14585
0.84133	14560
0.84200	14535
0.84267	14511
0.84333	14486
0.84400	14462
0.84467	14437
0.84533	14413
0.84600	14389
0.84667	14365
0.84733	14340
0.84800	14316
0.84867	14293
0.84933	14269
0.85000	14245
0.85067	14221
0.85133	14197
0.85200	14173
0.85267	14150
0.85333	14126
0.85400	14103
0.85467	14079
0.85533	14056
0.85600	14032
0.85667	14009
0.85733	13986
0.85800	13962
0.85867	13939
0.85933	13916
0.86000	13893
0.86067	13869
0.86133	13846
0.86200	13823
0.86267	13800
0.86333	13777
0.86400	13754
0.86467	13731
0.86533	13708
0.86600	13685
0.86667	13663
0.86733	13640
0.86800	13618
0.86867	13595
0.86933	13573
0.87000	13550
0.87067	13528
0.87133	13506
0.87200	13483
0.87267	13461
0.87333	13439
0.87400	13417
0.87467	13395
0.87533	13374
0.87600	13352
0.87667	13331
0.87733	13309
0.87800	13288
0.87867	13267
0.87933	13245
0.88000	13224
0.88067	13203
0.88133	13183
0.88200	13162
0.88267	13141
0.88333	13121
0.88400	13100
0.88467	13080
0.88533	13060
0.88600	13040
0.88667	13020
0.88733	13000
0.88800	12981
0.88867	12961
0.88933	12942
0.89000	12923
0.89067	12904
0.89133	12885
0.89200	12866
0.89267	12847
0.89333	12828
0.89400	12810
0.89467	12791
0.89533	12773
0.89600	12755
0.89667	12736
0.89733	12718
0.89800	12700
0.89867	12682
0.89933	12664
0.90000	12646
0.90067	12629
0.90133	12611
0.90200	12593
0.90267	12576
0.90333	12558
0.90400	12541
0.90467	12524
0.90533	12506
0.90600	12489
0.90667	12472
0.90733	12455
0.90800	12438
0.90867	12421
0.90933	12405
0.91000	12388
0.91067	12371
0.91133	12354
0.91200	12338
0.91267	12321
0.91333	12305
0.91400	12289
0.91467	12272
0.91533	12256
0.91600	12240
0.91667	12224
0.91733	12208
0.91800	12192
0.91867	12176
0.91933	12161
0.92000	12145
0.92067	12129
0.92133	12114
0.92200	12098
0.92267	12083
0.92333	12067
0.92400	12052
0.92467	12037
0.92533	12021
0.92600	12006
0.92667	11991
0.92733	11976
0.92800	11961
0.92867	11946
0.92933	11931
0.93000	11916
0.93067	11902
0.93133	11887
0.93200	11873
0.93267	11858
0.93333	11844
0.93400	11830
0.93467	11815
0.93533	11801
0.93600	11787
0.93667	11773
0.93733	11759
0.93800	11746
0.93867	11732
0.93933	11718
0.94000	11705
0.94067	11691
0.94133	11677
0.94200	11664
0.94267	11650
0.94333	11637
0.94400	11623
0.94467	11609
0.94533	11596
0.94600	11583
0.94667	11569
0.94733	11556
0.94800	11542
0.94867	11529
0.94933	11515
0.95000	11502
0.95067	11489
0.95133	11475
0.95200	11462
0.95267	11449
0.95333	11435
0.95400	11422
0.95467	11409
0.95533	11395
0.95600	11382
0.95667	11369
0.95733	11356
0.95800	11343
0.95867	11330
0.95933	11317
0.96000	11305
0.96067	11292
0.96133	11279
0.96200	11267
0.96267	11255
0.96333	11242
0.96400	11230
0.96467	11218
0.96533	11206
0.96600	11194
0.96667	11182
0.96733	11170
0.96800	11158
0.96867	11147
0.96933	11135
0.97000	11123
0.97067	11112
0.97133	11100
0.97200	11088
0.97267	11076
0.97333	11065
0.97400	11053
0.97467	11041
0.97533	11029
0.97600	11017
0.97667	11005
0.97733	10993
0.97800	10981
0.97867	10969
0.97933	10957
0.98000	10945
0.98067	10932
0.98133	10920
0.98200	10908
0.98267	10896
0.98333	10884
0.98400	10871
0.98467	10859
0.98533	10847
0.98600	10835
0.98667	10822
0.98733	10810
0.98800	10797
0.98867	10785
0.98933	10772
0.99000	10760
0.99067	10748
0.99133	10735
0.99200	10723
0.99267	10710
0.99333	10698
0.99400	10686
0.99467	10673
0.99533	10661
0.99600	10649
0.99667	10636
0.99733	10624
0.99800	10612
0.99867	10600
0.99933	10587
1.00000	10575
1.00067	10563
1.00133	10551
1.00200	10539
1.00267	10527
1.00333	10515
1.00400	10503
1.00467	10491
1.00533	10479
1.00600	10468
1.00667	10456
1.00733	10444
1.00800	10433
1.00867	10422
1.00933	10410
1.01000	10399
1.01067	10388
1.01133	10377
1.01200	10366
1.01267	10356
1.01333	10345
1.01400	10335
1.01467	10325
1.01533	10315
1.01600	10305
1.01667	10295
1.01733	10286
1.01800	10277
1.01867	10268
1.01933	10260
1.02000	10252
1.02067	10244
1.02133	10236
1.02200	10229
1.02267	10222
1.02333	10215
1.02400	10209
1.02467	10202
1.02533	10196
1.02600	10191
1.02667	10185
1.02733	10180
1.02800	10174
1.02867	10169
1.02933	10164
1.03000	10159
1.03067	10154
1.03133	10150
1.03200	10145
1.03267	10140
1.03333	10135
1.03400	10131
1.03467	10126
1.03533	10121
1.03600	10116
1.03667	10111
1.03733	10105
1.03800	10100
1.03867	10094
1.03933	10089
1.04000	10083
1.04067	10077
1.04133	10071
1.04200	10064
1.04267	10058
1.04333	10051
1.04400	10044
1.04467	10037
1.04533	10030
1.04600	10022
1.04667	10015
1.04733	10007
1.04800	9999
1.04867	9991
1.04933	9983
1.05000	9975
1.05067	9966
1.05133	9957
1.05200	9949
1.05267	9940
1.05333	9931
1.05400	9922
1.05467	9913
1.05533	9903
1.05600	9894
1.05667	9884
1.05733	9875
1.05800	9865
1.05867	9855
1.05933	9845
1.06000	9835
1.06067	9825
1.06133	9815
1.06200	9805
1.06267	9795
1.06333	9785
1.06400	9775
1.06467	9765
1.06533	9754
1.06600	9744
1.06667	9734
1.06733	9723
1.06800	9713
1.06867	9703
1.06933	9692
1.07000	9682
1.07067	9672
1.07133	9661
1.07200	9651
1.07267	9640
1.07333	9630
1.07400	9619
1.07467	9609
1.07533	9598
1.07600	9588
1.07667	9578
1.07733	9567
1.07800	9557
1.07867	9547
1.07933	9536
1.08000	9526
1.08067	9516
1.08133	9506
1.08200	9496
1.08267	9486
1.08333	9476
1.08400	9466
1.08467	9456
1.08533	9446
1.08600	9436
1.08667	9426
1.08733	9417
1.08800	9407
1.08867	9397
1.08933	9388
1.09000	9378
1.09067	9369
1.09133	9359
1.09200	9349
1.09267	9340
1.09333	9330
1.09400	9321
1.09467	9311
1.09533	9302
1.09600	9292
1.09667	9283
1.09733	9274
1.09800	9264
1.09867	9255
1.09933	9246
1.10000	9237
1.10067	9227
1.10133	9218
1.10200	9209
1.10267	9200
1.10333	9191
1.10400	9182
1.10467	9173
1.10533	9164
1.10600	9155
1.10667	9146
1.10733	9138
1.10800	9129
1.10867	9120
1.10933	9112
1.11000	9103
1.11067	9094
1.11133	9086
1.11200	9077
1.11267	9069
1.11333	9061
1.11400	9052
1.11467	9044
1.11533	9036
1.11600	9028
1.11667	9020
1.11733	9012
1.11800	9004
1.11867	8997
1.11933	8989
1.12000	8981
1.12067	8974
1.12133	8967
1.12200	8959
1.12267	8952
1.12333	8945
1.12400	8939
1.12467	8932
1.12533	8926
1.12600	8919
1.12667	8913
1.12733	8907
1.12800	8902
1.12867	8896
1.12933	8891
1.13000	8886
1.13067	8882
1.13133	8877
1.13200	8873
1.13267	8869
1.13333	8866
1.13400	8862
1.13467	8859
1.13533	8856
1.13600	8854
1.13667	8852
1.13733	8850
1.13800	8849
1.13867	8847
1.13933	8846
1.14000	8845
1.14067	8844
1.14133	8844
1.14200	8843
1.14267	8843
1.14333	8842
1.14400	8841
1.14467	8841
1.14533	8840
1.14600	8840
1.14667	8839
1.14733	8839
1.14800	8838
1.14867	8837
1.14933	8836
1.15000	8834
1.15067	8833
1.15133	8831
1.15200	8829
1.15267	8827
1.15333	8825
1.15400	8822
1.15467	8819
1.15533	8816
1.15600	8813
1.15667	8809
1.15733	8805
1.15800	8801
1.15867	8797
1.15933	8793
1.16000	8788
1.16067	8783
1.16133	8779
1.16200	8773
1.16267	8768
1.16333	8763
1.16400	8757
1.16467	8751
1.16533	8745
1.16600	8739
1.16667	8733
1.16733	8727
1.16800	8720
1.16867	8714
1.16933	8707
1.17000	8700
1.17067	8693
1.17133	8687
1.17200	8680
1.17267	8672
1.17333	8665
1.17400	8658
1.17467	8651
1.17533	8643
1.17600	8636
1.17667	8629
1.17733	8621
1.17800	8614
1.17867	8607
1.17933	8599
1.18000	8592
1.18067	8584
1.18133	8577
1.18200	8570
1.18267	8562
1.18333	8555
1.18400	8548
1.18467	8541
1.18533	8533
1.18600	8526
1.18667	8519
1.18733	8512
1.18800	8505
1.18867	8498
1.18933	8491
1.19000	8484
1.19067	8477
1.19133	8471
1.19200	8464
1.19267	8457
1.19333	8451
1.19400	8444
1.19467	8438
1.19533	8432
1.19600	8425
1.19667	8419
1.19733	8413
1.19800	8407
1.19867	8401
1.19933	8396
1.20000	8390
1.20067	8384
1.20133	8379
1.20200	8373
1.20267	8368
1.20333	8363
1.20400	8357
1.20467	8352
1.20533	8347
1.20600	8342
1.20667	8338
1.20733	8333
1.20800	8328
1.20867	8324
1.20933	8319
1.21000	8315
1.21067	8311
1.21133	8306
1.21200	8302
1.21267	8298
1.21333	8294
1.21400	8290
1.21467	8287
1.21533	8283
1.21600	8280
1.21667	8276
1.21733	8273
1.21800	8269
1.21867	8266
1.21933	8263
1.22000	8259
1.22067	8256
1.22133	8253
1.22200	8250
1.22267	8247
1.22333	8244
1.22400	8241
1.22467	8238
1.22533	8235
1.22600	8233
1.22667	8230
1.22733	8227
1.22800	8224
1.22867	8222
1.22933	8219
1.23000	8216
1.23067	8214
1.23133	8211
1.23200	8208
1.23267	8206
1.23333	8203
1.23400	8201
1.23467	8199
1.23533	8196
1.23600	8194
1.23667	8191
1.23733	8189
1.23800	8187
1.23867	8185
1.23933	8182
1.24000	8180
1.24067	8178
1.24133	8175
1.24200	8173
1.24267	8171
1.24333	8168
1.24400	8166
1.24467	8164
1.24533	8162
1.24600	8160
1.24667	8158
1.24733	8155
1.24800	8153
1.24867	8151
1.24933	8149
1.25000	8147
1.25067	8145
1.25133	8143
1.25200	8141
1.25267	8139
1.25333	8137
1.25400	8136
1.25467	8134
1.25533	8132
1.25600	8130
1.25667	8129
1.25733	8127
1.25800	8125
1.25867	8124
1.25933	8123
1.26000	8121
1.26067	8120
1.26133	8119
1.26200	8118
1.26267	8117
1.26333	8116
1.26400	8115
1.26467	8115
1.26533	8115
1.26600	8114
1.26667	8114
1.26733	8114
1.26800	8114
1.26867	8114
1.26933	8115
1.27000	8115
1.27067	8116
1.27133	8117
1.27200	8118
1.27267	8119
1.27333	8120
1.27400	8122
1.27467	8124
1.27533	8126
1.27600	8128
1.27667	8131
1.27733	8134
1.27800	8137
1.27867	8140
1.27933	8143
1.28000	8147
1.28067	8151
1.28133	8155
1.28200	8159
1.28267	8164
1.28333	8168
1.28400	8173
1.28467	8178
1.28533	8182
1.28600	8187
1.28667	8192
1.28733	8197
1.28800	8202
1.28867	8207
1.28933	8212
1.29000	8216
1.29067	8221
1.29133	8225
1.29200	8229
1.29267	8233
1.29333	8237
1.29400	8241
1.29467	8245
1.29533	8248
1.29600	8251
1.29667	8254
1.29733	8256
1.29800	8258
1.29867	8260
1.29933	8262
1.30000	8263
1.30067	8264
1.30133	8265
1.30200	8265
1.30267	8265
1.30333	8265
1.30400	8265
1.30467	8264
1.30533	8263
1.30600	8261
1.30667	8260
1.30733	8258
1.30800	8256
1.30867	8254
1.30933	8251
1.31000	8248
1.31067	8245
1.31133	8242
1.31200	8239
1.31267	8235
1.31333	8232
1.31400	8228
1.31467	8224
1.31533	8219
1.31600	8215
1.31667	8210
1.31733	8206
1.31800	8201
1.31867	8196
1.31933	8191
1.32000	8186
1.32067	8180
1.32133	8175
1.32200	8169
1.32267	8164
1.32333	8158
1.32400	8152
1.32467	8146
1.32533	8140
1.32600	8134
1.32667	8127
1.32733	8121
1.32800	8114
1.32867	8108
1.32933	8101
1.33000	8094
1.33067	8087
1.33133	8080
1.33200	8073
1.33267	8066
1.33333	8058
1.33400	8051
1.33467	8043
1.33533	8036
1.33600	8028
1.33667	8021
1.33733	8013
1.33800	8005
1.33867	7997
1.33933	7989
1.34000	7981
1.34067	7974
1.34133	7966
1.34200	7958
1.34267	7950
1.34333	7942
1.34400	7934
1.34467	7926
1.34533	7918
1.34600	7910
1.34667	7902
1.34733	7894
1.34800	7887
1.34867	7879
1.34933	7871
1.35000	7863
1.35067	7856
1.35133	7848
1.35200	7840
1.35267	7833
1.35333	7825
1.35400	7818
1.35467	7810
1.35533	7803
1.35600	7796
1.35667	7789
1.35733	7782
1.35800	7774
1.35867	7767
1.35933	7761
1.36000	7754
1.36067	7747
1.36133	7740
1.36200	7734
1.36267	7727
1.36333	7721
1.36400	7714
1.36467	7708
1.36533	7702
1.36600	7695
1.36667	7689
1.36733	7683
1.36800	7677
1.36867	7672
1.36933	7666
1.37000	7660
1.37067	7655
1.37133	7649
1.37200	7644
1.37267	7639
1.37333	7634
1.37400	7629
1.37467	7624
1.37533	7619
1.37600	7614
1.37667	7609
1.37733	7604
1.37800	7599
1.37867	7595
1.37933	7590
1.38000	7586
1.38067	7581
1.38133	7576
1.38200	7572
1.38267	7567
1.38333	7563
1.38400	7558
1.38467	7554
1.38533	7550
1.38600	7545
1.38667	7541
1.38733	7537
1.38800	7532
1.38867	7528
1.38933	7523
1.39000	7519
1.39067	7515
1.39133	7511
1.39200	7506
1.39267	7502
1.39333	7498
1.39400	7494
1.39467	7490
1.39533	7485
1.39600	7481
1.39667	7477
1.39733	7473
1.39800	7469
1.39867	7465
1.39933	7461
1.40000	7457
1.40067	7453
1.40133	7449
1.40200	7445
1.40267	7441
1.40333	7437
1.40400	7433
1.40467	7429
1.40533	7425
1.40600	7421
1.40667	7417
1.40733	7413
1.40800	7409
1.40867	7405
1.40933	7401
1.41000	7397
1.41067	7393
1.41133	7389
1.41200	7385
1.41267	7381
1.41333	7377
1.41400	7373
1.41467	7369
1.41533	7365
1.41600	7361
1.41667	7357
1.41733	7354
1.41800	7350
1.41867	7346
1.41933	7343
1.42000	7339
1.42067	7336
1.42133	7332
1.42200	7329
1.42267	7325
1.42333	7322
1.42400	7319
1.42467	7315
1.42533	7312
1.42600	7309
1.42667	7305
1.42733	7302
1.42800	7299
1.42867	7295
1.42933	7292
1.43000	7289
1.43067	7286
1.43133	7283
1.43200	7280
1.43267	7276
1.43333	7273
1.43400	7270
1.43467	7267
1.43533	7265
1.43600	7262
1.43667	7259
1.43733	7256
1.43800	7253
1.43867	7251
1.43933	7248
1.44000	7245
1.44067	7242
1.44133	7240
1.44200	7237
1.44267	7234
1.44333	7232
1.44400	7229
1.44467	7227
1.44533	7224
1.44600	7222
1.44667	7219
1.44733	7216
1.44800	7214
1.44867	7211
1.44933	7209
1.45000	7206
1.45067	7204
1.45133	7201
1.45200	7198
1.45267	7196
1.45333	7193
1.45400	7191
1.45467	7188
1.45533	7186
1.45600	7183
1.45667	7181
1.45733	7178
1.45800	7176
1.45867	7173
1.45933	7171
1.46000	7168
1.46067	7166
1.46133	7163
1.46200	7161
1.46267	7158
1.46333	7156
1.46400	7154
1.46467	7151
1.46533	7149
1.46600	7146
1.46667	7144
1.46733	7141
1.46800	7139
1.46867	7137
1.46933	7134
1.47000	7132
1.47067	7130
1.47133	7127
1.47200	7125
1.47267	7123
1.47333	7121
1.47400	7118
1.47467	7116
1.47533	7114
1.47600	7112
1.47667	7110
1.47733	7108
1.47800	7105
1.47867	7103
1.47933	7101
1.48000	7099
1.48067	7097
1.48133	7095
1.48200	7093
1.48267	7091
1.48333	7088
1.48400	7086
1.48467	7084
1.48533	7082
1.48600	7080
1.48667	7078
1.48733	7076
1.48800	7074
1.48867	7072
1.48933	7070
1.49000	7068
1.49067	7066
1.49133	7064
1.49200	7062
1.49267	7059
1.49333	7057
1.49400	7055
1.49467	7053
1.49533	7051
1.49600	7049
1.49667	7046
1.49733	7044
1.49800	7042
1.49867	7039
1.49933	7037
1.50000	7035
1.50067	7033
1.50133	7030
1.50200	7028
1.50267	7026
1.50333	7023
1.50400	7021
1.50467	7018
1.50533	7016
1.50600	7014
1.50667	7011
1.50733	7009
1.50800	7006
1.50867	7004
1.50933	7001
1.51000	6999
1.51067	6996
1.51133	6993
1.51200	6991
1.51267	6988
1.51333	6986
1.51400	6983
1.51467	6980
1.51533	6978
1.51600	6975
1.51667	6972
1.51733	6969
1.51800	6967
1.51867	6964
1.51933	6961
1.52000	6959
1.52067	6956
1.52133	6953
1.52200	6950
1.52267	6948
1.52333	6945
1.52400	6942
1.52467	6939
1.52533	6936
1.52600	6934
1.52667	6931
1.52733	6928
1.52800	6925
1.52867	6923
1.52933	6920
1.53000	6917
1.53067	6914
1.53133	6912
1.53200	6909
1.53267	6907
1.53333	6904
1.53400	6902
1.53467	6899
1.53533	6897
1.53600	6895
1.53667	6892
1.53733	6890
1.53800	6888
1.53867	6886
1.53933	6883
1.54000	6881
1.54067	6879
1.54133	6877
1.54200	6875
1.54267	6873
1.54333	6871
1.54400	6869
1.54467	6867
1.54533	6865
1.54600	6863
1.54667	6861
1.54733	6859
1.54800	6857
1.54867	6855
1.54933	6852
1.55000	6850
1.55067	6848
1.55133	6846
1.55200	6844
1.55267	6842
1.55333	6840
1.55400	6838
1.55467	6836
1.55533	6834
1.55600	6832
1.55667	6830
1.55733	6828
1.55800	6826
1.55867	6824
1.55933	6821
1.56000	6819
1.56067	6817
1.56133	6815
1.56200	6813
1.56267	6811
1.56333	6809
1.56400	6806
1.56467	6804
1.56533	6802
1.56600	6800
1.56667	6797
1.56733	6795
1.56800	6793
1.56867	6791
1.56933	6788
1.57000	6786
1.57067	6784
1.57133	6782
1.57200	6780
1.57267	6777
1.57333	6775
1.57400	6773
1.57467	6771
1.57533	6769
1.57600	6767
1.57667	6765
1.57733	6764
1.57800	6762
1.57867	6760
1.57933	6758
1.58000	6757
1.58067	6755
1.58133	6754
1.58200	6752
1.58267	6750
1.58333	6749
1.58400	6747
1.58467	6746
1.58533	6744
1.58600	6743
1.58667	6741
1.58733	6740
1.58800	6738
1.58867	6737
1.58933	6735
1.59000	6734
1.59067	6733
1.59133	6731
1.59200	6730
1.59267	6728
1.59333	6727
1.59400	6725
1.59467	6724
1.59533	6722
1.59600	6721
1.59667	6719
1.59733	6717
1.59800	6716
1.59867	6714
1.59933	6713
1.60000	6711
1.60067	6710
1.60133	6708
1.60200	6706
1.60267	6705
1.60333	6703
1.60400	6701
1.60467	6700
1.60533	6698
1.60600	6696
1.60667	6695
1.60733	6693
1.60800	6691
1.60867	6690
1.60933	6688
1.61000	6686
1.61067	6684
1.61133	6683
1.61200	6681
1.61267	6679
1.61333	6678
1.61400	6676
1.61467	6674
1.61533	6673
1.61600	6671
1.61667	6670
1.61733	6668
1.61800	6667
1.61867	6665
1.61933	6663
1.62000	6662
1.62067	6660
1.62133	6659
1.62200	6658
1.62267	6656
1.62333	6655
1.62400	6654
1.62467	6652
1.62533	6651
1.62600	6650
1.62667	6649
1.62733	6648
1.62800	6647
1.62867	6646
1.62933	6645
1.63000	6644
1.63067	6643
1.63133	6642
1.63200	6641
1.63267	6640
1.63333	6640
1.63400	6639
1.63467	6638
1.63533	6637
1.63600	6636
1.63667	6635
1.63733	6634
1.63800	6633
1.63867	6632
1.63933	6631
1.64000	6630
1.64067	6629
1.64133	6628
1.64200	6627
1.64267	6626
1.64333	6626
1.64400	6625
1.64467	6624
1.64533	6623
1.64600	6622
1.64667	6622
1.64733	6621
1.64800	6620
1.64867	6619
1.64933	6619
1.65000	6618
1.65067	6617
1.65133	6616
1.65200	6616
1.65267	6615
1.65333	6614
1.65400	6613
1.65467	6613
1.65533	6612
1.65600	6611
1.65667	6611
1.65733	6610
1.65800	6609
1.65867	6608
1.65933	6608
1.66000	6607
1.66067	6606
1.66133	6606
1.66200	6605
1.66267	6604
1.66333	6604
1.66400	6603
1.66467	6602
1.66533	6601
1.66600	6600
1.66667	6599
1.66733	6599
1.66800	6598
1.66867	6597
1.66933	6596
1.67000	6595
1.67067	6593
1.67133	6592
1.67200	6591
1.67267	6590
1.67333	6589
1.67400	6587
1.67467	6586
1.67533	6585
1.67600	6583
1.67667	6582
1.67733	6580
1.67800	6579
1.67867	6577
1.67933	6576
1.68000	6574
1.68067	6573
1.68133	6571
1.68200	6570
1.68267	6568
1.68333	6567
1.68400	6565
1.68467	6563
1.68533	6562
1.68600	6560
1.68667	6558
1.68733	6556
1.68800	6554
1.68867	6552
1.68933	6551
1.69000	6549
1.69067	6547
1.69133	6545
1.69200	6543
1.69267	6541
1.69333	6539
1.69400	6537
1.69467	6535
1.69533	6533
1.69600	6531
1.69667	6529
1.69733	6527
1.69800	6525
1.69867	6523
1.69933	6521
1.70000	6519
1.70067	6517
1.70133	6515
1.70200	6513
1.70267	6511
1.70333	6509
1.70400	6507
1.70467	6505
1.70533	6503
1.70600	6501
1.70667	6499
1.70733	6497
1.70800	6495
1.70867	6493
1.70933	6491
1.71000	6489
1.71067	6488
1.71133	6486
1.71200	6485
1.71267	6483
1.71333	6482
1.71400	6481
1.71467	6479
1.71533	6479
1.71600	6478
1.71667	6478
1.71733	6478
1.71800	6479
1.71867	6480
1.71933	6483
1.72000	6486
1.72067	6491
1.72133	6497
1.72200	6505
1.72267	6515
1.72333	6529
1.72400	6545
1.72467	6566
1.72533	6591
1.72600	6623
1.72667	6661
1.72733	6708
1.72800	6764
1.72867	6832
1.72933	6913
1.73000	7010
1.73067	7125
1.73133	7261
1.73200	7420
1.73267	7607
1.73333	7825
1.73400	8078
1.73467	8372
1.73533	8711
1.73600	9102
1.73667	9550
1.73733	10062
1.73800	10646
1.73867	11310
1.73933	12060
1.74000	12906
1.74067	13854
1.74133	14916
1.74200	16100
1.74267	17415
1.74333	18872
1.74400	20480
1.74467	22248
1.74533	24187
1.74600	26307
1.74667	28617
1.74733	31125
1.74800	33839
1.74867	36767
1.74933	39914
1.75000	43285
1.75067	46883
1.75133	50709
1.75200	54764
1.75267	59047
1.75333	63556
1.75400	68288
1.75467	73240
1.75533	78406
1.75600	83781
1.75667	89357
1.75733	95124
1.75800	101071
1.75867	107181
1.75933	113437
1.76000	119818
1.76067	126303
1.76133	132868
1.76200	139489
1.76267	146141
1.76333	152797
1.76400	159432
1.76467	166019
1.76533	172531
1.76600	178941
1.76667	185220
1.76733	191340
1.76800	197273
1.76867	202997
1.76933	208488
1.77000	213725
1.77067	218691
1.77133	223369
1.77200	227746
1.77267	231811
1.77333	235556
1.77400	238973
1.77467	242058
1.77533	244809
1.77600	247227
1.77667	249313
1.77733	251071
1.77800	252506
1.77867	253624
1.77933	254433
1.78000	254943
1.78067	255161
1.78133	255100
1.78200	254771
1.78267	254186
1.78333	253358
1.78400	252299
1.78467	251023
1.78533	249541
1.78600	247867
1.78667	246013
1.78733	243992
1.78800	241815
1.78867	239495
1.78933	237042
1.79000	234468
1.79067	231785
1.79133	229001
1.79200	226126
1.79267	223172
1.79333	220145
1.79400	217055
1.79467	213910
1.79533	210718
1.79600	207485
1.79667	204219
1.79733	200926
1.79800	197612
1.79867	194283
1.79933	190944
1.80000	187600
1.80067	184255
1.80133	180915
1.80200	177582
1.80267	174261
1.80333	170955
1.80400	167668
1.80467	164402
1.80533	161160
1.80600	157944
1.80667	154757
1.80733	151602
1.80800	148479
1.80867	145391
1.80933	142339
1.81000	139325
1.81067	136350
1.81133	133415
1.81200	130521
1.81267	127669
1.81333	124860
1.81400	122094
1.81467	119372
1.81533	116695
1.81600	114062
1.81667	111474
1.81733	108932
1.81800	106435
1.81867	103983
1.81933	101577
1.82000	99216
1.82067	96901
1.82133	94631
1.82200	92405
1.82267	90225
1.82333	88089
1.82400	85997
1.82467	83948
1.82533	81943
1.82600	79981
1.82667	78061
1.82733	76183
1.82800	74347
1.82867	72551
1.82933	70797
1.83000	69082
1.83067	67406
1.83133	65769
1.83200	64170
1.83267	62608
1.83333	61084
1.83400	59595
1.83467	58143
1.83533	56725
1.83600	55342
1.83667	53993
1.83733	52677
1.83800	51394
1.83867	50143
1.83933	48923
1.84000	47734
1.84067	46575
1.84133	45446
1.84200	44346
1.84267	43274
1.84333	42230
1.84400	41213
1.84467	40222
1.84533	39258
1.84600	38319
1.84667	37405
1.84733	36515
1.84800	35649
1.84867	34806
1.84933	33986
1.85000	33188
1.85067	32412
1.85133	31657
1.85200	30922
1.85267	30207
1.85333	29513
1.85400	28837
1.85467	28180
1.85533	27541
1.85600	26921
1.85667	26317
1.85733	25730
1.85800	25160
1.85867	24606
1.85933	24067
1.86000	23543
1.86067	23035
1.86133	22540
1.86200	22060
1.86267	21593
1.86333	21140
1.86400	20699
1.86467	20271
1.86533	19855
1.86600	19451
1.86667	19059
1.86733	18678
1.86800	18308
1.86867	17948
1.86933	17599
1.87000	17260
1.87067	16931
1.87133	16611
1.87200	16301
1.87267	15999
1.87333	15707
1.87400	15423
1.87467	15147
1.87533	14879
1.87600	14619
1.87667	14366
1.87733	14121
1.87800	13883
1.87867	13652
1.87933	13428
1.88000	13210
1.88067	12998
1.88133	12793
1.88200	12594
1.88267	12400
1.88333	12213
1.88400	12030
1.88467	11854
1.88533	11682
1.88600	11515
1.88667	11354
1.88733	11197
1.88800	11045
1.88867	10897
1.88933	10754
1.89000	10614
1.89067	10479
1.89133	10348
1.89200	10221
1.89267	10098
1.89333	9978
1.89400	9862
1.89467	9750
1.89533	9640
1.89600	9534
1.89667	9432
1.89733	9332
1.89800	9235
1.89867	9141
1.89933	9050
1.90000	8961
1.90067	8875
1.90133	8792
1.90200	8711
1.90267	8633
1.90333	8556
1.90400	8482
1.90467	8410
1.90533	8341
1.90600	8273
1.90667	8207
1.90733	8143
1.90800	8081
1.90867	8021
1.90933	7962
1.91000	7905
1.91067	7850
1.91133	7796
1.91200	7743
1.91267	7692
1.91333	7643
1.91400	7595
1.91467	7548
1.91533	7502
1.91600	7458
1.91667	7414
1.91733	7372
1.91800	7331
1.91867	7291
1.91933	7252
1.92000	7214
1.92067	7177
1.92133	7141
1.92200	7106
1.92267	7072
1.92333	7039
1.92400	7006
1.92467	6975
1.92533	6944
1.92600	6914
1.92667	6884
1.92733	6856
1.92800	6828
1.92867	6801
1.92933	6774
1.93000	6748
1.93067	6723
1.93133	6698
1.93200	6674
1.93267	6650
1.93333	6628
1.93400	6605
1.93467	6583
1.93533	6562
1.93600	6541
1.93667	6521
1.93733	6501
1.93800	6482
1.93867	6463
1.93933	6444
1.94000	6426
1.94067	6409
1.94133	6392
1.94200	6375
1.94267	6359
1.94333	6343
1.94400	6328
1.94467	6313
1.94533	6298
1.94600	6284
1.94667	6270
1.94733	6256
1.94800	6243
1.94867	6230
1.94933	6217
1.95000	6205
1.95067	6193
1.95133	6181
1.95200	6170
1.95267	6159
1.95333	6148
1.95400	6137
1.95467	6127
1.95533	6116
1.95600	6106
1.95667	6096
1.95733	6087
1.95800	6077
1.95867	6068
1.95933	6059
1.96000	6050
1.96067	6041
1.96133	6033
1.96200	6024
1.96267	6016
1.96333	6008
1.96400	6000
1.96467	5992
1.96533	5985
1.96600	5977
1.96667	5970
1.96733	5963
1.96800	5956
1.96867	5949
1.96933	5942
1.97000	5935
1.97067	5929
1.97133	5922
1.97200	5916
1.97267	5909
1.97333	5903
1.97400	5897
1.97467	5891
1.97533	5885
1.97600	5879
1.97667	5874
1.97733	5868
1.97800	5862
1.97867	5857
1.97933	5851
1.98000	5846
1.98067	5840
1.98133	5835
1.98200	5830
1.98267	5825
1.98333	5820
1.98400	5815
1.98467	5811
1.98533	5806
1.98600	5801
1.98667	5796
1.98733	5792
1.98800	5787
1.98867	5783
1.98933	5778
1.99000	5774
1.99067	5770
1.99133	5765
1.99200	5761
1.99267	5757
1.99333	5753
1.99400	5749
1.99467	5746
1.99533	5742
1.99600	5738
1.99667	5734
1.99733	5731
1.99800	5727
1.99867	5723
1.99933	5720
2.00000	5716
2.00067	5713
2.00133	5709
2.00200	5706
2.00267	5702
2.00333	5699
2.00400	5695
2.00467	5692
2.00533	5688
2.00600	5684
2.00667	5681
2.00733	5677
2.00800	5674
2.00867	5670
2.00933	5667
2.01000	5663
2.01067	5659
2.01133	5656
2.01200	5652
2.01267	5648
2.01333	5644
2.01400	5641
2.01467	5637
2.01533	5633
2.01600	5629
2.01667	5625
2.01733	5622
2.01800	5618
2.01867	5614
2.01933	5610
2.02000	5606
2.02067	5603
2.02133	5599
2.02200	5595
2.02267	5592
2.02333	5588
2.02400	5584
2.02467	5581
2.02533	5577
2.02600	5574
2.02667	5570
2.02733	5567
2.02800	5564
2.02867	5561
2.02933	5557
2.03000	5554
2.03067	5551
2.03133	5548
2.03200	5545
2.03267	5542
2.03333	5539
2.03400	5535
2.03467	5532
2.03533	5530
2.03600	5527
2.03667	5524
2.03733	5521
2.03800	5518
2.03867	5515
2.03933	5512
2.04000	5509
2.04067	5507
2.04133	5504
2.04200	5501
2.04267	5498
2.04333	5496
2.04400	5493
2.04467	5490
2.04533	5488
2.04600	5485
2.04667	5482
2.04733	5480
2.04800	5477
2.04867	5475
2.04933	5472
2.05000	5470
2.05067	5467
2.05133	5465
2.05200	5463
2.05267	5460
2.05333	5458
2.05400	5456
2.05467	5454
2.05533	5451
2.05600	5449
2.05667	5447
2.05733	5444
2.05800	5442
2.05867	5440
2.05933	5438
2.06000	5435
2.06067	5433
2.06133	5431
2.06200	5428
2.06267	5426
2.06333	5424
2.06400	5421
2.06467	5419
2.06533	5417
2.06600	5414
2.06667	5412
2.06733	5410
2.06800	5407
2.06867	5405
2.06933	5403
2.07000	5401
2.07067	5398
2.07133	5396
2.07200	5394
2.07267	5392
2.07333	5390
2.07400	5388
2.07467	5385
2.07533	5383
2.07600	5381
2.07667	5379
2.07733	5376
2.07800	5374
2.07867	5372
2.07933	5370
2.08000	5368
2.08067	5365
2.08133	5363
2.08200	5361
2.08267	5359
2.08333	5357
2.08400	5355
2.08467	5352
2.08533	5350
2.08600	5348
2.08667	5346
2.08733	5343
2.08800	5341
2.08867	5339
2.08933	5337
2.09000	5335
2.09067	5332
2.09133	5330
2.09200	5328
2.09267	5326
2.09333	5324
2.09400	5322
2.09467	5319
2.09533	5317
2.09600	5315
2.09667	5313
2.09733	5311
2.09800	5309
2.09867	5307
2.09933	5304
2.10000	5302
2.10067	5300
2.10133	5298
2.10200	5296
2.10267	5294
2.10333	5292
2.10400	5290
2.10467	5288
2.10533	5286
2.10600	5284
2.10667	5282
2.10733	5280
2.10800	5278
2.10867	5276
2.10933	5275
2.11000	5273
2.11067	5271
2.11133	5269
2.11200	5267
2.11267	5265
2.11333	5263
2.11400	5261
2.11467	5259
2.11533	5257
2.11600	5255
2.11667	5252
2.11733	5250
2.11800	5248
2.11867	5246
2.11933	5244
2.12000	5242
2.12067	5240
2.12133	5238
2.12200	5236
2.12267	5234
2.12333	5232
2.12400	5230
2.12467	5228
2.12533	5226
2.12600	5224
2.12667	5222
2.12733	5220
2.12800	5218
2.12867	5216
2.12933	5214
2.13000	5213
2.13067	5211
2.13133	5209
2.13200	5207
2.13267	5205
2.13333	5203
2.13400	5201
2.13467	5199
2.13533	5197
2.13600	5195
2.13667	5193
2.13733	5191
2.13800	5190
2.13867	5188
2.13933	5186
2.14000	5184
2.14067	5182
2.14133	5180
2.14200	5178
2.14267	5176
2.14333	5174
2.14400	5172
2.14467	5170
2.14533	5168
2.14600	5166
2.14667	5164
2.14733	5162
2.14800	5161
2.14867	5159
2.14933	5157
2.15000	5155
2.15067	5153
2.15133	5151
2.15200	5149
2.15267	5147
2.15333	5146
2.15400	5144
2.15467	5142
2.15533	5140
2.15600	5138
2.15667	5136
2.15733	5135
2.15800	5133
2.15867	5131
2.15933	5129
2.16000	5128
2.16067	5126
2.16133	5124
2.16200	5123
2.16267	5121
2.16333	5119
2.16400	5118
2.16467	5116
2.16533	5114
2.16600	5113
2.16667	5111
2.16733	5109
2.16800	5108
2.16867	5106
2.16933	5104
2.17000	5103
2.17067	5101
2.17133	5099
2.17200	5098
2.17267	5096
2.17333	5094
2.17400	5093
2.17467	5091
2.17533	5089
2.17600	5088
2.17667	5086
2.17733	5084
2.17800	5083
2.17867	5081
2.17933	5079
2.18000	5078
2.18067	5076
2.18133	5074
2.18200	5073
2.18267	5071
2.18333	5070
2.18400	5068
2.18467	5067
2.18533	5065
2.18600	5064
2.18667	5062
2.18733	5061
2.18800	5059
2.18867	5058
2.18933	5056
2.19000	5055
2.19067	5053
2.19133	5052
2.19200	5050
2.19267	5049
2.19333	5047
2.19400	5046
2.19467	5045
2.19533	5043
2.19600	5042
2.19667	5040
2.19733	5039
2.19800	5037
2.19867	5036
2.19933	5034
2.20000	5033
2.20067	5032
2.20133	5030
2.20200	5029
2.20267	5028
2.20333	5026
2.20400	5025
2.20467	5024
2.20533	5023
2.20600	5022
2.20667	5021
2.20733	5020
2.20800	5020
2.20867	5019
2.20933	5018
2.21000	5017
2.21067	5017
2.21133	5016
2.21200	5016
2.21267	5015
2.21333	5015
2.21400	5014
2.21467	5014
2.21533	5014
2.21600	5013
2.21667	5013
2.21733	5013
2.21800	5012
2.21867	5012
2.21933	5012
2.22000	5012
2.22067	5011
2.22133	5011
2.22200	5011
2.22267	5011
2.22333	5011
2.22400	5011
2.22467	5010
2.22533	5010
2.22600	5010
2.22667	5010
2.22733	5010
2.22800	5010
2.22867	5010
2.22933	5010
2.23000	5009
2.23067	5009
2.23133	5009
2.23200	5009
2.23267	5008
2.23333	5008
2.23400	5008
2.23467	5007
2.23533	5007
2.23600	5007
2.23667	5006
2.23733	5006
2.23800	5006
2.23867	5005
2.23933	5005
2.24000	5005
2.24067	5004
2.24133	5004
2.24200	5004
2.24267	5003
2.24333	5003
2.24400	5002
2.24467	5002
2.24533	5002
2.24600	5001
2.24667	5001
2.24733	5000
2.24800	5000
2.24867	5000
2.24933	4999
2.25000	4999
2.25067	4998
2.25133	4998
2.25200	4998
2.25267	4997
2.25333	4997
2.25400	4996
2.25467	4996
2.25533	4995
2.25600	4995
2.25667	4994
2.25733	4994
2.25800	4993
2.25867	4993
2.25933	4992
2.26000	4992
2.26067	4991
2.26133	4990
2.26200	4990
2.26267	4989
2.26333	4988
2.26400	4987
2.26467	4986
2.26533	4985
2.26600	4984
2.26667	4983
2.26733	4982
2.26800	4981
2.26867	4980
2.26933	4979
2.27000	4978
2.27067	4976
2.27133	4975
2.27200	4974
2.27267	4973
2.27333	4971
2.27400	4970
2.27467	4969
2.27533	4967
2.27600	4966
2.27667	4965
2.27733	4963
2.27800	4962
2.27867	4960
2.27933	4959
2.28000	4957
2.28067	4956
2.28133	4954
2.28200	4953
2.28267	4951
2.28333	4950
2.28400	4948
2.28467	4946
2.28533	4945
2.28600	4943
2.28667	4942
2.28733	4940
2.28800	4938
2.28867	4937
2.28933	4935
2.29000	4934
2.29067	4932
2.29133	4931
2.29200	4929
2.29267	4928
2.29333	4926
2.29400	4925
2.29467	4923
2.29533	4922
2.29600	4920
2.29667	4919
2.29733	4918
2.29800	4916
2.29867	4915
2.29933	4914
2.30000	4912
2.30067	4911
2.30133	4909
2.30200	4908
2.30267	4907
2.30333	4906
2.30400	4904
2.30467	4903
2.30533	4902
2.30600	4901
2.30667	4899
2.30733	4898
2.30800	4897
2.30867	4896
2.30933	4895
2.31000	4894
2.31067	4893
2.31133	4892
2.31200	4891
2.31267	4890
2.31333	4890
2.31400	4889
2.31467	4888
2.31533	4887
2.31600	4887
2.31667	4886
2.31733	4885
2.31800	4885
2.31867	4884
2.31933	4884
2.32000	4883
2.32067	4883
2.32133	4883
2.32200	4882
2.32267	4882
2.32333	4882
2.32400	4881
2.32467	4881
2.32533	4881
2.32600	4881
2.32667	4881
2.32733	4881
2.32800	4881
2.32867	4881
2.32933	4881
2.33000	4881
2.33067	4881
2.33133	4881
2.33200	4881
2.33267	4881
2.33333	4881
2.33400	4881
2.33467	4881
2.33533	4881
2.33600	4882
2.33667	4882
2.33733	4882
2.33800	4882
2.33867	4883
2.33933	4883
2.34000	4883
2.34067	4884
2.34133	4884
2.34200	4885
2.34267	4885
2.34333	4886
2.34400	4886
2.34467	4887
2.34533	4888
2.34600	4888
2.34667	4889
2.34733	4890
2.34800	4891
2.34867	4891
2.34933	4892
2.35000	4893
2.35067	4894
2.35133	4895
2.35200	4896
2.35267	4897
2.35333	4898
2.35400	4899
2.35467	4900
2.35533	4902
2.35600	4903
2.35667	4904
2.35733	4905
2.35800	4907
2.35867	4908
2.35933	4909
2.36000	4910
2.36067	4912
2.36133	4913
2.36200	4914
2.36267	4916
2.36333	4917
2.36400	4918
2.36467	4919
2.36533	4920
2.36600	4922
2.36667	4923
2.36733	4924
2.36800	4925
2.36867	4926
2.36933	4927
2.37000	4928
2.37067	4929
2.37133	4929
2.37200	4930
2.37267	4931
2.37333	4932
2.37400	4933
2.37467	4933
2.37533	4934
2.37600	4934
2.37667	4935
2.37733	4935
2.37800	4935
2.37867	4936
2.37933	4936
2.38000	4936
2.38067	4936
2.38133	4936
2.38200	4936
2.38267	4936
2.38333	4936
2.38400	4936
2.38467	4936
2.38533	4936
2.38600	4935
2.38667	4935
2.38733	4935
2.38800	4934
2.38867	4934
2.38933	4934
2.39000	4933
2.39067	4933
2.39133	4932
2.39200	4932
2.39267	4931
2.39333	4931
2.39400	4930
2.39467	4929
2.39533	4929
2.39600	4928
2.39667	4927
2.39733	4927
2.39800	4926
2.39867	4925
2.39933	4925
2.40000	4924
2.40067	4923
2.40133	4922
2.40200	4921
2.40267	4921
2.40333	4920
2.40400	4919
2.40467	4918
2.40533	4917
2.40600	4916
2.40667	4915
2.40733	4914
2.40800	4914
2.40867	4913
2.40933	4912
2.41000	4911
2.41067	4910
2.41133	4909
2.41200	4908
2.41267	4907
2.41333	4906
2.41400	4904
2.41467	4903
2.41533	4902
2.41600	4901
2.41667	4900
2.41733	4899
2.41800	4898
2.41867	4897
2.41933	4895
2.42000	4894
2.42067	4893
2.42133	4892
2.42200	4890
2.42267	4889
2.42333	4888
2.42400	4886
2.42467	4885
2.42533	4884
2.42600	4882
2.42667	4881
2.42733	4879
2.42800	4878
2.42867	4876
2.42933	4875
2.43000	4873
2.43067	4872
2.43133	4870
2.43200	4869
2.43267	4867
2.43333	4865
2.43400	4864
2.43467	4862
2.43533	4861
2.43600	4859
2.43667	4857
2.43733	4855
2.43800	4853
2.43867	4852
2.43933	4850
2.44000	4848
2.44067	4845
2.44133	4843
2.44200	4841
2.44267	4839
2.44333	4837
2.44400	4834
2.44467	4832
2.44533	4830
2.44600	4827
2.44667	4825
2.44733	4823
2.44800	4820
2.44867	4818
2.44933	4815
2.45000	4813
2.45067	4810
2.45133	4808
2.45200	4805
2.45267	4803
2.45333	4800
2.45400	4798
2.45467	4795
2.45533	4793
2.45600	4790
2.45667	4788
2.45733	4785
2.45800	4783
2.45867	4781
2.45933	4778
2.46000	4776
2.46067	4773
2.46133	4771
2.46200	4769
2.46267	4766
2.46333	4764
2.46400	4762
2.46467	4759
2.46533	4757
2.46600	4755
2.46667	4752
2.46733	4750
2.46800	4747
2.46867	4745
2.46933	4742
2.47000	4740
2.47067	4738
2.47133	4735
2.47200	4733
2.47267	4730
2.47333	4728
2.47400	4725
2.47467	4723
2.47533	4720
2.47600	4718
2.47667	4716
2.47733	4713
2.47800	4711
2.47867	4708
2.47933	4706
2.48000	4703
2.48067	4701
2.48133	4698
2.48200	4696
2.48267	4694
2.48333	4691
2.48400	4689
2.48467	4687
2.48533	4684
2.48600	4682
2.48667	4680
2.48733	4678
2.48800	4676
2.48867	4674
2.48933	4672
2.49000	4670
2.49067	4668
2.49133	4666
2.49200	4664
2.49267	4662
2.49333	4660
2.49400	4658
2.49467	4656
2.49533	4654
2.49600	4652
2.49667	4650
2.49733	4648
2.49800	4646
2.49867	4644
2.49933	4642
2.50000	4640
2.50067	4638
2.50133	4637
2.50200	4635
2.50267	4633
2.50333	4631
2.50400	4629
2.50467	4627
2.50533	4626
2.50600	4624
2.50667	4622
2.50733	4620
2.50800	4618
2.50867	4616
2.50933	4615
2.51000	4613
2.51067	4611
2.51133	4609
2.51200	4608
2.51267	4606
2.51333	4604
2.51400	4602
2.51467	4600
2.51533	4599
2.51600	4597
2.51667	4595
2.51733	4593
2.51800	4591
2.51867	4589
2.51933	4588
2.52000	4586
2.52067	4584
2.52133	4582
2.52200	4580
2.52267	4578
2.52333	4577
2.52400	4575
2.52467	4573
2.52533	4571
2.52600	4570
2.52667	4568
2.52733	4566
2.52800	4564
2.52867	4563
2.52933	4561
2.53000	4559
2.53067	4558
2.53133	4556
2.53200	4554
2.53267	4553
2.53333	4551
2.53400	4549
2.53467	4548
2.53533	4546
2.53600	4544
2.53667	4543
2.53733	4541
2.53800	4539
2.53867	4538
2.53933	4536
2.54000	4535
2.54067	4533
2.54133	4532
2.54200	4530
2.54267	4529
2.54333	4527
2.54400	4526
2.54467	4524
2.54533	4523
2.54600	4521
2.54667	4520
2.54733	4519
2.54800	4517
2.54867	4516
2.54933	4515
2.55000	4513
2.55067	4512
2.55133	4511
2.55200	4510
2.55267	4508
2.55333	4507
2.55400	4506
2.55467	4505
2.55533	4503
2.55600	4502
2.55667	4501
2.55733	4500
2.55800	4499
2.55867	4497
2.55933	4496
2.56000	4495
2.56067	4494
2.56133	4492
2.56200	4491
2.56267	4490
2.56333	4489
2.56400	4487
2.56467	4486
2.56533	4485
2.56600	4484
2.56667	4482
2.56733	4481
2.56800	4480
2.56867	4479
2.56933	4477
2.57000	4476
2.57067	4475
2.57133	4474
2.57200	4473
2.57267	4471
2.57333	4470
2.57400	4469
2.57467	4468
2.57533	4467
2.57600	4466
2.57667	4465
2.57733	4464
2.57800	4463
2.57867	4462
2.57933	4461
2.58000	4459
2.58067	4458
2.58133	4457
2.58200	4457
2.58267	4456
2.58333	4455
2.58400	4454
2.58467	4453
2.58533	4452
2.58600	4450
2.58667	4449
2.58733	4448
2.58800	4447
2.58867	4446
2.58933	4445
2.59000	4444
2.59067	4443
2.59133	4442
2.59200	4440
2.59267	4439
2.59333	4438
2.59400	4437
2.59467	4436
2.59533	4435
2.59600	4434
2.59667	4433
2.59733	4432
2.59800	4431
2.59867	4430
2.59933	4429
2.60000	4428
2.60067	4426
2.60133	4425
2.60200	4424
2.60267	4423
2.60333	4422
2.60400	4421
2.60467	4420
2.60533	4419
2.60600	4418
2.60667	4417
2.60733	4416
2.60800	4415
2.60867	4414
2.60933	4413
2.61000	4412
2.61067	4411
2.61133	4410
2.61200	4409
2.61267	4408
2.61333	4407
2.61400	4406
2.61467	4405
2.61533	4404
2.61600	4403
2.61667	4402
2.61733	4401
2.61800	4400
2.61867	4399
2.61933	4398
2.62000	4397
2.62067	4396
2.62133	4395
2.62200	4394
2.62267	4393
2.62333	4392
2.62400	4391
2.62467	4390
2.62533	4389
2.62600	4388
2.62667	4386
2.62733	4385
2.62800	4384
2.62867	4383
2.62933	4382
2.63000	4381
2.63067	4380
2.63133	4379
2.63200	4378
2.63267	4377
2.63333	4376
2.63400	4374
2.63467	4373
2.63533	4372
2.63600	4371
2.63667	4370
2.63733	4368
2.63800	4367
2.63867	4366
2.63933	4365
2.64000	4364
2.64067	4362
2.64133	4361
2.64200	4360
2.64267	4359
2.64333	4358
2.64400	4356
2.64467	4355
2.64533	4354
2.64600	4353
2.64667	4351
2.64733	4350
2.64800	4349
2.64867	4347
2.64933	4346
2.65000	4345
2.65067	4344
2.65133	4342
2.65200	4341
2.65267	4340
2.65333	4338
2.65400	4337
2.65467	4336
2.65533	4335
2.65600	4333
2.65667	4332
2.65733	4331
2.65800	4330
2.65867	4328
2.65933	4327
2.66000	4326
2.66067	4325
2.66133	4323
2.66200	4322
2.66267	4321
2.66333	4319
2.66400	4318
2.66467	4317
2.66533	4316
2.66600	4314
2.66667	4313
2.66733	4312
2.66800	4311
2.66867	4309
2.66933	4308
2.67000	4307
2.67067	4306
2.67133	4305
2.67200	4303
2.67267	4302
2.67333	4301
2.67400	4300
2.67467	4298
2.67533	4297
2.67600	4296
2.67667	4295
2.67733	4294
2.67800	4293
2.67867	4292
2.67933	4290
2.68000	4289
2.68067	4288
2.68133	4287
2.68200	4286
2.68267	4285
2.68333	4284
2.68400	4283
2.68467	4282
2.68533	4281
2.68600	4280
2.68667	4279
2.68733	4278
2.68800	4277
2.68867	4276
2.68933	4275
2.69000	4273
2.69067	4272
2.69133	4271
2.69200	4270
2.69267	4269
2.69333	4268
2.69400	4267
2.69467	4266
2.69533	4265
2.69600	4264
2.69667	4263
2.69733	4262
2.69800	4261
2.69867	4260
2.69933	4259
2.70000	4258
2.70067	4257
2.70133	4256
2.70200	4255
2.70267	4254
2.70333	4254
2.70400	4253
2.70467	4252
2.70533	4251
2.70600	4250
2.70667	4250
2.70733	4249
2.70800	4248
2.70867	4247
2.70933	4247
2.71000	4246
2.71067	4245
2.71133	4245
2.71200	4244
2.71267	4243
2.71333	4243
2.71400	4242
2.71467	4242
2.71533	4241
2.71600	4240
2.71667	4240
2.71733	4239
2.71800	4239
2.71867	4238
2.71933	4237
2.72000	4237
2.72067	4237
2.72133	4236
2.72200	4236
2.72267	4235
2.72333	4235
2.72400	4234
2.72467	4234
2.72533	4233
2.72600	4233
2.72667	4233
2.72733	4232
2.72800	4232
2.72867	4231
2.72933	4231
2.73000	4231
2.73067	4230
2.73133	4230
2.73200	4230
2.73267	4229
2.73333	4229
2.73400	4229
2.73467	4229
2.73533	4228
2.73600	4228
2.73667	4228
2.73733	4228
2.73800	4227
2.73867	4227
2.73933	4227
2.74000	4227
2.74067	4226
2.74133	4226
2.74200	4225
2.74267	4225
2.74333	4225
2.74400	4224
2.74467	4224
2.74533	4223
2.74600	4223
2.74667	4222
2.74733	4222
2.74800	4221
2.74867	4221
2.74933	4220
2.75000	4220
2.75067	4219
2.75133	4218
2.75200	4218
2.75267	4217
2.75333	4217
2.75400	4216
2.75467	4215
2.75533	4215
2.75600	4214
2.75667	4214
2.75733	4213
2.75800	4213
2.75867	4212
2.75933	4212
2.76000	4212
2.76067	4211
2.76133	4211
2.76200	4210
2.76267	4210
2.76333	4210
2.76400	4209
2.76467	4209
2.76533	4209
2.76600	4209
2.76667	4208
2.76733	4208
2.76800	4208
2.76867	4208
2.76933	4208
2.77000	4208
2.77067	4208
2.77133	4208
2.77200	4208
2.77267	4208
2.77333	4208
2.77400	4208
2.77467	4208
2.77533	4208
2.77600	4208
2.77667	4208
2.77733	4209
2.77800	4209
2.77867	4209
2.77933	4210
2.78000	4210
2.78067	4210
2.78133	4211
2.78200	4211
2.78267	4212
2.78333	4213
2.78400	4213
2.78467	4214
2.78533	4215
2.78600	4215
2.78667	4216
2.78733	4217
2.78800	4218
2.78867	4219
2.78933	4220
2.79000	4221
2.79067	4221
2.79133	4222
2.79200	4223
2.79267	4224
2.79333	4225
2.79400	4226
2.79467	4227
2.79533	4228
2.79600	4229
2.79667	4230
2.79733	4231
2.79800	4232
2.79867	4233
2.79933	4234
2.80000	4235
2.80067	4236
2.80133	4237
2.80200	4238
2.80267	4239
2.80333	4240
2.80400	4241
2.80467	4242
2.80533	4242
2.80600	4243
2.80667	4244
2.80733	4245
2.80800	4246
2.80867	4246
2.80933	4247
2.81000	4248
2.81067	4248
2.81133	4249
2.81200	4250
2.81267	4250
2.81333	4251
2.81400	4251
2.81467	4252
2.81533	4253
2.81600	4253
2.81667	4253
2.81733	4254
2.81800	4254
2.81867	4255
2.81933	4255
2.82000	4255
2.82067	4256
2.82133	4256
2.82200	4256
2.82267	4257
2.82333	4257
2.82400	4257
2.82467	4257
2.82533	4258
2.82600	4258
2.82667	4258
2.82733	4258
2.82800	4258
2.82867	4258
2.82933	4258
2.83000	4258
2.83067	4259
2.83133	4259
2.83200	4259
2.83267	4259
2.83333	4259
2.83400	4258
2.83467	4258
2.83533	4258
2.83600	4258
2.83667	4258
2.83733	4258
2.83800	4258
2.83867	4258
2.83933	4258
2.84000	4257
2.84067	4257
2.84133	4257
2.84200	4257
2.84267	4257
2.84333	4257
2.84400	4257
2.84467	4257
2.84533	4257
2.84600	4257
2.84667	4257
2.84733	4257
2.84800	4256
2.84867	4256
2.84933	4256
2.85000	4256
2.85067	4256
2.85133	4256
2.85200	4256
2.85267	4256
2.85333	4256
2.85400	4256
2.85467	4256
2.85533	4256
2.85600	4256
2.85667	4256
2.85733	4256
2.85800	4256
2.85867	4255
2.85933	4255
2.86000	4255
2.86067	4255
2.86133	4255
2.86200	4255
2.86267	4255
2.86333	4255
2.86400	4256
2.86467	4256
2.86533	4256
2.86600	4256
2.86667	4256
2.86733	4256
2.86800	4256
2.86867	4257
2.86933	4257
2.87000	4258
2.87067	4258
2.87133	4258
2.87200	4259
2.87267	4260
2.87333	4260
2.87400	4261
2.87467	4262
2.87533	4263
2.87600	4264
2.87667	4265
2.87733	4266
2.87800	4267
2.87867	4269
2.87933	4270
2.88000	4272
2.88067	4273
2.88133	4275
2.88200	4277
2.88267	4279
2.88333	4281
2.88400	4283
2.88467	4285
2.88533	4288
2.88600	4290
2.88667	4293
2.88733	4295
2.88800	4298
2.88867	4301
2.88933	4304
2.89000	4307
2.89067	4310
2.89133	4313
2.89200	4317
2.89267	4320
2.89333	4324
2.89400	4327
2.89467	4331
2.89533	4334
2.89600	4338
2.89667	4342
2.89733	4345
2.89800	4349
2.89867	4353
2.89933	4357
2.90000	4361
2.90067	4364
2.90133	4368
2.90200	4371
2.90267	4375
2.90333	4379
2.90400	4382
2.90467	4385
2.90533	4389
2.90600	4392
2.90667	4395
2.90733	4398
2.90800	4401
2.90867	4403
2.90933	4406
2.91000	4408
2.91067	4411
2.91133	4413
2.91200	4415
2.91267	4417
2.91333	4418
2.91400	4420
2.91467	4421
2.91533	4422
2.91600	4423
2.91667	4423
2.91733	4424
2.91800	4424
2.91867	4424
2.91933	4423
2.92000	4423
2.92067	4422
2.92133	4421
2.92200	4420
2.92267	4418
2.92333	4416
2.92400	4414
2.92467	4412
2.92533	4410
2.92600	4407
2.92667	4404
2.92733	4401
2.92800	4398
2.92867	4394
2.92933	4391
2.93000	4387
2.93067	4383
2.93133	4378
2.93200	4374
2.93267	4370
2.93333	4365
2.93400	4360
2.93467	4355
2.93533	4350
2.93600	4345
2.93667	4340
2.93733	4335
2.93800	4329
2.93867	4324
2.93933	4318
2.94000	4313
2.94067	4307
2.94133	4301
2.94200	4295
2.94267	4289
2.94333	4283
2.94400	4277
2.94467	4271
2.94533	4265
2.94600	4259
2.94667	4253
2.94733	4247
2.94800	4241
2.94867	4235
2.94933	4229
2.95000	4223
2.95067	4217
2.95133	4211
2.95200	4205
2.95267	4199
2.95333	4193
2.95400	4187
2.95467	4181
2.95533	4175
2.95600	4169
2.95667	4163
2.95733	4157
2.95800	4151
2.95867	4146
2.95933	4140
2.96000	4135
2.96067	4129
2.96133	4124
2.96200	4118
2.96267	4113
2.96333	4108
2.96400	4103
2.96467	4098
2.96533	4093
2.96600	4088
2.96667	4083
2.96733	4078
2.96800	4073
2.96867	4069
2.96933	4064
2.97000	4060
2.97067	4055
2.97133	4051
2.97200	4046
2.97267	4042
2.97333	4038
2.97400	4034
2.97467	4030
2.97533	4026
2.97600	4022
2.97667	4018
2.97733	4014
2.97800	4011
2.97867	4007
2.97933	4004
2.98000	4000
2.98067	3997
2.98133	3993
2.98200	3990
2.98267	3986
2.98333	3983
2.98400	3980
2.98467	3977
2.98533	3974
2.98600	3971
2.98667	3967
2.98733	3964
2.98800	3961
2.98867	3959
2.98933	3956
2.99000	3953
2.99067	3950
2.99133	3947
2.99200	3945
2.99267	3942
2.99333	3939
2.99400	3937
2.99467	3934
2.99533	3931
2.99600	3929
2.99667	3927
2.99733	3924
2.99800	3922
2.99867	3920
2.99933	3917
3.00000	3915
3.00067	3913
3.00133	3911
3.00200	3909
3.00267	3906
3.00333	3904
3.00400	3902
3.00467	3900
3.00533	3898
3.00600	3896
3.00667	3894
3.00733	3893
3.00800	3891
3.00867	3889
3.00933	3887
3.01000	3885
3.01067	3883
3.01133	3881
3.01200	3879
3.01267	3877
3.01333	3876
3.01400	3874
3.01467	3872
3.01533	3870
3.01600	3868
3.01667	3867
3.01733	3865
3.01800	3863
3.01867	3861
3.01933	3859
3.02000	3858
3.02067	3856
3.02133	3854
3.02200	3852
3.02267	3850
3.02333	3848
3.02400	3847
3.02467	3845
3.02533	3843
3.02600	3841
3.02667	3840
3.02733	3838
3.02800	3836
3.02867	3835
3.02933	3833
3.03000	3831
3.03067	3830
3.03133	3828
3.03200	3826
3.03267	3825
3.03333	3823
3.03400	3822
3.03467	3820
3.03533	3819
3.03600	3817
3.03667	3815
3.03733	3814
3.03800	3812
3.03867	3811
3.03933	3809
3.04000	3808
3.04067	3806
3.04133	3805
3.04200	3804
3.04267	3802
3.04333	3801
3.04400	3799
3.04467	3798
3.04533	3797
3.04600	3796
3.04667	3794
3.04733	3793
3.04800	3792
3.04867	3791
3.04933	3790
3.05000	3789
3.05067	3788
3.05133	3787
3.05200	3786
3.05267	3785
3.05333	3784
3.05400	3783
3.05467	3782
3.05533	3782
3.05600	3781
3.05667	3780
3.05733	3779
3.05800	3779
3.05867	3778
3.05933	3777
3.06000	3777
3.06067	3776
3.06133	3776
3.06200	3775
3.06267	3774
3.06333	3774
3.06400	3773
3.06467	3773
3.06533	3772
3.06600	3772
3.06667	3771
3.06733	3771
3.06800	3770
3.06867	3770
3.06933	3769
3.07000	3769
3.07067	3769
3.07133	3768
3.07200	3768
3.07267	3768
3.07333	3768
3.07400	3767
3.07467	3767
3.07533	3767
3.07600	3766
3.07667	3766
3.07733	3766
3.07800	3765
3.07867	3765
3.07933	3765
3.08000	3764
3.08067	3764
3.08133	3764
3.08200	3763
3.08267	3763
3.08333	3763
3.08400	3762
3.08467	3762
3.08533	3761
3.08600	3761
3.08667	3760
3.08733	3760
3.08800	3759
3.08867	3759
3.08933	3759
3.09000	3758
3.09067	3758
3.09133	3758
3.09200	3757
3.09267	3757
3.09333	3756
3.09400	3756
3.09467	3756
3.09533	3755
3.09600	3755
3.09667	3754
3.09733	3754
3.09800	3753
3.09867	3752
3.09933	3752
3.10000	3751
3.10067	3750
3.10133	3750
3.10200	3749
3.10267	3748
3.10333	3748
3.10400	3747
3.10467	3746
3.10533	3746
3.10600	3745
3.10667	3744
3.10733	3743
3.10800	3742
3.10867	3742
3.10933	3741
3.11000	3740
3.11067	3739
3.11133	3738
3.11200	3737
3.11267	3736
3.11333	3735
3.11400	3734
3.11467	3733
3.11533	3732
3.11600	3731
3.11667	3730
3.11733	3729
3.11800	3728
3.11867	3727
3.11933	3726
3.12000	3725
3.12067	3724
3.12133	3723
3.12200	3722
3.12267	3721
3.12333	3720
3.12400	3719
3.12467	3718
3.12533	3717
3.12600	3716
3.12667	3715
3.12733	3714
3.12800	3713
3.12867	3712
3.12933	3710
3.13000	3709
3.13067	3708
3.13133	3707
3.13200	3706
3.13267	3705
3.13333	3704
3.13400	3703
3.13467	3702
3.13533	3701
3.13600	3700
3.13667	3699
3.13733	3698
3.13800	3697
3.13867	3696
3.13933	3695
3.14000	3694
3.14067	3693
3.14133	3692
3.14200	3691
3.14267	3690
3.14333	3689
3.14400	3688
3.14467	3687
3.14533	3686
3.14600	3685
3.14667	3684
3.14733	3683
3.14800	3682
3.14867	3682
3.14933	3681
3.15000	3680
3.15067	3679
3.15133	3679
3.15200	3678
3.15267	3677
3.15333	3676
3.15400	3675
3.15467	3675
3.15533	3674
3.15600	3673
3.15667	3672
3.15733	3671
3.15800	3670
3.15867	3669
3.15933	3668
3.16000	3667
3.16067	3667
3.16133	3666
3.16200	3665
3.16267	3664
3.16333	3663
3.16400	3663
3.16467	3662
3.16533	3661
3.16600	3660
3.16667	3660
3.16733	3659
3.16800	3658
3.16867	3658
3.16933	3657
3.17000	3656
3.17067	3656
3.17133	3655
3.17200	3654
3.17267	3654
3.17333	3653
3.17400	3653
3.17467	3652
3.17533	3652
3.17600	3651
3.17667	3651
3.17733	3650
3.17800	3649
3.17867	3649
3.17933	3648
3.18000	3648
3.18067	3647
3.18133	3647
3.18200	3646
3.18267	3646
3.18333	3645
3.18400	3644
3.18467	3644
3.18533	3643
3.18600	3643
3.18667	3642
3.18733	3641
3.18800	3641
3.18867	3640
3.18933	3640
3.19000	3639
3.19067	3638
3.19133	3638
3.19200	3637
3.19267	3637
3.19333	3636
3.19400	3636
3.19467	3635
3.19533	3634
3.19600	3634
3.19667	3633
3.19733	3633
3.19800	3632
3.19867	3631
3.19933	3631
3.20000	3630
3.20067	3630
3.20133	3629
3.20200	3628
3.20267	3628
3.20333	3627
3.20400	3627
3.20467	3626
3.20533	3625
3.20600	3625
3.20667	3624
3.20733	3624
3.20800	3623
3.20867	3622
3.20933	3622
3.21000	3621
3.21067	3621
3.21133	3620
3.21200	3620
3.21267	3619
3.21333	3619
3.21400	3618
3.21467	3617
3.21533	3617
3.21600	3616
3.21667	3616
3.21733	3615
3.21800	3615
3.21867	3614
3.21933	3614
3.22000	3613
3.22067	3613
3.22133	3612
3.22200	3612
3.22267	3611
3.22333	3611
3.22400	3610
3.22467	3610
3.22533	3610
3.22600	3609
3.22667	3609
3.22733	3608
3.22800	3608
3.22867	3607
3.22933	3607
3.23000	3606
3.23067	3606
3.23133	3606
3.23200	3605
3.23267	3605
3.23333	3605
3.23400	3604
3.23467	3604
3.23533	3604
3.23600	3603
3.23667	3603
3.23733	3603
3.23800	3602
3.23867	3602
3.23933	3602
3.24000	3602
3.24067	3601
3.24133	3601
3.24200	3601
3.24267	3600
3.24333	3600
3.24400	3600
3.24467	3600
3.24533	3600
3.24600	3599
3.24667	3599
3.24733	3599
3.24800	3599
3.24867	3599
3.24933	3599
3.25000	3599
3.25067	3599
3.25133	3598
3.25200	3598
3.25267	3598
3.25333	3598
3.25400	3598
3.25467	3598
3.25533	3598
3.25600	3598
3.25667	3598
3.25733	3598
3.25800	3598
3.25867	3598
3.25933	3598
3.26000	3598
3.26067	3598
3.26133	3598
3.26200	3598
3.26267	3598
3.26333	3598
3.26400	3598
3.26467	3598
3.26533	3598
3.26600	3598
3.26667	3598
3.26733	3598
3.26800	3599
3.26867	3599
3.26933	3599
3.27000	3599
3.27067	3599
3.27133	3599
3.27200	3599
3.27267	3599
3.27333	3599
3.27400	3599
3.27467	3599
3.27533	3599
3.27600	3600
3.27667	3600
3.27733	3600
3.27800	3600
3.27867	3600
3.27933	3600
3.28000	3601
3.28067	3601
3.28133	3601
3.28200	3601
3.28267	3601
3.28333	3602
3.28400	3602
3.28467	3602
3.28533	3603
3.28600	3603
3.28667	3603
3.28733	3603
3.28800	3604
3.28867	3604
3.28933	3604
3.29000	3604
3.29067	3605
3.29133	3605
3.29200	3605
3.29267	3605
3.29333	3605
3.29400	3605
3.29467	3606
3.29533	3606
3.29600	3606
3.29667	3606
3.29733	3606
3.29800	3606
3.29867	3606
3.29933	3606
3.30000	3606
3.30067	3607
3.30133	3607
3.30200	3607
3.30267	3607
3.30333	3607
3.30400	3607
3.30467	3607
3.30533	3607
3.30600	3607
3.30667	3607
3.30733	3608
3.30800	3608
3.30867	3608
3.30933	3608
3.31000	3608
3.31067	3608
3.31133	3608
3.31200	3608
3.31267	3609
3.31333	3609
3.31400	3609
3.31467	3609
3.31533	3609
3.31600	3609
3.31667	3609
3.31733	3609
3.31800	3609
3.31867	3609
3.31933	3609
3.32000	3609
3.32067	3609
3.32133	3609
3.32200	3609
3.32267	3609
3.32333	3609
3.32400	3609
3.32467	3609
3.32533	3609
3.32600	3609
3.32667	3609
3.32733	3608
3.32800	3608
3.32867	3608
3.32933	3608
3.33000	3608
3.33067	3608
3.33133	3608
3.33200	3608
3.33267	3607
3.33333	3607
3.33400	3607
3.33467	3607
3.33533	3607
3.33600	3607
3.33667	3607
3.33733	3607
3.33800	3607
3.33867	3607
3.33933	3607
3.34000	3607
3.34067	3607
3.34133	3607
3.34200	3607
3.34267	3607
3.34333	3607
3.34400	3607
3.34467	3607
3.34533	3607
3.34600	3607
3.34667	3607
3.34733	3607
3.34800	3607
3.34867	3607
3.34933	3606
3.35000	3606
3.35067	3606
3.35133	3606
3.35200	3606
3.35267	3606
3.35333	3606
3.35400	3606
3.35467	3606
3.35533	3606
3.35600	3606
3.35667	3606
3.35733	3606
3.35800	3606
3.35867	3606
3.35933	3606
3.36000	3606
3.36067	3606
3.36133	3606
3.36200	3606
3.36267	3606
3.36333	3606
3.36400	3607
3.36467	3607
3.36533	3607
3.36600	3607
3.36667	3607
3.36733	3607
3.36800	3608
3.36867	3608
3.36933	3608
3.37000	3608
3.37067	3608
3.37133	3608
3.37200	3609
3.37267	3609
3.37333	3609
3.37400	3609
3.37467	3609
3.37533	3609
3.37600	3609
3.37667	3610
3.37733	3610
3.37800	3610
3.37867	3610
3.37933	3610
3.38000	3610
3.38067	3610
3.38133	3611
3.38200	3611
3.38267	3611
3.38333	3611
3.38400	3612
3.38467	3612
3.38533	3612
3.38600	3612
3.38667	3613
3.38733	3613
3.38800	3613
3.38867	3614
3.38933	3614
3.39000	3614
3.39067	3615
3.39133	3615
3.39200	3615
3.39267	3616
3.39333	3616
3.39400	3617
3.39467	3617
3.39533	3618
3.39600	3618
3.39667	3619
3.39733	3619
3.39800	3620
3.39867	3620
3.39933	3621
3.40000	3621
3.40067	3622
3.40133	3622
3.40200	3623
3.40267	3623
3.40333	3624
3.40400	3624
3.40467	3625
3.40533	3625
3.40600	3626
3.40667	3626
3.40733	3627
3.40800	3628
3.40867	3628
3.40933	3629
3.41000	3629
3.41067	3630
3.41133	3630
3.41200	3631
3.41267	3632
3.41333	3632
3.41400	3633
3.41467	3634
3.41533	3634
3.41600	3635
3.41667	3635
3.41733	3636
3.41800	3637
3.41867	3637
3.41933	3638
3.42000	3638
3.42067	3639
3.42133	3640
3.42200	3640
3.42267	3641
3.42333	3642
3.42400	3643
3.42467	3643
3.42533	3644
3.42600	3645
3.42667	3646
3.42733	3646
3.42800	3647
3.42867	3648
3.42933	3649
3.43000	3650
3.43067	3650
3.43133	3651
3.43200	3652
3.43267	3653
3.43333	3653
3.43400	3654
3.43467	3655
3.43533	3656
3.43600	3657
3.43667	3658
3.43733	3659
3.43800	3660
3.43867	3661
3.43933	3662
3.44000	3663
3.44067	3664
3.44133	3664
3.44200	3665
3.44267	3666
3.44333	3667
3.44400	3668
3.44467	3669
3.44533	3670
3.44600	3671
3.44667	3673
3.44733	3674
3.44800	3675
3.44867	3676
3.44933	3677
3.45000	3679
3.45067	3680
3.45133	3682
3.45200	3683
3.45267	3684
3.45333	3686
3.45400	3687
3.45467	3689
3.45533	3691
3.45600	3692
3.45667	3694
3.45733	3695
3.45800	3697
3.45867	3699
3.45933	3700
3.46000	3702
3.46067	3704
3.46133	3706
3.46200	3708
3.46267	3710
3.46333	3712
3.46400	3714
3.46467	3716
3.46533	3718
3.46600	3720
3.46667	3722
3.46733	3724
3.46800	3726
3.46867	3729
3.46933	3731
3.47000	3733
3.47067	3735
3.47133	3738
3.47200	3740
3.47267	3743
3.47333	3745
3.47400	3748
3.47467	3750
3.47533	3753
3.47600	3755
3.47667	3758
3.47733	3760
3.47800	3763
3.47867	3766
3.47933	3769
3.48000	3772
3.48067	3775
3.48133	3778
3.48200	3781
3.48267	3784
3.48333	3787
3.48400	3791
3.48467	3794
3.48533	3798
3.48600	3802
3.48667	3805
3.48733	3809
3.48800	3813
3.48867	3818
3.48933	3822
3.49000	3826
3.49067	3831
3.49133	3836
3.49200	3841
3.49267	3846
3.49333	3851
3.49400	3857
3.49467	3863
3.49533	3869
3.49600	3875
3.49667	3881
3.49733	3888
3.49800	3895
3.49867	3902
3.49933	3910
3.50000	3918
3.50067	3926
3.50133	3935
3.50200	3944
3.50267	3953
3.50333	3963
3.50400	3973
3.50467	3983
3.50533	3994
3.50600	4006
3.50667	4018
3.50733	4031
3.50800	4044
3.50867	4057
3.50933	4071
3.51000	4086
3.51067	4102
3.51133	4118
3.51200	4135
3.51267	4152
3.51333	4170
3.51400	4189
3.51467	4209
3.51533	4230
3.51600	4251
3.51667	4273
3.51733	4296
3.51800	4319
3.51867	4344
3.51933	4369
3.52000	4396
3.52067	4423
3.52133	4451
3.52200	4480
3.52267	4510
3.52333	4541
3.52400	4573
3.52467	4605
3.52533	4639
3.52600	4673
3.52667	4709
3.52733	4745
3.52800	4783
3.52867	4821
3.52933	4860
3.53000	4900
3.53067	4941
3.53133	4984
3.53200	5027
3.53267	5070
3.53333	5115
3.53400	5161
3.53467	5207
3.53533	5254
3.53600	5302
3.53667	5351
3.53733	5401
3.53800	5451
3.53867	5502
3.53933	5553
3.54000	5605
3.54067	5658
3.54133	5711
3.54200	5765
3.54267	5819
3.54333	5873
3.54400	5928
3.54467	5984
3.54533	6039
3.54600	6095
3.54667	6151
3.54733	6207
3.54800	6263
3.54867	6319
3.54933	6376
3.55000	6432
3.55067	6488
3.55133	6544
3.55200	6600
3.55267	6655
3.55333	6711
3.55400	6766
3.55467	6820
3.55533	6874
3.55600	6927
3.55667	6980
3.55733	7032
3.55800	7083
3.55867	7134
3.55933	7184
3.56000	7233
3.56067	7281
3.56133	7328
3.56200	7374
3.56267	7419
3.56333	7463
3.56400	7506
3.56467	7548
3.56533	7589
3.56600	7628
3.56667	7667
3.56733	7704
3.56800	7740
3.56867	7775
3.56933	7809
3.57000	7841
3.57067	7872
3.57133	7902
3.57200	7931
3.57267	7958
3.57333	7984
3.57400	8009
3.57467	8032
3.57533	8055
3.57600	8076
3.57667	8095
3.57733	8114
3.57800	8131
3.57867	8147
3.57933	8162
3.58000	8175
3.58067	8188
3.58133	8199
3.58200	8209
3.58267	8218
3.58333	8226
3.58400	8233
3.58467	8239
3.58533	8244
3.58600	8248
3.58667	8251
3.58733	8253
3.58800	8254
3.58867	8255
3.58933	8254
3.59000	8253
3.59067	8251
3.59133	8248
3.59200	8244
3.59267	8240
3.59333	8235
3.59400	8230
3.59467	8224
3.59533	8217
3.59600	8209
3.59667	8202
3.59733	8193
3.59800	8184
3.59867	8175
3.59933	8165
3.60000	8155
3.60067	8144
3.60133	8132
3.60200	8121
3.60267	8108
3.60333	8096
3.60400	8083
3.60467	8069
3.60533	8055
3.60600	8041
3.60667	8026
3.60733	8011
3.60800	7996
3.60867	7980
3.60933	7963
3.61000	7946
3.61067	7929
3.61133	7912
3.61200	7894
3.61267	7876
3.61333	7857
3.61400	7838
3.61467	7818
3.61533	7799
3.61600	7779
3.61667	7758
3.61733	7737
3.61800	7716
3.61867	7695
3.61933	7673
3.62000	7650
3.62067	7627
3.62133	7604
3.62200	7581
3.62267	7557
3.62333	7532
3.62400	7507
3.62467	7482
3.62533	7457
3.62600	7431
3.62667	7404
3.62733	7377
3.62800	7350
3.62867	7323
3.62933	7295
3.63000	7267
3.63067	7238
3.63133	7209
3.63200	7180
3.63267	7150
3.63333	7120
3.63400	7089
3.63467	7058
3.63533	7027
3.63600	6996
3.63667	6964
3.63733	6932
3.63800	6900
3.63867	6867
3.63933	6834
3.64000	6801
3.64067	6768
3.64133	6734
3.64200	6700
3.64267	6666
3.64333	6632
3.64400	6598
3.64467	6563
3.64533	6529
3.64600	6494
3.64667	6459
3.64733	6424
3.64800	6389
3.64867	6354
3.64933	6318
3.65000	6283
3.65067	6248
3.65133	6213
3.65200	6178
3.65267	6143
3.65333	6108
3.65400	6073
3.65467	6038
3.65533	6003
3.65600	5969
3.65667	5934
3.65733	5900
3.65800	5866
3.65867	5832
3.65933	5798
3.66000	5764
3.66067	5731
3.66133	5698
3.66200	5665
3.66267	5633
3.66333	5600
3.66400	5568
3.66467	5536
3.66533	5505
3.66600	5473
3.66667	5442
3.66733	5412
3.66800	5381
3.66867	5351
3.66933	5321
3.67000	5291
3.67067	5262
3.67133	5233
3.67200	5204
3.67267	5176
3.67333	5148
3.67400	5120
3.67467	5093
3.67533	5066
3.67600	5039
3.67667	5012
3.67733	4986
3.67800	4961
3.67867	4936
3.67933	4911
3.68000	4886
3.68067	4862
3.68133	4838
3.68200	4815
3.68267	4791
3.68333	4769
3.68400	4746
3.68467	4724
3.68533	4702
3.68600	4681
3.68667	4660
3.68733	4639
3.68800	4618
3.68867	4598
3.68933	4579
3.69000	4559
3.69067	4540
3.69133	4521
3.69200	4503
3.69267	4485
3.69333	4467
3.69400	4449
3.69467	4432
3.69533	4415
3.69600	4399
3.69667	4382
3.69733	4366
3.69800	4350
3.69867	4335
3.69933	4319
3.70000	4304
3.70067	4289
3.70133	4275
3.70200	4260
3.70267	4246
3.70333	4233
3.70400	4219
3.70467	4206
3.70533	4193
3.70600	4180
3.70667	4167
3.70733	4155
3.70800	4143
3.70867	4131
3.70933	4119
3.71000	4108
3.71067	4097
3.71133	4086
3.71200	4075
3.71267	4064
3.71333	4054
3.71400	4043
3.71467	4033
3.71533	4023
3.71600	4013
3.71667	4004
3.71733	3994
3.71800	3985
3.71867	3976
3.71933	3967
3.72000	3958
3.72067	3950
3.72133	3941
3.72200	3933
3.72267	3925
3.72333	3917
3.72400	3909
3.72467	3901
3.72533	3894
3.72600	3886
3.72667	3879
3.72733	3871
3.72800	3864
3.72867	3857
3.72933	3850
3.73000	3843
3.73067	3837
3.73133	3830
3.73200	3824
3.73267	3817
3.73333	3811
3.73400	3805
3.73467	3799
3.73533	3793
3.73600	3787
3.73667	3781
3.73733	3776
3.73800	3770
3.73867	3765
3.73933	3759
3.74000	3754
3.74067	3748
3.74133	3743
3.74200	3738
3.74267	3733
3.74333	3728
3.74400	3723
3.74467	3719
3.74533	3714
3.74600	3709
3.74667	3705
3.74733	3700
3.74800	3695
3.74867	3691
3.74933	3687
3.75000	3682
3.75067	3678
3.75133	3674
3.75200	3670
3.75267	3666
3.75333	3662
3.75400	3658
3.75467	3654
3.75533	3650
3.75600	3647
3.75667	3643
3.75733	3639
3.75800	3636
3.75867	3632
3.75933	3629
3.76000	3625
3.76067	3622
3.76133	3619
3.76200	3616
3.76267	3612
3.76333	3609
3.76400	3606
3.76467	3603
3.76533	3600
3.76600	3597
3.76667	3594
3.76733	3590
3.76800	3587
3.76867	3585
3.76933	3582
3.77000	3579
3.77067	3576
3.77133	3573
3.77200	3570
3.77267	3568
3.77333	3565
3.77400	3562
3.77467	3560
3.77533	3557
3.77600	3555
3.77667	3552
3.77733	3550
3.77800	3547
3.77867	3545
3.77933	3542
3.78000	3540
3.78067	3537
3.78133	3535
3.78200	3533
3.78267	3530
3.78333	3528
3.78400	3526
3.78467	3523
3.78533	3521
3.78600	3519
3.78667	3516
3.78733	3514
3.78800	3512
3.78867	3510
3.78933	3507
3.79000	3505
3.79067	3503
3.79133	3501
3.79200	3499
3.79267	3496
3.79333	3494
3.79400	3492
3.79467	3490
3.79533	3488
3.79600	3486
3.79667	3484
3.79733	3482
3.79800	3480
3.79867	3478
3.79933	3476
3.80000	3474
3.80067	3472
3.80133	3471
3.80200	3469
3.80267	3467
3.80333	3465
3.80400	3463
3.80467	3462
3.80533	3460
3.80600	3458
3.80667	3457
3.80733	3455
3.80800	3453
3.80867	3451
3.80933	3450
3.81000	3448
3.81067	3447
3.81133	3445
3.81200	3443
3.81267	3442
3.81333	3440
3.81400	3438
3.81467	3437
3.81533	3435
3.81600	3433
3.81667	3432
3.81733	3430
3.81800	3428
3.81867	3427
3.81933	3425
3.82000	3423
3.82067	3422
3.82133	3420
3.82200	3419
3.82267	3417
3.82333	3415
3.82400	3414
3.82467	3412
3.82533	3411
3.82600	3410
3.82667	3408
3.82733	3407
3.82800	3405
3.82867	3404
3.82933	3403
3.83000	3401
3.83067	3400
3.83133	3399
3.83200	3398
3.83267	3396
3.83333	3395
3.83400	3394
3.83467	3393
3.83533	3392
3.83600	3390
3.83667	3389
3.83733	3388
3.83800	3387
3.83867	3386
3.83933	3385
3.84000	3384
3.84067	3383
3.84133	3382
3.84200	3381
3.84267	3379
3.84333	3378
3.84400	3377
3.84467	3376
3.84533	3375
3.84600	3374
3.84667	3373
3.84733	3372
3.84800	3371
3.84867	3370
3.84933	3369
3.85000	3368
3.85067	3367
3.85133	3366
3.85200	3365
3.85267	3364
3.85333	3364
3.85400	3363
3.85467	3362
3.85533	3361
3.85600	3360
3.85667	3359
3.85733	3358
3.85800	3357
3.85867	3356
3.85933	3356
3.86000	3355
3.86067	3354
3.86133	3353
3.86200	3352
3.86267	3351
3.86333	3351
3.86400	3350
3.86467	3349
3.86533	3348
3.86600	3347
3.86667	3347
3.86733	3346
3.86800	3345
3.86867	3344
3.86933	3343
3.87000	3343
3.87067	3342
3.87133	3341
3.87200	3340
3.87267	3340
3.87333	3339
3.87400	3338
3.87467	3338
3.87533	3337
3.87600	3336
3.87667	3335
3.87733	3335
3.87800	3334
3.87867	3333
3.87933	3332
3.88000	3331
3.88067	3330
3.88133	3330
3.88200	3329
3.88267	3328
3.88333	3327
3.88400	3326
3.88467	3325
3.88533	3325
3.88600	3324
3.88667	3323
3.88733	3322
3.88800	3321
3.88867	3321
3.88933	3320
3.89000	3319
3.89067	3318
3.89133	3318
3.89200	3317
3.89267	3316
3.89333	3315
3.89400	3315
3.89467	3314
3.89533	3313
3.89600	3312
3.89667	3312
3.89733	3311
3.89800	3310
3.89867	3309
3.89933	3309
3.90000	3308
3.90067	3307
3.90133	3306
3.90200	3306
3.90267	3305
3.90333	3304
3.90400	3304
3.90467	3303
3.90533	3302
3.90600	3302
3.90667	3301
3.90733	3300
3.90800	3300
3.90867	3299
3.90933	3298
3.91000	3298
3.91067	3297
3.91133	3297
3.91200	3296
3.91267	3296
3.91333	3295
3.91400	3294
3.91467	3294
3.91533	3293
3.91600	3293
3.91667	3292
3.91733	3291
3.91800	3291
3.91867	3290
3.91933	3289
3.92000	3289
3.92067	3288
3.92133	3287
3.92200	3287
3.92267	3286
3.92333	3286
3.92400	3285
3.92467	3284
3.92533	3284
3.92600	3283
3.92667	3282
3.92733	3282
3.92800	3281
3.92867	3280
3.92933	3280
3.93000	3279
3.93067	3279
3.93133	3278
3.93200	3277
3.93267	3277
3.93333	3276
3.93400	3275
3.93467	3275
3.93533	3274
3.93600	3273
3.93667	3273
3.93733	3272
3.93800	3272
3.93867	3271
3.93933	3270
3.94000	3270
3.94067	3269
3.94133	3268
3.94200	3267
3.94267	3267
3.94333	3266
3.94400	3265
3.94467	3264
3.94533	3263
3.94600	3262
3.94667	3262
3.94733	3261
3.94800	3260
3.94867	3259
3.94933	3259
3.95000	3258
3.95067	3257
3.95133	3257
3.95200	3256
3.95267	3255
3.95333	3255
3.95400	3254
3.95467	3254
3.95533	3253
3.95600	3253
3.95667	3252
3.95733	3252
3.95800	3251
3.95867	3251
3.95933	3250
3.96000	3250
3.96067	3249
3.96133	3249
3.96200	3248
3.96267	3248
3.96333	3248
3.96400	3247
3.96467	3247
3.96533	3247
3.96600	3246
3.96667	3246
3.96733	3246
3.96800	3245
3.96867	3245
3.96933	3245
3.97000	3244
3.97067	3244
3.97133	3244
3.97200	3244
3.97267	3243
3.97333	3243
3.97400	3243
3.97467	3243
3.97533	3243
3.97600	3242
3.97667	3242
3.97733	3242
3.97800	3242
3.97867	3242
3.97933	3242
3.98000	3242
3.98067	3241
3.98133	3241
3.98200	3241
3.98267	3241
3.98333	3241
3.98400	3241
3.98467	3240
3.98533	3240
3.98600	3240
3.98667	3240
3.98733	3240
3.98800	3240
3.98867	3240
3.98933	3239
3.99000	3239
3.99067	3239
3.99133	3239
3.99200	3239
3.99267	3239
3.99333	3239
3.99400	3239
3.99467	3239
3.99533	3239
3.99600	3239
3.99667	3240
3.99733	3240
3.99800	3240
3.99867	3240
3.99933	3240
4.00000	3241
4.00067	3241
4.00133	3241
4.00200	3241
4.00267	3242
4.00333	3242
4.00400	3242
4.00467	3242
4.00533	3243
4.00600	3243
4.00667	3243
4.00733	3244
4.00800	3244
4.00867	3244
4.00933	3245
4.01000	3245
4.01067	3246
4.01133	3246
4.01200	3246
4.01267	3247
4.01333	3248
4.01400	3248
4.01467	3249
4.01533	3249
4.01600	3250
4.01667	3250
4.01733	3251
4.01800	3252
4.01867	3252
4.01933	3253
4.02000	3254
4.02067	3255
4.02133	3255
4.02200	3256
4.02267	3257
4.02333	3258
4.02400	3259
4.02467	3259
4.02533	3260
4.02600	3261
4.02667	3262
4.02733	3263
4.02800	3264
4.02867	3265
4.02933	3266
4.03000	3267
4.03067	3268
4.03133	3269
4.03200	3270
4.03267	3272
4.03333	3273
4.03400	3274
4.03467	3275
4.03533	3277
4.03600	3278
4.03667	3279
4.03733	3281
4.03800	3282
4.03867	3284
4.03933	3285
4.04000	3287
4.04067	3289
4.04133	3290
4.04200	3292
4.04267	3293
4.04333	3295
4.04400	3297
4.04467	3299
4.04533	3300
4.04600	3302
4.04667	3304
4.04733	3306
4.04800	3308
4.04867	3310
4.04933	3312
4.05000	3314
4.05067	3316
4.05133	3318
4.05200	3320
4.05267	3322
4.05333	3324
4.05400	3327
4.05467	3329
4.05533	3331
4.05600	3334
4.05667	3336
4.05733	3339
4.05800	3341
4.05867	3344
4.05933	3346
4.06000	3349
4.06067	3352
4.06133	3354
4.06200	3357
4.06267	3360
4.06333	3363
4.06400	3366
4.06467	3369
4.06533	3372
4.06600	3375
4.06667	3378
4.06733	3381
4.06800	3384
4.06867	3387
4.06933	3391
4.07000	3394
4.07067	3398
4.07133	3401
4.07200	3405
4.07267	3408
4.07333	3412
4.07400	3416
4.07467	3419
4.07533	3423
4.07600	3427
4.07667	3431
4.07733	3435
4.07800	3439
4.07867	3443
4.07933	3447
4.08000	3452
4.08067	3456
4.08133	3460
4.08200	3465
4.08267	3469
4.08333	3474
4.08400	3478
4.08467	3483
4.08533	3488
4.08600	3492
4.08667	3497
4.08733	3502
4.08800	3507
4.08867	3512
4.08933	3516
4.09000	3521
4.09067	3526
4.09133	3531
4.09200	3536
4.09267	3542
4.09333	3547
4.09400	3552
4.09467	3557
4.09533	3562
4.09600	3568
4.09667	3573
4.09733	3578
4.09800	3584
4.09867	3589
4.09933	3594
4.10000	3600
4.10067	3605
4.10133	3611
4.10200	3616
4.10267	3621
4.10333	3626
4.10400	3632
4.10467	3637
4.10533	3642
4.10600	3647
4.10667	3653
4.10733	3658
4.10800	3663
4.10867	3668
4.10933	3673
4.11000	3678
4.11067	3683
4.11133	3687
4.11200	3692
4.11267	3697
4.11333	3701
4.11400	3706
4.11467	3710
4.11533	3715
4.11600	3719
4.11667	3723
4.11733	3727
4.11800	3731
4.11867	3735
4.11933	3739
4.12000	3743
4.12067	3746
4.12133	3750
4.12200	3753
4.12267	3756
4.12333	3760
4.12400	3763
4.12467	3766
4.12533	3769
4.12600	3772
4.12667	3775
4.12733	3777
4.12800	3780
4.12867	3782
4.12933	3785
4.13000	3787
4.13067	3789
4.13133	3791
4.13200	3793
4.13267	3794
4.13333	3796
4.13400	3797
4.13467	3799
4.13533	3800
4.13600	3801
4.13667	3802
4.13733	3803
4.13800	3804
4.13867	3804
4.13933	3805
4.14000	3805
4.14067	3805
4.14133	3806
4.14200	3806
4.14267	3806
4.14333	3806
4.14400	3806
4.14467	3806
4.14533	3805
4.14600	3805
4.14667	3805
4.14733	3804
4.14800	3804
4.14867	3803
4.14933	3802
4.15000	3802
4.15067	3801
4.15133	3800
4.15200	3799
4.15267	3798
4.15333	3797
4.15400	3797
4.15467	3796
4.15533	3795
4.15600	3794
4.15667	3792
4.15733	3791
4.15800	3790
4.15867	3789
4.15933	3788
4.16000	3787
4.16067	3786
4.16133	3784
4.16200	3783
4.16267	3782
4.16333	3781
4.16400	3780
4.16467	3779
4.16533	3778
4.16600	3777
4.16667	3776
4.16733	3775
4.16800	3774
4.16867	3773
4.16933	3772
4.17000	3772
4.17067	3771
4.17133	3770
4.17200	3770
4.17267	3770
4.17333	3769
4.17400	3769
4.17467	3769
4.17533	3769
4.17600	3769
4.17667	3769
4.17733	3769
4.17800	3770
4.17867	3770
4.17933	3771
4.18000	3772
4.18067	3773
4.18133	3774
4.18200	3775
4.18267	3776
4.18333	3778
4.18400	3779
4.18467	3781
4.18533	3783
4.18600	3785
4.18667	3787
4.18733	3790
4.18800	3792
4.18867	3795
4.18933	3798
4.19000	3801
4.19067	3805
4.19133	3808
4.19200	3812
4.19267	3815
4.19333	3819
4.19400	3824
4.19467	3828
4.19533	3833
4.19600	3837
4.19667	3842
4.19733	3848
4.19800	3853
4.19867	3859
4.19933	3865
4.20000	3871
4.20067	3877
4.20133	3884
4.20200	3891
4.20267	3898
4.20333	3905
4.20400	3913
4.20467	3920
4.20533	3928
4.20600	3936
4.20667	3945
4.20733	3954
4.20800	3963
4.20867	3972
4.20933	3981
4.21000	3991
4.21067	4001
4.21133	4012
4.21200	4022
4.21267	4033
4.21333	4044
4.21400	4056
4.21467	4068
4.21533	4080
4.21600	4093
4.21667	4106
4.21733	4119
4.21800	4133
4.21867	4147
4.21933	4161
4.22000	4176
4.22067	4191
4.22133	4206
4.22200	4222
4.22267	4239
4.22333	4256
4.22400	4273
4.22467	4291
4.22533	4309
4.22600	4328
4.22667	4347
4.22733	4367
4.22800	4387
4.22867	4408
4.22933	4429
4.23000	4450
4.23067	4472
4.23133	4495
4.23200	4518
4.23267	4542
4.23333	4566
4.23400	4591
4.23467	4616
4.23533	4641
4.23600	4668
4.23667	4694
4.23733	4722
4.23800	4749
4.23867	4778
4.23933	4806
4.24000	4836
4.24067	4866
4.24133	4896
4.24200	4927
4.24267	4959
4.24333	4991
4.24400	5023
4.24467	5056
4.24533	5090
4.24600	5124
4.24667	5159
4.24733	5195
4.24800	5231
4.24867	5267
4.24933	5304
4.25000	5342
4.25067	5381
4.25133	5420
4.25200	5459
4.25267	5500
4.25333	5540
4.25400	5582
4.25467	5624
4.25533	5667
4.25600	5710
4.25667	5754
4.25733	5799
4.25800	5844
4.25867	5891
4.25933	5937
4.26000	5985
4.26067	6033
4.26133	6081
4.26200	6130
4.26267	6180
4.26333	6230
4.26400	6280
4.26467	6332
4.26533	6383
4.26600	6435
4.26667	6488
4.26733	6541
4.26800	6594
4.26867	6648
4.26933	6702
4.27000	6757
4.27067	6812
4.27133	6868
4.27200	6924
4.27267	6980
4.27333	7037
4.27400	7095
4.27467	7152
4.27533	7210
4.27600	7268
4.27667	7327
4.27733	7386
4.27800	7445
4.27867	7504
4.27933	7563
4.28000	7623
4.28067	7682
4.28133	7742
4.28200	7802
4.28267	7863
4.28333	7923
4.28400	7983
4.28467	8044
4.28533	8105
4.28600	8165
4.28667	8226
4.28733	8287
4.28800	8348
4.28867	8409
4.28933	8470
4.29000	8530
4.29067	8591
4.29133	8652
4.29200	8712
4.29267	8772
4.29333	8832
4.29400	8892
4.29467	8952
4.29533	9012
4.29600	9071
4.29667	9131
4.29733	9190
4.29800	9249
4.29867	9307
4.29933	9365
4.30000	9423
4.30067	9481
4.30133	9538
4.30200	9595
4.30267	9651
4.30333	9707
4.30400	9763
4.30467	9818
4.30533	9872
4.30600	9927
4.30667	9980
4.30733	10033
4.30800	10086
4.30867	10138
4.30933	10190
4.31000	10241
4.31067	10292
4.31133	10342
4.31200	10392
4.31267	10441
4.31333	10490
4.31400	10538
4.31467	10585
4.31533	10632
4.31600	10678
4.31667	10723
4.31733	10768
4.31800	10812
4.31867	10855
4.31933	10897
4.32000	10938
4.32067	10978
4.32133	11017
4.32200	11056
4.32267	11093
4.32333	11130
4.32400	11165
4.32467	11200
4.32533	11233
4.32600	11266
4.32667	11297
4.32733	11327
4.32800	11357
4.32867	11385
4.32933	11412
4.33000	11438
4.33067	11462
4.33133	11486
4.33200	11508
4.33267	11529
4.33333	11548
4.33400	11567
4.33467	11584
4.33533	11600
4.33600	11615
4.33667	11628
4.33733	11640
4.33800	11651
4.33867	11660
4.33933	11668
4.34000	11675
4.34067	11681
4.34133	11685
4.34200	11688
4.34267	11690
4.34333	11690
4.34400	11689
4.34467	11686
4.34533	11682
4.34600	11677
4.34667	11671
4.34733	11663
4.34800	11654
4.34867	11644
4.34933	11632
4.35000	11619
4.35067	11605
4.35133	11589
4.35200	11573
4.35267	11555
4.35333	11536
4.35400	11516
4.35467	11495
4.35533	11472
4.35600	11448
4.35667	11424
4.35733	11398
4.35800	11371
4.35867	11343
4.35933	11314
4.36000	11284
4.36067	11252
4.36133	11220
4.36200	11187
4.36267	11153
4.36333	11119
4.36400	11083
4.36467	11047
4.36533	11009
4.36600	10971
4.36667	10933
4.36733	10893
4.36800	10853
4.36867	10812
4.36933	10770
4.37000	10728
4.37067	10686
4.37133	10642
4.37200	10599
4.37267	10554
4.37333	10510
4.37400	10465
4.37467	10419
4.37533	10374
4.37600	10327
4.37667	10281
4.37733	10234
4.37800	10188
4.37867	10140
4.37933	10093
4.38000	10045
4.38067	9997
4.38133	9949
4.38200	9901
4.38267	9853
4.38333	9804
4.38400	9756
4.38467	9707
4.38533	9658
4.38600	9609
4.38667	9560
4.38733	9512
4.38800	9463
4.38867	9414
4.38933	9366
4.39000	9317
4.39067	9269
4.39133	9220
4.39200	9172
4.39267	9125
4.39333	9077
4.39400	9029
4.39467	8982
4.39533	8935
4.39600	8888
4.39667	8842
4.39733	8796
4.39800	8750
4.39867	8704
4.39933	8659
4.40000	8614
4.40067	8570
4.40133	8525
4.40200	8481
4.40267	8438
4.40333	8394
4.40400	8352
4.40467	8309
4.40533	8267
4.40600	8225
4.40667	8184
4.40733	8143
4.40800	8103
4.40867	8063
4.40933	8023
4.41000	7984
4.41067	7945
4.41133	7907
4.41200	7869
4.41267	7832
4.41333	7795
4.41400	7759
4.41467	7723
4.41533	7688
4.41600	7653
4.41667	7619
4.41733	7585
4.41800	7552
4.41867	7519
4.41933	7486
4.42000	7455
4.42067	7423
4.42133	7392
4.42200	7362
4.42267	7332
4.42333	7302
4.42400	7273
4.42467	7244
4.42533	7216
4.42600	7188
4.42667	7161
4.42733	7134
4.42800	7108
4.42867	7082
4.42933	7056
4.43000	7031
4.43067	7007
4.43133	6982
4.43200	6959
4.43267	6935
4.43333	6912
4.43400	6890
4.43467	6868
4.43533	6846
4.43600	6825
4.43667	6804
4.43733	6783
4.43800	6763
4.43867	6743
4.43933	6724
4.44000	6705
4.44067	6686
4.44133	6668
4.44200	6650
4.44267	6632
4.44333	6615
4.44400	6598
4.44467	6582
4.44533	6566
4.44600	6550
4.44667	6535
4.44733	6520
4.44800	6505
4.44867	6491
4.44933	6477
4.45000	6464
4.45067	6451
4.45133	6438
4.45200	6426
4.45267	6414
4.45333	6403
4.45400	6392
4.45467	6381
4.45533	6371
4.45600	6361
4.45667	6351
4.45733	6342
4.45800	6332
4.45867	6324
4.45933	6315
4.46000	6307
4.46067	6299
4.46133	6291
4.46200	6284
4.46267	6277
4.46333	6270
4.46400	6263
4.46467	6257
4.46533	6251
4.46600	6245
4.46667	6240
4.46733	6234
4.46800	6229
4.46867	6224
4.46933	6220
4.47000	6215
4.47067	6211
4.47133	6207
4.47200	6204
4.47267	6200
4.47333	6197
4.47400	6194
4.47467	6191
4.47533	6188
4.47600	6185
4.47667	6183
4.47733	6180
4.47800	6178
4.47867	6176
4.47933	6174
4.48000	6173
4.48067	6171
4.48133	6170
4.48200	6168
4.48267	6167
4.48333	6166
4.48400	6165
4.48467	6165
4.48533	6164
4.48600	6163
4.48667	6163
4.48733	6163
4.48800	6162
4.48867	6162
4.48933	6162
4.49000	6162
4.49067	6162
4.49133	6162
4.49200	6162
4.49267	6162
4.49333	6163
4.49400	6163
4.49467	6163
4.49533	6163
4.49600	6164
4.49667	6164
4.49733	6165
4.49800	6165
4.49867	6165
4.49933	6166
4.50000	6166
4.50067	6166
4.50133	6167
4.50200	6167
4.50267	6167
4.50333	6168
4.50400	6168
4.50467	6168
4.50533	6168
4.50600	6168
4.50667	6168
4.50733	6169
4.50800	6169
4.50867	6169
4.50933	6169
4.51000	6169
4.51067	6169
4.51133	6169
4.51200	6168
4.51267	6168
4.51333	6168
4.51400	6168
4.51467	6168
4.51533	6168
4.51600	6168
4.51667	6168
4.51733	6168
4.51800	6168
4.51867	6169
4.51933	6169
4.52000	6169
4.52067	6169
4.52133	6169
4.52200	6170
4.52267	6170
4.52333	6170
4.52400	6171
4.52467	6171
4.52533	6172
4.52600	6173
4.52667	6173
4.52733	6174
4.52800	6175
4.52867	6177
4.52933	6178
4.53000	6179
4.53067	6181
4.53133	6182
4.53200	6184
4.53267	6186
4.53333	6189
4.53400	6191
4.53467	6194
4.53533	6196
4.53600	6199
4.53667	6203
4.53733	6206
4.53800	6210
4.53867	6213
4.53933	6218
4.54000	6222
4.54067	6226
4.54133	6231
4.54200	6236
4.54267	6242
4.54333	6247
4.54400	6253
4.54467	6259
4.54533	6265
4.54600	6272
4.54667	6279
4.54733	6286
4.54800	6293
4.54867	6300
4.54933	6308
4.55000	6316
4.55067	6325
4.55133	6333
4.55200	6342
4.55267	6352
4.55333	6361
4.55400	6371
4.55467	6381
4.55533	6391
4.55600	6402
4.55667	6413
4.55733	6424
4.55800	6436
4.55867	6448
4.55933	6460
4.56000	6472
4.56067	6485
4.56133	6498
4.56200	6511
4.56267	6525
4.56333	6539
4.56400	6553
4.56467	6568
4.56533	6582
4.56600	6597
4.56667	6613
4.56733	6628
4.56800	6644
4.56867	6660
4.56933	6676
4.57000	6693
4.57067	6710
4.57133	6727
4.57200	6744
4.57267	6761
4.57333	6779
4.57400	6796
4.57467	6814
4.57533	6832
4.57600	6850
4.57667	6868
4.57733	6886
4.57800	6904
4.57867	6922
4.57933	6941
4.58000	6959
4.58067	6977
4.58133	6996
4.58200	7014
4.58267	7032
4.58333	7051
4.58400	7069
4.58467	7088
4.58533	7106
4.58600	7124
4.58667	7142
4.58733	7161
4.58800	7179
4.58867	7197
4.58933	7215
4.59000	7233
4.59067	7251
4.59133	7268
4.59200	7286
4.59267	7304
4.59333	7321
4.59400	7339
4.59467	7356
4.59533	7373
4.59600	7390
4.59667	7407
4.59733	7423
4.59800	7440
4.59867	7456
4.59933	7472
4.60000	7488
4.60067	7504
4.60133	7519
4.60200	7535
4.60267	7550
4.60333	7564
4.60400	7579
4.60467	7593
4.60533	7607
4.60600	7620
4.60667	7633
4.60733	7646
4.60800	7659
4.60867	7671
4.60933	7683
4.61000	7694
4.61067	7705
4.61133	7716
4.61200	7726
4.61267	7736
4.61333	7746
4.61400	7755
4.61467	7764
4.61533	7773
4.61600	7781
4.61667	7789
4.61733	7796
4.61800	7803
4.61867	7810
4.61933	7816
4.62000	7822
4.62067	7828
4.62133	7833
4.62200	7837
4.62267	7841
4.62333	7845
4.62400	7849
4.62467	7852
4.62533	7854
4.62600	7857
4.62667	7859
4.62733	7860
4.62800	7861
4.62867	7862
4.62933	7862
4.63000	7862
4.63067	7862
4.63133	7862
4.63200	7861
4.63267	7859
4.63333	7858
4.63400	7856
4.63467	7853
4.63533	7851
4.63600	7848
4.63667	7845
4.63733	7841
4.63800	7837
4.63867	7833
4.63933	7829
4.64000	7824
4.64067	7819
4.64133	7813
4.64200	7808
4.64267	7802
4.64333	7796
4.64400	7789
4.64467	7782
4.64533	7775
4.64600	7768
4.64667	7761
4.64733	7753
4.64800	7745
4.64867	7737
4.64933	7729
4.65000	7721
4.65067	7712
4.65133	7703
4.65200	7694
4.65267	7685
4.65333	7676
4.65400	7667
4.65467	7657
4.65533	7647
4.65600	7638
4.65667	7628
4.65733	7618
4.65800	7608
4.65867	7598
4.65933	7588
4.66000	7577
4.66067	7567
4.66133	7557
4.66200	7546
4.66267	7535
4.66333	7524
4.66400	7514
4.66467	7503
4.66533	7492
4.66600	7480
4.66667	7469
4.66733	7458
4.66800	7447
4.66867	7435
4.66933	7424
4.67000	7412
4.67067	7401
4.67133	7389
4.67200	7378
4.67267	7366
4.67333	7355
4.67400	7343
4.67467	7332
4.67533	7320
4.67600	7309
4.67667	7297
4.67733	7286
4.67800	7274
4.67867	7263
4.67933	7252
4.68000	7240
4.68067	7229
4.68133	7218
4.68200	7207
4.68267	7196
4.68333	7185
4.68400	7173
4.68467	7163
4.68533	7152
4.68600	7141
4.68667	7130
4.68733	7119
4.68800	7109
4.68867	7098
4.68933	7088
4.69000	7077
4.69067	7067
4.69133	7057
4.69200	7047
4.69267	7037
4.69333	7027
4.69400	7017
4.69467	7007
4.69533	6997
4.69600	6987
4.69667	6977
4.69733	6967
4.69800	6957
4.69867	6947
4.69933	6938
4.70000	6928
4.70067	6918
4.70133	6909
4.70200	6899
4.70267	6890
4.70333	6880
4.70400	6871
4.70467	6861
4.70533	6852
4.70600	6842
4.70667	6833
4.70733	6824
4.70800	6815
4.70867	6805
4.70933	6796
4.71000	6787
4.71067	6779
4.71133	6770
4.71200	6761
4.71267	6752
4.71333	6744
4.71400	6735
4.71467	6727
4.71533	6718
4.71600	6710
4.71667	6702
4.71733	6693
4.71800	6685
4.71867	6677
4.71933	6669
4.72000	6661
4.72067	6653
4.72133	6646
4.72200	6638
4.72267	6630
4.72333	6623
4.72400	6615
4.72467	6607
4.72533	6600
4.72600	6592
4.72667	6585
4.72733	6578
4.72800	6570
4.72867	6563
4.72933	6555
4.73000	6548
4.73067	6541
4.73133	6533
4.73200	6526
4.73267	6519
4.73333	6512
4.73400	6504
4.73467	6497
4.73533	6490
4.73600	6483
4.73667	6476
4.73733	6469
4.73800	6462
4.73867	6455
4.73933	6448
4.74000	6441
4.74067	6434
4.74133	6427
4.74200	6420
4.74267	6414
4.74333	6407
4.74400	6400
4.74467	6394
4.74533	6387
4.74600	6381
4.74667	6374
4.74733	6367
4.74800	6361
4.74867	6355
4.74933	6348
4.75000	6342
4.75067	6336
4.75133	6329
4.75200	6323
4.75267	6317
4.75333	6311
4.75400	6305
4.75467	6299
4.75533	6293
4.75600	6287
4.75667	6281
4.75733	6275
4.75800	6270
4.75867	6264
4.75933	6258
4.76000	6253
4.76067	6247
4.76133	6241
4.76200	6236
4.76267	6230
4.76333	6225
4.76400	6220
4.76467	6214
4.76533	6209
4.76600	6204
4.76667	6199
4.76733	6194
4.76800	6189
4.76867	6184
4.76933	6179
4.77000	6175
4.77067	6170
4.77133	6165
4.77200	6160
4.77267	6156
4.77333	6151
4.77400	6147
4.77467	6142
4.77533	6138
4.77600	6133
4.77667	6129
4.77733	6125
4.77800	6120
4.77867	6116
4.77933	6112
4.78000	6108
4.78067	6104
4.78133	6099
4.78200	6095
4.78267	6091
4.78333	6087
4.78400	6083
4.78467	6080
4.78533	6076
4.78600	6072
4.78667	6068
4.78733	6064
4.78800	6060
4.78867	6056
4.78933	6052
4.79000	6049
4.79067	6045
4.79133	6041
4.79200	6037
4.79267	6033
4.79333	6030
4.79400	6026
4.79467	6022
4.79533	6019
4.79600	6015
4.79667	6011
4.79733	6008
4.79800	6005
4.79867	6001
4.79933	5998
4.80000	5995
4.80067	5992
4.80133	5989
4.80200	5986
4.80267	5983
4.80333	5980
4.80400	5977
4.80467	5974
4.80533	5971
4.80600	5968
4.80667	5965
4.80733	5962
4.80800	5959
4.80867	5956
4.80933	5953
4.81000	5950
4.81067	5947
4.81133	5944
4.81200	5941
4.81267	5938
4.81333	5935
4.81400	5932
4.81467	5929
4.81533	5926
4.81600	5923
4.81667	5920
4.81733	5917
4.81800	5914
4.81867	5911
4.81933	5908
4.82000	5905
4.82067	5902
4.82133	5899
4.82200	5896
4.82267	5892
4.82333	5889
4.82400	5886
4.82467	5883
4.82533	5879
4.82600	5876
4.82667	5873
4.82733	5869
4.82800	5866
4.82867	5863
4.82933	5859
4.83000	5856
4.83067	5853
4.83133	5849
4.83200	5846
4.83267	5842
4.83333	5839
4.83400	5835
4.83467	5832
4.83533	5828
4.83600	5825
4.83667	5821
4.83733	5817
4.83800	5814
4.83867	5810
4.83933	5807
4.84000	5803
4.84067	5799
4.84133	5796
4.84200	5792
4.84267	5788
4.84333	5785
4.84400	5781
4.84467	5777
4.84533	5774
4.84600	5770
4.84667	5767
4.84733	5763
4.84800	5760
4.84867	5756
4.84933	5753
4.85000	5749
4.85067	5746
4.85133	5743
4.85200	5739
4.85267	5736
4.85333	5733
4.85400	5729
4.85467	5726
4.85533	5723
4.85600	5719
4.85667	5716
4.85733	5713
4.85800	5710
4.85867	5706
4.85933	5703
4.86000	5700
4.86067	5697
4.86133	5694
4.86200	5690
4.86267	5687
4.86333	5684
4.86400	5681
4.86467	5678
4.86533	5674
4.86600	5671
4.86667	5668
4.86733	5665
4.86800	5662
4.86867	5659
4.86933	5655
4.87000	5652
4.87067	5649
4.87133	5646
4.87200	5643
4.87267	5639
4.87333	5636
4.87400	5633
4.87467	5630
4.87533	5627
4.87600	5624
4.87667	5621
4.87733	5618
4.87800	5615
4.87867	5612
4.87933	5609
4.88000	5606
4.88067	5603
4.88133	5600
4.88200	5598
4.88267	5595
4.88333	5592
4.88400	5589
4.88467	5586
4.88533	5584
4.88600	5581
4.88667	5578
4.88733	5575
4.88800	5573
4.88867	5570
4.88933	5567
4.89000	5565
4.89067	5562
4.89133	5560
4.89200	5557
4.89267	5554
4.89333	5552
4.89400	5549
4.89467	5547
4.89533	5544
4.89600	5542
4.89667	5539
4.89733	5537
4.89800	5535
4.89867	5532
4.89933	5530
4.90000	5527
4.90067	5525
4.90133	5523
4.90200	5520
4.90267	5518
4.90333	5515
4.90400	5513
4.90467	5511
4.90533	5508
4.90600	5506
4.90667	5504
4.90733	5501
4.90800	5499
4.90867	5496
4.90933	5494
4.91000	5491
4.91067	5489
4.91133	5487
4.91200	5484
4.91267	5482
4.91333	5479
4.91400	5477
4.91467	5475
4.91533	5472
4.91600	5470
4.91667	5468
4.91733	5465
4.91800	5463
4.91867	5461
4.91933	5459
4.92000	5457
4.92067	5454
4.92133	5452
4.92200	5450
4.92267	5448
4.92333	5446
4.92400	5443
4.92467	5441
4.92533	5439
4.92600	5437
4.92667	5435
4.92733	5433
4.92800	5430
4.92867	5428
4.92933	5426
4.93000	5424
4.93067	5422
4.93133	5420
4.93200	5418
4.93267	5416
4.93333	5413
4.93400	5411
4.93467	5409
4.93533	5407
4.93600	5405
4.93667	5403
4.93733	5401
4.93800	5399
4.93867	5397
4.93933	5395
4.94000	5393
4.94067	5391
4.94133	5389
4.94200	5387
4.94267	5385
4.94333	5383
4.94400	5381
4.94467	5379
4.94533	5377
4.94600	5375
4.94667	5373
4.94733	5371
4.94800	5369
4.94867	5368
4.94933	5366
4.95000	5364
4.95067	5362
4.95133	5360
4.95200	5358
4.95267	5356
4.95333	5355
4.95400	5353
4.95467	5351
4.95533	5349
4.95600	5348
4.95667	5346
4.95733	5344
4.95800	5343
4.95867	5341
4.95933	5340
4.96000	5338
4.96067	5337
4.96133	5335
4.96200	5334
4.96267	5332
4.96333	5331
4.96400	5329
4.96467	5328
4.96533	5326
4.96600	5325
4.96667	5323
4.96733	5322
4.96800	5320
4.96867	5319
4.96933	5318
4.97000	5316
4.97067	5315
4.97133	5313
4.97200	5312
4.97267	5311
4.97333	5310
4.97400	5308
4.97467	5307
4.97533	5306
4.97600	5305
4.97667	5303
4.97733	5302
4.97800	5301
4.97867	5299
4.97933	5298
4.98000	5297
4.98067	5296
4.98133	5295
4.98200	5293
4.98267	5292
4.98333	5291
4.98400	5290
4.98467	5289
4.98533	5288
4.98600	5287
4.98667	5285
4.98733	5284
4.98800	5283
4.98867	5282
4.98933	5281
4.99000	5280
4.99067	5278
4.99133	5277
4.99200	5276
4.99267	5275
4.99333	5274
4.99400	5272
4.99467	5271
4.99533	5270
4.99600	5268
4.99667	5267
4.99733	5265
4.99800	5264
4.99867	5262
4.99933	5260
5.00000	5259
5.00067	5257
5.00133	5256
5.00200	5254
5.00267	5252
5.00333	5251
5.00400	5249
5.00467	5247
5.00533	5245
5.00600	5244
5.00667	5242
5.00733	5240
5.00800	5238
5.00867	5237
5.00933	5235
5.01000	5233
5.01067	5231
5.01133	5230
5.01200	5228
5.01267	5226
5.01333	5224
5.01400	5222
5.01467	5221
5.01533	5219
5.01600	5217
5.01667	5215
5.01733	5214
5.01800	5212
5.01867	5210
5.01933	5208
5.02000	5206
5.02067	5204
5.02133	5202
5.02200	5200
5.02267	5199
5.02333	5197
5.02400	5195
5.02467	5193
5.02533	5191
5.02600	5189
5.02667	5187
5.02733	5185
5.02800	5183
5.02867	5181
5.02933	5179
5.03000	5177
5.03067	5175
5.03133	5172
5.03200	5170
5.03267	5168
5.03333	5166
5.03400	5164
5.03467	5162
5.03533	5160
5.03600	5158
5.03667	5155
5.03733	5153
5.03800	5151
5.03867	5149
5.03933	5147
5.04000	5144
5.04067	5142
5.04133	5140
5.04200	5138
5.04267	5136
5.04333	5134
5.04400	5132
5.04467	5129
5.04533	5127
5.04600	5125
5.04667	5123
5.04733	5121
5.04800	5119
5.04867	5117
5.04933	5115
5.05000	5113
5.05067	5111
5.05133	5109
5.05200	5107
5.05267	5105
5.05333	5103
5.05400	5101
5.05467	5099
5.05533	5098
5.05600	5096
5.05667	5094
5.05733	5092
5.05800	5090
5.05867	5088
5.05933	5086
5.06000	5084
5.06067	5082
5.06133	5081
5.06200	5079
5.06267	5077
5.06333	5075
5.06400	5074
5.06467	5072
5.06533	5070
5.06600	5068
5.06667	5067
5.06733	5065
5.06800	5063
5.06867	5062
5.06933	5060
5.07000	5058
5.07067	5057
5.07133	5055
5.07200	5053
5.07267	5052
5.07333	5050
5.07400	5049
5.07467	5047
5.07533	5046
5.07600	5044
5.07667	5042
5.07733	5041
5.07800	5039
5.07867	5038
5.07933	5036
5.08000	5035
5.08067	5034
5.08133	5032
5.08200	5031
5.08267	5029
5.08333	5028
5.08400	5026
5.08467	5025
5.08533	5023
5.08600	5022
5.08667	5020
5.08733	5019
5.08800	5017
5.08867	5015
5.08933	5014
5.09000	5012
5.09067	5011
5.09133	5009
5.09200	5008
5.09267	5006
5.09333	5005
5.09400	5003
5.09467	5002
5.09533	5000
5.09600	4999
5.09667	4997
5.09733	4996
5.09800	4994
5.09867	4993
5.09933	4992
5.10000	4990
5.10067	4989
5.10133	4988
5.10200	4987
5.10267	4985
5.10333	4984
5.10400	4983
5.10467	4982
5.10533	4981
5.10600	4980
5.10667	4979
5.10733	4977
5.10800	4976
5.10867	4976
5.10933	4975
5.11000	4974
5.11067	4973
5.11133	4972
5.11200	4971
5.11267	4971
5.11333	4970
5.11400	4969
5.11467	4969
5.11533	4968
5.11600	4968
5.11667	4968
5.11733	4967
5.11800	4967
5.11867	4967
5.11933	4967
5.12000	4967
5.12067	4967
5.12133	4967
5.12200	4967
5.12267	4967
5.12333	4967
5.12400	4967
5.12467	4968
5.12533	4968
5.12600	4968
5.12667	4968
5.12733	4969
5.12800	4969
5.12867	4970
5.12933	4970
5.13000	4971
5.13067	4971
5.13133	4972
5.13200	4972
5.13267	4973
5.13333	4974
5.13400	4975
5.13467	4976
5.13533	4977
5.13600	4978
5.13667	4979
5.13733	4980
5.13800	4982
5.13867	4983
5.13933	4985
5.14000	4986
5.14067	4988
5.14133	4990
5.14200	4991
5.14267	4993
5.14333	4995
5.14400	4998
5.14467	5000
5.14533	5002
5.14600	5004
5.14667	5007
5.14733	5009
5.14800	5012
5.14867	5014
5.14933	5017
5.15000	5020
5.15067	5023
5.15133	5026
5.15200	5029
5.15267	5032
5.15333	5035
5.15400	5038
5.15467	5041
5.15533	5045
5.15600	5048
5.15667	5052
5.15733	5055
5.15800	5059
5.15867	5063
5.15933	5067
5.16000	5071
5.16067	5075
5.16133	5079
5.16200	5083
5.16267	5087
5.16333	5091
5.16400	5096
5.16467	5100
5.16533	5105
5.16600	5110
5.16667	5114
5.16733	5119
5.16800	5124
5.16867	5129
5.16933	5134
5.17000	5139
5.17067	5144
5.17133	5149
5.17200	5155
5.17267	5160
5.17333	5166
5.17400	5171
5.17467	5177
5.17533	5183
5.17600	5189
5.17667	5195
5.17733	5201
5.17800	5207
5.17867	5214
5.17933	5220
5.18000	5226
5.18067	5233
5.18133	5239
5.18200	5246
5.18267	5253
5.18333	5259
5.18400	5266
5.18467	5273
5.18533	5280
5.18600	5287
5.18667	5294
5.18733	5301
5.18800	5308
5.18867	5315
5.18933	5322
5.19000	5329
5.19067	5336
5.19133	5343
5.19200	5350
5.19267	5357
5.19333	5364
5.19400	5371
5.19467	5378
5.19533	5385
5.19600	5392
5.19667	5399
5.19733	5406
5.19800	5413
5.19867	5420
5.19933	5427
5.20000	5433
5.20067	5440
5.20133	5447
5.20200	5454
5.20267	5461
5.20333	5467
5.20400	5474
5.20467	5481
5.20533	5487
5.20600	5494
5.20667	5500
5.20733	5507
5.20800	5513
5.20867	5519
5.20933	5525
5.21000	5531
5.21067	5537
5.21133	5543
5.21200	5549
5.21267	5555
5.21333	5560
5.21400	5566
5.21467	5571
5.21533	5576
5.21600	5582
5.21667	5587
5.21733	5592
5.21800	5596
5.21867	5601
5.21933	5606
5.22000	5610
5.22067	5614
5.22133	5619
5.22200	5623
5.22267	5627
5.22333	5631
5.22400	5635
5.22467	5638
5.22533	5642
5.22600	5646
5.22667	5649
5.22733	5652
5.22800	5655
5.22867	5658
5.22933	5661
5.23000	5664
5.23067	5667
5.23133	5669
5.23200	5672
5.23267	5674
5.23333	5676
5.23400	5678
5.23467	5680
5.23533	5681
5.23600	5683
5.23667	5684
5.23733	5685
5.23800	5687
5.23867	5688
5.23933	5689
5.24000	5689
5.24067	5690
5.24133	5690
5.24200	5691
5.24267	5691
5.24333	5691
5.24400	5691
5.24467	5690
5.24533	5690
5.24600	5689
5.24667	5689
5.24733	5688
5.24800	5687
5.24867	5686
5.24933	5684
5.25000	5683
5.25067	5682
5.25133	5680
5.25200	5678
5.25267	5677
5.25333	5675
5.25400	5673
5.25467	5671
5.25533	5668
5.25600	5666
5.25667	5664
5.25733	5661
5.25800	5659
5.25867	5656
5.25933	5653
5.26000	5650
5.26067	5647
5.26133	5644
5.26200	5641
5.26267	5638
5.26333	5635
5.26400	5631
5.26467	5628
5.26533	5624
5.26600	5621
5.26667	5617
5.26733	5613
5.26800	5609
5.26867	5606
5.26933	5602
5.27000	5598
5.27067	5593
5.27133	5589
5.27200	5585
5.27267	5581
5.27333	5576
5.27400	5572
5.27467	5568
5.27533	5563
5.27600	5559
5.27667	5554
5.27733	5550
5.27800	5545
5.27867	5541
5.27933	5536
5.28000	5532
5.28067	5527
5.28133	5523
5.28200	5518
5.28267	5513
5.28333	5509
5.28400	5504
5.28467	5499
5.28533	5495
5.28600	5490
5.28667	5485
5.28733	5481
5.28800	5476
5.28867	5471
5.28933	5467
5.29000	5462
5.29067	5457
5.29133	5452
5.29200	5447
5.29267	5443
5.29333	5438
5.29400	5433
5.29467	5428
5.29533	5424
5.29600	5419
5.29667	5414
5.29733	5410
5.29800	5405
5.29867	5400
5.29933	5396
5.30000	5391
5.30067	5386
5.30133	5382
5.30200	5377
5.30267	5372
5.30333	5368
5.30400	5363
5.30467	5358
5.30533	5354
5.30600	5349
5.30667	5345
5.30733	5340
5.30800	5336
5.30867	5332
5.30933	5327
5.31000	5323
5.31067	5319
5.31133	5314
5.31200	5310
5.31267	5306
5.31333	5302
5.31400	5297
5.31467	5293
5.31533	5289
5.31600	5285
5.31667	5281
5.31733	5277
5.31800	5273
5.31867	5269
5.31933	5265
5.32000	5261
5.32067	5257
5.32133	5253
5.32200	5249
5.32267	5245
5.32333	5242
5.32400	5238
5.32467	5234
5.32533	5230
5.32600	5227
5.32667	5223
5.32733	5219
5.32800	5216
5.32867	5212
5.32933	5209
5.33000	5205
5.33067	5202
5.33133	5198
5.33200	5195
5.33267	5191
5.33333	5188
5.33400	5184
5.33467	5181
5.33533	5178
5.33600	5174
5.33667	5171
5.33733	5168
5.33800	5165
5.33867	5162
5.33933	5158
5.34000	5155
5.34067	5152
5.34133	5149
5.34200	5146
5.34267	5143
5.34333	5140
5.34400	5137
5.34467	5134
5.34533	5131
5.34600	5128
5.34667	5125
5.34733	5123
5.34800	5120
5.34867	5117
5.34933	5114
5.35000	5111
5.35067	5109
5.35133	5106
5.35200	5103
5.35267	5100
5.35333	5098
5.35400	5095
5.35467	5093
5.35533	5090
5.35600	5088
5.35667	5085
5.35733	5082
5.35800	5080
5.35867	5078
5.35933	5075
5.36000	5073
5.36067	5071
5.36133	5068
5.36200	5066
5.36267	5064
5.36333	5062
5.36400	5060
5.36467	5058
5.36533	5056
5.36600	5054
5.36667	5052
5.36733	5050
5.36800	5048
5.36867	5046
5.36933	5044
5.37000	5042
5.37067	5041
5.37133	5039
5.37200	5037
5.37267	5036
5.37333	5034
5.37400	5032
5.37467	5031
5.37533	5029
5.37600	5027
5.37667	5026
5.37733	5024
5.37800	5023
5.37867	5021
5.37933	5019
5.38000	5018
5.38067	5016
5.38133	5015
5.38200	5013
5.38267	5012
5.38333	5010
5.38400	5009
5.38467	5007
5.38533	5005
5.38600	5004
5.38667	5002
5.38733	5001
5.38800	4999
5.38867	4997
5.38933	4996
5.39000	4994
5.39067	4992
5.39133	4991
5.39200	4989
5.39267	4987
5.39333	4985
5.39400	4984
5.39467	4982
5.39533	4980
5.39600	4979
5.39667	4977
5.39733	4975
5.39800	4974
5.39867	4972
5.39933	4970
5.40000	4969
5.40067	4967
5.40133	4966
5.40200	4964
5.40267	4963
5.40333	4961
5.40400	4960
5.40467	4958
5.40533	4957
5.40600	4955
5.40667	4954
5.40733	4952
5.40800	4951
5.40867	4949
5.40933	4948
5.41000	4946
5.41067	4945
5.41133	4944
5.41200	4942
5.41267	4941
5.41333	4939
5.41400	4938
5.41467	4937
5.41533	4935
5.41600	4934
5.41667	4932
5.41733	4931
5.41800	4930
5.41867	4928
5.41933	4927
5.42000	4926
5.42067	4924
5.42133	4923
5.42200	4922
5.42267	4920
5.42333	4919
5.42400	4918
5.42467	4916
5.42533	4915
5.42600	4914
5.42667	4912
5.42733	4911
5.42800	4910
5.42867	4908
5.42933	4907
5.43000	4905
5.43067	4904
5.43133	4902
5.43200	4901
5.43267	4899
5.43333	4898
5.43400	4896
5.43467	4895
5.43533	4893
5.43600	4891
5.43667	4890
5.43733	4888
5.43800	4886
5.43867	4885
5.43933	4883
5.44000	4881
5.44067	4880
5.44133	4878
5.44200	4876
5.44267	4875
5.44333	4873
5.44400	4871
5.44467	4869
5.44533	4868
5.44600	4866
5.44667	4864
5.44733	4862
5.44800	4861
5.44867	4859
5.44933	4857
5.45000	4855
5.45067	4853
5.45133	4852
5.45200	4850
5.45267	4848
5.45333	4846
5.45400	4844
5.45467	4842
5.45533	4841
5.45600	4839
5.45667	4837
5.45733	4835
5.45800	4833
5.45867	4831
5.45933	4830
5.46000	4828
5.46067	4826
5.46133	4824
5.46200	4822
5.46267	4820
5.46333	4818
5.46400	4817
5.46467	4815
5.46533	4813
5.46600	4811
5.46667	4809
5.46733	4808
5.46800	4806
5.46867	4804
5.46933	4802
5.47000	4800
5.47067	4799
5.47133	4797
5.47200	4795
5.47267	4793
5.47333	4792
5.47400	4790
5.47467	4788
5.47533	4787
5.47600	4785
5.47667	4784
5.47733	4782
5.47800	4781
5.47867	4779
5.47933	4778
5.48000	4777
5.48067	4775
5.48133	4774
5.48200	4772
5.48267	4771
5.48333	4769
5.48400	4767
5.48467	4766
5.48533	4764
5.48600	4763
5.48667	4761
5.48733	4760
5.48800	4758
5.48867	4757
5.48933	4756
5.49000	4754
5.49067	4753
5.49133	4751
5.49200	4750
5.49267	4748
5.49333	4747
5.49400	4745
5.49467	4744
5.49533	4743
5.49600	4741
5.49667	4740
5.49733	4738
5.49800	4737
5.49867	4735
5.49933	4734
5.50000	4733
5.50067	4731
5.50133	4730
5.50200	4728
5.50267	4727
5.50333	4726
5.50400	4724
5.50467	4723
5.50533	4721
5.50600	4720
5.50667	4718
5.50733	4717
5.50800	4716
5.50867	4714
5.50933	4713
5.51000	4712
5.51067	4710
5.51133	4709
5.51200	4708
5.51267	4707
5.51333	4705
5.51400	4704
5.51467	4703
5.51533	4702
5.51600	4701
5.51667	4700
5.51733	4699
5.51800	4698
5.51867	4697
5.51933	4696
5.52000	4695
5.52067	4694
5.52133	4693
5.52200	4692
5.52267	4692
5.52333	4691
5.52400	4690
5.52467	4689
5.52533	4688
5.52600	4687
5.52667	4686
5.52733	4685
5.52800	4684
5.52867	4684
5.52933	4683
5.53000	4682
5.53067	4681
5.53133	4680
5.53200	4679
5.53267	4678
5.53333	4677
5.53400	4676
5.53467	4675
5.53533	4675
5.53600	4674
5.53667	4673
5.53733	4672
5.53800	4671
5.53867	4671
5.53933	4670
5.54000	4669
5.54067	4668
5.54133	4668
5.54200	4667
5.54267	4666
5.54333	4666
5.54400	4665
5.54467	4665
5.54533	4664
5.54600	4663
5.54667	4663
5.54733	4662
5.54800	4662
5.54867	4661
5.54933	4661
5.55000	4660
5.55067	4660
5.55133	4659
5.55200	4659
5.55267	4659
5.55333	4658
5.55400	4658
5.55467	4658
5.55533	4657
5.55600	4657
5.55667	4657
5.55733	4657
5.55800	4657
5.55867	4657
5.55933	4657
5.56000	4657
5.56067	4657
5.56133	4657
5.56200	4657
5.56267	4657
5.56333	4657
5.56400	4657
5.56467	4657
5.56533	4657
5.56600	4657
5.56667	4657
5.56733	4657
5.56800	4657
5.56867	4657
5.56933	4657
5.57000	4657
5.57067	4657
5.57133	4658
5.57200	4658
5.57267	4658
5.57333	4658
5.57400	4658
5.57467	4658
5.57533	4658
5.57600	4658
5.57667	4658
5.57733	4658
5.57800	4658
5.57867	4658
5.57933	4658
5.58000	4658
5.58067	4658
5.58133	4658
5.58200	4658
5.58267	4658
5.58333	4658
5.58400	4657
5.58467	4657
5.58533	4657
5.58600	4657
5.58667	4657
5.58733	4656
5.58800	4656
5.58867	4656
5.58933	4656
5.59000	4656
5.59067	4655
5.59133	4655
5.59200	4655
5.59267	4655
5.59333	4655
5.59400	4654
5.59467	4654
5.59533	4654
5.59600	4653
5.59667	4653
5.59733	4653
5.59800	4652
5.59867	4652
5.59933	4651
5.60000	4651
5.60067	4650
5.60133	4650
5.60200	4650
5.60267	4649
5.60333	4649
5.60400	4648
5.60467	4648
5.60533	4647
5.60600	4647
5.60667	4646
5.60733	4645
5.60800	4645
5.60867	4644
5.60933	4644
5.61000	4643
5.61067	4643
5.61133	4642
5.61200	4642
5.61267	4641
5.61333	4640
5.61400	4640
5.61467	4639
5.61533	4639
5.61600	4638
5.61667	4638
5.61733	4637
5.61800	4637
5.61867	4636
5.61933	4636
5.62000	4635
5.62067	4634
5.62133	4634
5.62200	4633
5.62267	4633
5.62333	4632
5.62400	4632
5.62467	4631
5.62533	4630
5.62600	4630
5.62667	4629
5.62733	4629
5.62800	4628
5.62867	4627
5.62933	4627
5.63000	4626
5.63067	4626
5.63133	4625
5.63200	4625
5.63267	4624
5.63333	4624
5.63400	4623
5.63467	4623
5.63533	4622
5.63600	4621
5.63667	4621
5.63733	4620
5.63800	4619
5.63867	4619
5.63933	4618
5.64000	4617
5.64067	4617
5.64133	4616
5.64200	4615
5.64267	4614
5.64333	4614
5.64400	4613
5.64467	4612
5.64533	4611
5.64600	4610
5.64667	4610
5.64733	4609
5.64800	4608
5.64867	4607
5.64933	4606
5.65000	4606
5.65067	4605
5.65133	4604
5.65200	4603
5.65267	4602
5.65333	4601
5.65400	4600
5.65467	4599
5.65533	4599
5.65600	4598
5.65667	4597
5.65733	4596
5.65800	4595
5.65867	4594
5.65933	4593
5.66000	4592
5.66067	4591
5.66133	4590
5.66200	4589
5.66267	4588
5.66333	4587
5.66400	4586
5.66467	4585
5.66533	4584
5.66600	4583
5.66667	4582
5.66733	4581
5.66800	4580
5.66867	4579
5.66933	4578
5.67000	4577
5.67067	4576
5.67133	4574
5.67200	4573
5.67267	4572
5.67333	4571
5.67400	4570
5.67467	4569
5.67533	4567
5.67600	4566
5.67667	4565
5.67733	4564
5.67800	4563
5.67867	4561
5.67933	4560
5.68000	4559
5.68067	4558
5.68133	4557
5.68200	4556
5.68267	4554
5.68333	4553
5.68400	4552
5.68467	4551
5.68533	4550
5.68600	4549
5.68667	4548
5.68733	4546
5.68800	4545
5.68867	4544
5.68933	4543
5.69000	4542
5.69067	4541
5.69133	4540
5.69200	4539
5.69267	4538
5.69333	4537
5.69400	4536
5.69467	4535
5.69533	4533
5.69600	4532
5.69667	4531
5.69733	4530
5.69800	4529
5.69867	4528
5.69933	4527
5.70000	4526
5.70067	4525
5.70133	4524
5.70200	4522
5.70267	4521
5.70333	4520
5.70400	4519
5.70467	4518
5.70533	4517
5.70600	4516
5.70667	4515
5.70733	4514
5.70800	4513
5.70867	4512
5.70933	4512
5.71000	4511
5.71067	4510
5.71133	4509
5.71200	4508
5.71267	4508
5.71333	4507
5.71400	4506
5.71467	4505
5.71533	4505
5.71600	4504
5.71667	4503
5.71733	4502
5.71800	4502
5.71867	4501
5.71933	4500
5.72000	4499
5.72067	4498
5.72133	4498
5.72200	4497
5.72267	4496
5.72333	4495
5.72400	4495
5.72467	4494
5.72533	4493
5.72600	4493
5.72667	4492
5.72733	4491
5.72800	4491
5.72867	4490
5.72933	4489
5.73000	4489
5.73067	4488
5.73133	4488
5.73200	4487
5.73267	4487
5.73333	4486
5.73400	4485
5.73467	4485
5.73533	4484
5.73600	4484
5.73667	4483
5.73733	4483
5.73800	4482
5.73867	4482
5.73933	4481
5.74000	4481
5.74067	4480
5.74133	4479
5.74200	4479
5.74267	4478
5.74333	4478
5.74400	4477
5.74467	4477
5.74533	4476
5.74600	4476
5.74667	4476
5.74733	4475
5.74800	4475
5.74867	4474
5.74933	4474
5.75000	4474
5.75067	4474
5.75133	4473
5.75200	4473
5.75267	4473
5.75333	4473
5.75400	4473
5.75467	4473
5.75533	4472
5.75600	4472
5.75667	4472
5.75733	4472
5.75800	4472
5.75867	4472
5.75933	4472
5.76000	4471
5.76067	4471
5.76133	4471
5.76200	4471
5.76267	4471
5.76333	4471
5.76400	4471
5.76467	4471
5.76533	4471
5.76600	4471
5.76667	4471
5.76733	4471
5.76800	4471
5.76867	4471
5.76933	4471
5.77000	4471
5.77067	4471
5.77133	4471
5.77200	4471
5.77267	4471
5.77333	4471
5.77400	4471
5.77467	4471
5.77533	4471
5.77600	4471
5.77667	4471
5.77733	4472
5.77800	4472
5.77867	4472
5.77933	4472
5.78000	4472
5.78067	4472
5.78133	4472
5.78200	4472
5.78267	4472
5.78333	4473
5.78400	4473
5.78467	4473
5.78533	4473
5.78600	4474
5.78667	4474
5.78733	4474
5.78800	4474
5.78867	4475
5.78933	4475
5.79000	4475
5.79067	4475
5.79133	4476
5.79200	4476
5.79267	4476
5.79333	4477
5.79400	4477
5.79467	4477
5.79533	4478
5.79600	4478
5.79667	4479
5.79733	4479
5.79800	4479
5.79867	4480
5.79933	4480
5.80000	4481
5.80067	4481
5.80133	4482
5.80200	4482
5.80267	4483
5.80333	4483
5.80400	4483
5.80467	4484
5.80533	4484
5.80600	4485
5.80667	4485
5.80733	4485
5.80800	4486
5.80867	4486
5.80933	4486
5.81000	4487
5.81067	4487
5.81133	4487
5.81200	4487
5.81267	4488
5.81333	4488
5.81400	4488
5.81467	4489
5.81533	4489
5.81600	4489
5.81667	4490
5.81733	4490
5.81800	4490
5.81867	4491
5.81933	4491
5.82000	4491
5.82067	4491
5.82133	4492
5.82200	4492
5.82267	4492
5.82333	4493
5.82400	4493
5.82467	4493
5.82533	4494
5.82600	4494
5.82667	4494
5.82733	4494
5.82800	4495
5.82867	4495
5.82933	4495
5.83000	4495
5.83067	4496
5.83133	4496
5.83200	4496
5.83267	4496
5.83333	4496
5.83400	4496
5.83467	4497
5.83533	4497
5.83600	4497
5.83667	4497
5.83733	4497
5.83800	4497
5.83867	4497
5.83933	4497
5.84000	4497
5.84067	4497
5.84133	4497
5.84200	4497
5.84267	4497
5.84333	4497
5.84400	4497
5.84467	4497
5.84533	4497
5.84600	4497
5.84667	4497
5.84733	4496
5.84800	4496
5.84867	4496
5.84933	4496
5.85000	4496
5.85067	4496
5.85133	4496
5.85200	4496
5.85267	4496
5.85333	4496
5.85400	4497
5.85467	4497
5.85533	4497
5.85600	4497
5.85667	4497
5.85733	4497
5.85800	4497
5.85867	4497
5.85933	4497
5.86000	4497
5.86067	4497
5.86133	4497
5.86200	4497
5.86267	4497
5.86333	4497
5.86400	4497
5.86467	4497
5.86533	4497
5.86600	4497
5.86667	4497
5.86733	4497
5.86800	4497
5.86867	4497
5.86933	4497
5.87000	4497
5.87067	4497
5.87133	4496
5.87200	4496
5.87267	4496
5.87333	4496
5.87400	4496
5.87467	4496
5.87533	4496
5.87600	4495
5.87667	4495
5.87733	4495
5.87800	4495
5.87867	4494
5.87933	4494
5.88000	4494
5.88067	4494
5.88133	4493
5.88200	4493
5.88267	4493
5.88333	4492
5.88400	4492
5.88467	4492
5.88533	4492
5.88600	4491
5.88667	4491
5.88733	4491
5.88800	4490
5.88867	4490
5.88933	4489
5.89000	4489
5.89067	4489
5.89133	4488
5.89200	4488
5.89267	4487
5.89333	4487
5.89400	4487
5.89467	4486
5.89533	4486
5.89600	4486
5.89667	4485
5.89733	4485
5.89800	4485
5.89867	4485
5.89933	4484
5.90000	4484
5.90067	4484
5.90133	4484
5.90200	4483
5.90267	4483
5.90333	4483
5.90400	4483
5.90467	4482
5.90533	4482
5.90600	4482
5.90667	4482
5.90733	4482
5.90800	4481
5.90867	4481
5.90933	4481
5.91000	4480
5.91067	4480
5.91133	4480
5.91200	4480
5.91267	4479
5.91333	4479
5.91400	4479
5.91467	4479
5.91533	4478
5.91600	4478
5.91667	4478
5.91733	4478
5.91800	4478
5.91867	4477
5.91933	4477
5.92000	4477
5.92067	4477
5.92133	4476
5.92200	4476
5.92267	4476
5.92333	4476
5.92400	4475
5.92467	4475
5.92533	4475
5.92600	4475
5.92667	4475
5.92733	4475
5.92800	4475
5.92867	4474
5.92933	4474
5.93000	4474
5.93067	4474
5.93133	4474
5.93200	4474
5.93267	4474
5.93333	4474
5.93400	4474
5.93467	4474
5.93533	4474
5.93600	4474
5.93667	4475
5.93733	4475
5.93800	4475
5.93867	4475
5.93933	4475
5.94000	4475
5.94067	4475
5.94133	4476
5.94200	4476
5.94267	4476
5.94333	4476
5.94400	4477
5.94467	4477
5.94533	4477
5.94600	4478
5.94667	4478
5.94733	4478
5.94800	4479
5.94867	4479
5.94933	4480
5.95000	4480
5.95067	4481
5.95133	4481
5.95200	4481
5.95267	4482
5.95333	4482
5.95400	4483
5.95467	4483
5.95533	4484
5.95600	4484
5.95667	4485
5.95733	4485
5.95800	4486
5.95867	4486
5.95933	4487
5.96000	4487
5.96067	4488
5.96133	4489
5.96200	4489
5.96267	4490
5.96333	4490
5.96400	4491
5.96467	4491
5.96533	4492
5.96600	4493
5.96667	4493
5.96733	4494
5.96800	4494
5.96867	4495
5.96933	4496
5.97000	4496
5.97067	4497
5.97133	4497
5.97200	4498
5.97267	4499
5.97333	4499
5.97400	4500
5.97467	4500
5.97533	4501
5.97600	4501
5.97667	4502
5.97733	4502
5.97800	4503
5.97867	4503
5.97933	4504
5.98000	4504
5.98067	4504
5.98133	4505
5.98200	4505
5.98267	4506
5.98333	4506
5.98400	4506
5.98467	4507
5.98533	4507
5.98600	4507
5.98667	4507
5.98733	4508
5.98800	4508
5.98867	4508
5.98933	4509
5.99000	4509
5.99067	4509
5.99133	4509
5.99200	4510
5.99267	4510
5.99333	4510
5.99400	4510
5.99467	4511
5.99533	4511
5.99600	4511
5.99667	4511
5.99733	4511
5.99800	4512
5.99867	4512
5.99933	4512
6.00000	4512
6.00067	4513
6.00133	4513
6.00200	4513
6.00267	4513
6.00333	4513
6.00400	4514
6.00467	4514
6.00533	4514
6.00600	4514
6.00667	4515
6.00733	4515
6.00800	4515
6.00867	4515
6.00933	4515
6.01000	4516
6.01067	4516
6.01133	4516
6.01200	4516
6.01267	4516
6.01333	4516
6.01400	4517
6.01467	4517
6.01533	4517
6.01600	4517
6.01667	4517
6.01733	4518
6.01800	4518
6.01867	4518
6.01933	4518
6.02000	4518
6.02067	4519
6.02133	4519
6.02200	4519
6.02267	4519
6.02333	4519
6.02400	4519
6.02467	4520
6.02533	4520
6.02600	4520
6.02667	4520
6.02733	4520
6.02800	4520
6.02867	4520
6.02933	4520
6.03000	4520
6.03067	4520
6.03133	4520
6.03200	4520
6.03267	4520
6.03333	4520
6.03400	4520
6.03467	4520
6.03533	4520
6.03600	4520
6.03667	4520
6.03733	4520
6.03800	4520
6.03867	4519
6.03933	4519
6.04000	4519
6.04067	4519
6.04133	4519
6.04200	4519
6.04267	4519
6.04333	4518
6.04400	4518
6.04467	4518
6.04533	4518
6.04600	4518
6.04667	4517
6.04733	4517
6.04800	4517
6.04867	4517
6.04933	4516
6.05000	4516
6.05067	4516
6.05133	4515
6.05200	4515
6.05267	4515
6.05333	4514
6.05400	4514
6.05467	4514
6.05533	4513
6.05600	4513
6.05667	4512
6.05733	4512
6.05800	4512
6.05867	4511
6.05933	4511
6.06000	4510
6.06067	4510
6.06133	4509
6.06200	4509
6.06267	4509
6.06333	4508
6.06400	4508
6.06467	4507
6.06533	4507
6.06600	4507
6.06667	4506
6.06733	4506
6.06800	4506
6.06867	4505
6.06933	4505
6.07000	4504
6.07067	4504
6.07133	4503
6.07200	4503
6.07267	4502
6.07333	4501
6.07400	4501
6.07467	4500
6.07533	4500
6.07600	4499
6.07667	4499
6.07733	4498
6.07800	4498
6.07867	4497
6.07933	4496
6.08000	4496
6.08067	4495
6.08133	4495
6.08200	4494
6.08267	4494
6.08333	4493
6.08400	4493
6.08467	4492
6.08533	4492
6.08600	4491
6.08667	4491
6.08733	4490
6.08800	4489
6.08867	4489
6.08933	4488
6.09000	4488
6.09067	4487
6.09133	4487
6.09200	4486
6.09267	4486
6.09333	4485
6.09400	4485
6.09467	4484
6.09533	4484
6.09600	4483
6.09667	4483
6.09733	4482
6.09800	4481
6.09867	4481
6.09933	4480
6.10000	4480
6.10067	4479
6.10133	4479
6.10200	4478
6.10267	4477
6.10333	4477
6.10400	4476
6.10467	4475
6.10533	4475
6.10600	4474
6.10667	4473
6.10733	4473
6.10800	4472
6.10867	4471
6.10933	4470
6.11000	4470
6.11067	4469
6.11133	4468
6.11200	4467
6.11267	4467
6.11333	4466
6.11400	4465
6.11467	4465
6.11533	4464
6.11600	4463
6.11667	4462
6.11733	4461
6.11800	4461
6.11867	4460
6.11933	4459
6.12000	4458
6.12067	4457
6.12133	4456
6.12200	4455
6.12267	4454
6.12333	4453
6.12400	4453
6.12467	4452
6.12533	4451
6.12600	4450
6.12667	4449
6.12733	4448
6.12800	4447
6.12867	4447
6.12933	4446
6.13000	4445
6.13067	4444
6.13133	4444
6.13200	4443
6.13267	4442
6.13333	4441
6.13400	4440
6.13467	4439
6.13533	4438
6.13600	4438
6.13667	4437
6.13733	4436
6.13800	4435
6.13867	4434
6.13933	4434
6.14000	4433
6.14067	4432
6.14133	4431
6.14200	4430
6.14267	4429
6.14333	4429
6.14400	4428
6.14467	4427
6.14533	4426
6.14600	4425
6.14667	4425
6.14733	4424
6.14800	4423
6.14867	4422
6.14933	4422
6.15000	4421
6.15067	4420
6.15133	4419
6.15200	4419
6.15267	4418
6.15333	4417
6.15400	4416
6.15467	4416
6.15533	4415
6.15600	4414
6.15667	4414
6.15733	4413
6.15800	4412
6.15867	4412
6.15933	4411
6.16000	4410
6.16067	4410
6.16133	4409
6.16200	4408
6.16267	4408
6.16333	4407
6.16400	4406
6.16467	4406
6.16533	4405
6.16600	4404
6.16667	4404
6.16733	4403
6.16800	4402
6.16867	4402
6.16933	4401
6.17000	4401
6.17067	4400
6.17133	4400
6.17200	4399
6.17267	4399
6.17333	4398
6.17400	4398
6.17467	4397
6.17533	4397
6.17600	4396
6.17667	4396
6.17733	4395
6.17800	4395
6.17867	4394
6.17933	4394
6.18000	4393
6.18067	4392
6.18133	4392
6.18200	4391
6.18267	4391
6.18333	4390
6.18400	4390
6.18467	4389
6.18533	4389
6.18600	4388
6.18667	4388
6.18733	4388
6.18800	4387
6.18867	4387
6.18933	4386
6.19000	4386
6.19067	4385
6.19133	4385
6.19200	4384
6.19267	4384
6.19333	4384
6.19400	4383
6.19467	4383
6.19533	4383
6.19600	4382
6.19667	4382
6.19733	4381
6.19800	4381
6.19867	4381
6.19933	4381
6.20000	4380
6.20067	4380
6.20133	4380
6.20200	4379
6.20267	4379
6.20333	4379
6.20400	4379
6.20467	4378
6.20533	4378
6.20600	4378
6.20667	4378
6.20733	4378
6.20800	4377
6.20867	4377
6.20933	4377
6.21000	4377
6.21067	4377
6.21133	4377
6.21200	4377
6.21267	4376
6.21333	4376
6.21400	4376
6.21467	4376
6.21533	4376
6.21600	4376
6.21667	4376
6.21733	4376
6.21800	4375
6.21867	4375
6.21933	4375
6.22000	4375
6.22067	4375
6.22133	4375
6.22200	4375
6.22267	4375
6.22333	4375
6.22400	4375
6.22467	4375
6.22533	4375
6.22600	4375
6.22667	4375
6.22733	4375
6.22800	4375
6.22867	4375
6.22933	4375
6.23000	4375
6.23067	4375
6.23133	4375
6.23200	4375
6.23267	4375
6.23333	4375
6.23400	4376
6.23467	4376
6.23533	4376
6.23600	4376
6.23667	4376
6.23733	4377
6.23800	4377
6.23867	4377
6.23933	4377
6.24000	4377
6.24067	4378
6.24133	4378
6.24200	4378
6.24267	4378
6.24333	4378
6.24400	4379
6.24467	4379
6.24533	4379
6.24600	4379
6.24667	4379
6.24733	4380
6.24800	4380
6.24867	4380
6.24933	4380
6.25000	4381
6.25067	4381
6.25133	4381
6.25200	4381
6.25267	4381
6.25333	4382
6.25400	4382
6.25467	4382
6.25533	4382
6.25600	4382
6.25667	4383
6.25733	4383
6.25800	4383
6.25867	4383
6.25933	4384
6.26000	4384
6.26067	4384
6.26133	4384
6.26200	4384
6.26267	4385
6.26333	4385
6.26400	4385
6.26467	4385
6.26533	4386
6.26600	4386
6.26667	4386
6.26733	4386
6.26800	4386
6.26867	4387
6.26933	4387
6.27000	4387
6.27067	4387
6.27133	4388
6.27200	4388
6.27267	4388
6.27333	4388
6.27400	4388
6.27467	4388
6.27533	4389
6.27600	4389
6.27667	4389
6.27733	4389
6.27800	4389
6.27867	4390
6.27933	4390
6.28000	4390
6.28067	4390
6.28133	4390
6.28200	4391
6.28267	4391
6.28333	4391
6.28400	4391
6.28467	4391
6.28533	4391
6.28600	4392
6.28667	4392
6.28733	4392
6.28800	4392
6.28867	4392
6.28933	4393
6.29000	4393
6.29067	4393
6.29133	4393
6.29200	4394
6.29267	4394
6.29333	4394
6.29400	4394
6.29467	4394
6.29533	4394
6.29600	4394
6.29667	4394
6.29733	4394
6.29800	4394
6.29867	4394
6.29933	4394
6.30000	4394
6.30067	4393
6.30133	4393
6.30200	4393
6.30267	4393
6.30333	4393
6.30400	4392
6.30467	4392
6.30533	4392
6.30600	4392
6.30667	4391
6.30733	4391
6.30800	4391
6.30867	4391
6.30933	4390
6.31000	4390
6.31067	4390
6.31133	4389
6.31200	4389
6.31267	4389
6.31333	4388
6.31400	4388
6.31467	4387
6.31533	4387
6.31600	4387
6.31667	4386
6.31733	4386
6.31800	4385
6.31867	4385
6.31933	4385
6.32000	4384
6.32067	4384
6.32133	4383
6.32200	4383
6.32267	4382
6.32333	4382
6.32400	4381
6.32467	4381
6.32533	4380
6.32600	4380
6.32667	4380
6.32733	4379
6.32800	4379
6.32867	4378
6.32933	4378
6.33000	4377
6.33067	4377
6.33133	4376
6.33200	4376
6.33267	4375
6.33333	4375
6.33400	4374
6.33467	4374
6.33533	4373
6.33600	4373
6.33667	4372
6.33733	4372
6.33800	4372
6.33867	4371
6.33933	4371
6.34000	4370
6.34067	4370
6.34133	4370
6.34200	4369
6.34267	4369
6.34333	4368
6.34400	4368
6.34467	4368
6.34533	4367
6.34600	4367
6.34667	4366
6.34733	4366
6.34800	4365
6.34867	4365
6.34933	4365
6.35000	4364
6.35067	4364
6.35133	4363
6.35200	4363
6.35267	4362
6.35333	4362
6.35400	4361
6.35467	4361
6.35533	4360
6.35600	4360
6.35667	4360
6.35733	4359
6.35800	4359
6.35867	4358
6.35933	4358
6.36000	4357
6.36067	4357
6.36133	4356
6.36200	4356
6.36267	4356
6.36333	4355
6.36400	4355
6.36467	4354
6.36533	4354
6.36600	4354
6.36667	4353
6.36733	4353
6.36800	4353
6.36867	4352
6.36933	4352
6.37000	4351
6.37067	4351
6.37133	4351
6.37200	4350
6.37267	4350
6.37333	4349
6.37400	4349
6.37467	4349
6.37533	4348
6.37600	4348
6.37667	4348
6.37733	4347
6.37800	4347
6.37867	4347
6.37933	4347
6.38000	4346
6.38067	4346
6.38133	4346
6.38200	4346
6.38267	4345
6.38333	4345
6.38400	4345
6.38467	4345
6.38533	4344
6.38600	4344
6.38667	4344
6.38733	4344
6.38800	4344
6.38867	4344
6.38933	4343
6.39000	4343
6.39067	4343
6.39133	4343
6.39200	4343
6.39267	4343
6.39333	4342
6.39400	4342
6.39467	4342
6.39533	4342
6.39600	4342
6.39667	4342
6.39733	4341
6.39800	4341
6.39867	4341
6.39933	4341

