[Header]
Application Name	LabSolutions
Version	5.73
Data File Name	C:\LabSolutions\Data\Project1\stephen\2016-01-06\99.gcd
Output Date	1/11/2016
Output Time	1:20:00 PM

[Configuration]
Instrument Name	WEISSTA-PC-Instrument1
Instrument #	1
Line #	1
# of Detectors	1
Detector ID	DET#2
Detector Name	DFID1
# of Channels	1

[Chromatogram (Ch1)]
Interval(msec)	40
# of Points	9600
Start Time(min)	0.000
End Time(min)	6.399
R.Time (min)	Intensity
0.00000	13
0.00067	13
0.00133	13
0.00200	13
0.00267	13
0.00333	13
0.00400	13
0.00467	14
0.00533	14
0.00600	14
0.00667	14
0.00733	14
0.00800	13
0.00867	13
0.00933	12
0.01000	11
0.01067	10
0.01133	8
0.01200	6
0.01267	3
0.01333	0
0.01400	-3
0.01467	-7
0.01533	-11
0.01600	-15
0.01667	-20
0.01733	-25
0.01800	-30
0.01867	-35
0.01933	-40
0.02000	-46
0.02067	-51
0.02133	-56
0.02200	-62
0.02267	-67
0.02333	-72
0.02400	-77
0.02467	-82
0.02533	-86
0.02600	-91
0.02667	-95
0.02733	-99
0.02800	-103
0.02867	-107
0.02933	-111
0.03000	-114
0.03067	-117
0.03133	-121
0.03200	-123
0.03267	-126
0.03333	-129
0.03400	-131
0.03467	-133
0.03533	-135
0.03600	-137
0.03667	-139
0.03733	-140
0.03800	-142
0.03867	-143
0.03933	-144
0.04000	-145
0.04067	-146
0.04133	-147
0.04200	-148
0.04267	-149
0.04333	-150
0.04400	-151
0.04467	-151
0.04533	-152
0.04600	-152
0.04667	-152
0.04733	-153
0.04800	-153
0.04867	-153
0.04933	-153
0.05000	-153
0.05067	-154
0.05133	-154
0.05200	-154
0.05267	-154
0.05333	-154
0.05400	-153
0.05467	-153
0.05533	-153
0.05600	-153
0.05667	-153
0.05733	-153
0.05800	-153
0.05867	-152
0.05933	-152
0.06000	-152
0.06067	-152
0.06133	-151
0.06200	-151
0.06267	-151
0.06333	-151
0.06400	-151
0.06467	-150
0.06533	-150
0.06600	-150
0.06667	-150
0.06733	-149
0.06800	-149
0.06867	-149
0.06933	-149
0.07000	-148
0.07067	-148
0.07133	-148
0.07200	-147
0.07267	-147
0.07333	-147
0.07400	-147
0.07467	-146
0.07533	-146
0.07600	-146
0.07667	-145
0.07733	-145
0.07800	-145
0.07867	-145
0.07933	-145
0.08000	-144
0.08067	-144
0.08133	-144
0.08200	-144
0.08267	-144
0.08333	-144
0.08400	-143
0.08467	-143
0.08533	-143
0.08600	-141
0.08667	-133
0.08733	-118
0.08800	-89
0.08867	-21
0.08933	95
0.09000	252
0.09067	484
0.09133	775
0.09200	1116
0.09267	1529
0.09333	2041
0.09400	2634
0.09467	3350
0.09533	4157
0.09600	5043
0.09667	6000
0.09733	6993
0.09800	8077
0.09867	9262
0.09933	10597
0.10000	12102
0.10067	13722
0.10133	15444
0.10200	17272
0.10267	19164
0.10333	21059
0.10400	22994
0.10467	24973
0.10533	27073
0.10600	29208
0.10667	31344
0.10733	33481
0.10800	35624
0.10867	37811
0.10933	39958
0.11000	42065
0.11067	44100
0.11133	46120
0.11200	48126
0.11267	50046
0.11333	51872
0.11400	53676
0.11467	55422
0.11533	57080
0.11600	58623
0.11667	60110
0.11733	61543
0.11800	62930
0.11867	64252
0.11933	65471
0.12000	66600
0.12067	67635
0.12133	68577
0.12200	69455
0.12267	70331
0.12333	71144
0.12400	71864
0.12467	72493
0.12533	73076
0.12600	73664
0.12667	74173
0.12733	74621
0.12800	75016
0.12867	75316
0.12933	75536
0.13000	75689
0.13067	75750
0.13133	75729
0.13200	75676
0.13267	75576
0.13333	75417
0.13400	75305
0.13467	75546
0.13533	77162
0.13600	82750
0.13667	98092
0.13733	133809
0.13800	208028
0.13867	346605
0.13933	581803
0.14000	946073
0.14067	1470749
0.14133	2182133
0.14200	3103043
0.14267	4249493
0.14333	5632524
0.14400	7257594
0.14467	9125941
0.14533	11228954
0.14600	13555490
0.14667	16123919
0.14733	18969251
0.14800	22104869
0.14867	25523407
0.14933	29204172
0.15000	33118470
0.15067	37235867
0.15133	41527024
0.15200	45964382
0.15267	50522614
0.15333	55177985
0.15400	59908802
0.15467	64694479
0.15533	69515439
0.15600	74352838
0.15667	79189432
0.15733	84008471
0.15800	88794468
0.15867	93532794
0.15933	98209237
0.16000	102810360
0.16067	107323661
0.16133	111736945
0.16200	116039007
0.16267	120219102
0.16333	124267492
0.16400	128175233
0.16467	131934021
0.16533	135536711
0.16600	138977433
0.16667	142251504
0.16733	145355000
0.16800	148284776
0.16867	151038518
0.16933	153614658
0.17000	156012249
0.17067	158231795
0.17133	160275146
0.17200	162144909
0.17267	163843071
0.17333	165371412
0.17400	166730900
0.17467	167923309
0.17533	168950926
0.17600	169816806
0.17667	170524280
0.17733	171077305
0.17800	171480174
0.17867	171737472
0.17933	171853845
0.18000	171834030
0.18067	171682763
0.18133	171404753
0.18200	171004842
0.18267	170487859
0.18333	169858596
0.18400	169121768
0.18467	168282171
0.18533	167344557
0.18600	166313750
0.18667	165194444
0.18733	163991406
0.18800	162709335
0.18867	161353054
0.18933	159927353
0.19000	158436960
0.19067	156886403
0.19133	155280088
0.19200	153622204
0.19267	151916804
0.19333	150167759
0.19400	148378872
0.19467	146553783
0.19533	144696010
0.19600	142808959
0.19667	140895959
0.19733	138960258
0.19800	137005041
0.19867	135033421
0.19933	133048447
0.20000	131053209
0.20067	129050902
0.20133	127044630
0.20200	125037056
0.20267	123030271
0.20333	121025870
0.20400	119025194
0.20467	117029414
0.20533	115039705
0.20600	113057214
0.20667	111083153
0.20733	109118751
0.20800	107165201
0.20867	105223673
0.20933	103295309
0.21000	101381181
0.21067	99482309
0.21133	97599652
0.21200	95734120
0.21267	93886560
0.21333	92057747
0.21400	90248383
0.21467	88459112
0.21533	86690533
0.21600	84943183
0.21667	83217558
0.21733	81514077
0.21800	79833098
0.21867	78174940
0.21933	76539891
0.22000	74928175
0.22067	73339983
0.22133	71775462
0.22200	70234727
0.22267	68717851
0.22333	67224884
0.22400	65755846
0.22467	64310733
0.22533	62889516
0.22600	61492142
0.22667	60118539
0.22733	58768611
0.22800	57442242
0.22867	56139298
0.22933	54859629
0.23000	53603075
0.23067	52369468
0.23133	51158625
0.23200	49970358
0.23267	48804464
0.23333	47660734
0.23400	46538952
0.23467	45438895
0.23533	44360327
0.23600	43303015
0.23667	42266714
0.23733	41251186
0.23800	40256182
0.23867	39281447
0.23933	38326726
0.24000	37391760
0.24067	36476288
0.24133	35580047
0.24200	34702771
0.24267	33844191
0.24333	33004036
0.24400	32182035
0.24467	31377913
0.24533	30591394
0.24600	29822206
0.24667	29070077
0.24733	28334737
0.24800	27615911
0.24867	26913334
0.24933	26226736
0.25000	25555854
0.25067	24900423
0.25133	24260179
0.25200	23634860
0.25267	23024215
0.25333	22428020
0.25400	21846087
0.25467	21278248
0.25533	20724320
0.25600	20184078
0.25667	19657243
0.25733	19143492
0.25800	18642485
0.25867	18153873
0.25933	17677317
0.26000	17212491
0.26067	16759087
0.26133	16316818
0.26200	15885413
0.26267	15464616
0.26333	15054182
0.26400	14653878
0.26467	14263480
0.26533	13882773
0.26600	13511547
0.26667	13149598
0.26733	12796729
0.26800	12452746
0.26867	12117459
0.26933	11790685
0.27000	11472240
0.27067	11161946
0.27133	10859625
0.27200	10565104
0.27267	10278214
0.27333	9998786
0.27400	9726654
0.27467	9461656
0.27533	9203632
0.27600	8952424
0.27667	8707876
0.27733	8469838
0.27800	8238159
0.27867	8012691
0.27933	7793290
0.28000	7579813
0.28067	7372120
0.28133	7170074
0.28200	6973539
0.28267	6782382
0.28333	6596471
0.28400	6415677
0.28467	6239875
0.28533	6068939
0.28600	5902748
0.28667	5741183
0.28733	5584126
0.28800	5431463
0.28867	5283080
0.28933	5138869
0.29000	4998721
0.29067	4862532
0.29133	4730196
0.29200	4601614
0.29267	4476687
0.29333	4355319
0.29400	4237415
0.29467	4122885
0.29533	4011637
0.29600	3903586
0.29667	3798644
0.29733	3696729
0.29800	3597760
0.29867	3501656
0.29933	3408340
0.30000	3317736
0.30067	3229772
0.30133	3144376
0.30200	3061477
0.30267	2981010
0.30333	2902905
0.30400	2827099
0.30467	2753527
0.30533	2682126
0.30600	2612836
0.30667	2545598
0.30733	2480355
0.30800	2417053
0.30867	2355639
0.30933	2296062
0.31000	2238274
0.31067	2182230
0.31133	2127883
0.31200	2075191
0.31267	2024112
0.31333	1974606
0.31400	1926635
0.31467	1880163
0.31533	1835153
0.31600	1791574
0.31667	1749392
0.31733	1708579
0.31800	1669107
0.31867	1630948
0.31933	1594079
0.32000	1558477
0.32067	1524123
0.32133	1491000
0.32200	1459094
0.32267	1428392
0.32333	1398883
0.32400	1370555
0.32467	1343398
0.32533	1317400
0.32600	1292550
0.32667	1268838
0.32733	1246250
0.32800	1224775
0.32867	1204398
0.32933	1185107
0.33000	1166889
0.33067	1149729
0.33133	1133615
0.33200	1118533
0.33267	1104472
0.33333	1091417
0.33400	1079355
0.33467	1068269
0.33533	1058140
0.33600	1048948
0.33667	1040670
0.33733	1033281
0.33800	1026750
0.33867	1021047
0.33933	1016135
0.34000	1011975
0.34067	1008528
0.34133	1005751
0.34200	1003602
0.34267	1002036
0.34333	1001013
0.34400	1000489
0.34467	1000424
0.34533	1000777
0.34600	1001511
0.34667	1002586
0.34733	1003969
0.34800	1005628
0.34867	1007533
0.34933	1009656
0.35000	1011971
0.35067	1014453
0.35133	1017080
0.35200	1019832
0.35267	1022693
0.35333	1025646
0.35400	1028679
0.35467	1031778
0.35533	1034931
0.35600	1038127
0.35667	1041357
0.35733	1044612
0.35800	1047883
0.35867	1051163
0.35933	1054446
0.36000	1057727
0.36067	1060998
0.36133	1064256
0.36200	1067498
0.36267	1070722
0.36333	1073927
0.36400	1077114
0.36467	1080281
0.36533	1083431
0.36600	1086565
0.36667	1089682
0.36733	1092787
0.36800	1095880
0.36867	1098964
0.36933	1102036
0.37000	1105096
0.37067	1108142
0.37133	1111170
0.37200	1114179
0.37267	1117168
0.37333	1120135
0.37400	1123079
0.37467	1126002
0.37533	1128905
0.37600	1131794
0.37667	1134673
0.37733	1137548
0.37800	1140427
0.37867	1143317
0.37933	1146222
0.38000	1149143
0.38067	1152078
0.38133	1155026
0.38200	1157982
0.38267	1160941
0.38333	1163894
0.38400	1166835
0.38467	1169752
0.38533	1172635
0.38600	1175474
0.38667	1178257
0.38733	1180974
0.38800	1183614
0.38867	1186168
0.38933	1188630
0.39000	1190990
0.39067	1193243
0.39133	1195381
0.39200	1197400
0.39267	1199292
0.39333	1201050
0.39400	1202669
0.39467	1204135
0.39533	1205435
0.39600	1206553
0.39667	1207473
0.39733	1208176
0.39800	1208644
0.39867	1208857
0.39933	1208798
0.40000	1208447
0.40067	1207788
0.40133	1206801
0.40200	1205468
0.40267	1203770
0.40333	1201688
0.40400	1199198
0.40467	1196281
0.40533	1192914
0.40600	1189076
0.40667	1184747
0.40733	1179908
0.40800	1174542
0.40867	1168635
0.40933	1162171
0.41000	1155141
0.41067	1147539
0.41133	1139365
0.41200	1130624
0.41267	1121328
0.41333	1111492
0.41400	1101137
0.41467	1090288
0.41533	1078972
0.41600	1067218
0.41667	1055056
0.41733	1042519
0.41800	1029638
0.41867	1016446
0.41933	1002974
0.42000	989254
0.42067	975316
0.42133	961189
0.42200	946902
0.42267	932482
0.42333	917955
0.42400	903347
0.42467	888679
0.42533	873976
0.42600	859257
0.42667	844543
0.42733	829851
0.42800	815199
0.42867	800602
0.42933	786076
0.43000	771635
0.43067	757291
0.43133	743055
0.43200	728940
0.43267	714953
0.43333	701105
0.43400	687404
0.43467	673856
0.43533	660469
0.43600	647249
0.43667	634201
0.43733	621331
0.43800	608643
0.43867	596140
0.43933	583827
0.44000	571706
0.44067	559778
0.44133	548047
0.44200	536514
0.44267	525178
0.44333	514042
0.44400	503106
0.44467	492369
0.44533	481831
0.44600	471491
0.44667	461350
0.44733	451407
0.44800	441661
0.44867	432112
0.44933	422759
0.45000	413600
0.45067	404635
0.45133	395861
0.45200	387278
0.45267	378884
0.45333	370676
0.45400	362653
0.45467	354813
0.45533	347153
0.45600	339670
0.45667	332364
0.45733	325230
0.45800	318267
0.45867	311473
0.45933	304845
0.46000	298381
0.46067	292078
0.46133	285934
0.46200	279948
0.46267	274117
0.46333	268440
0.46400	262914
0.46467	257537
0.46533	252309
0.46600	247228
0.46667	242292
0.46733	237501
0.46800	232851
0.46867	228342
0.46933	223969
0.47000	219728
0.47067	215617
0.47133	211631
0.47200	207766
0.47267	204019
0.47333	200387
0.47400	196867
0.47467	193454
0.47533	190146
0.47600	186938
0.47667	183828
0.47733	180812
0.47800	177888
0.47867	175052
0.47933	172302
0.48000	169634
0.48067	167045
0.48133	164534
0.48200	162096
0.48267	159731
0.48333	157435
0.48400	155206
0.48467	153042
0.48533	150941
0.48600	148900
0.48667	146918
0.48733	144992
0.48800	143121
0.48867	141302
0.48933	139534
0.49000	137815
0.49067	136143
0.49133	134516
0.49200	132932
0.49267	131391
0.49333	129890
0.49400	128428
0.49467	127003
0.49533	125614
0.49600	124260
0.49667	122939
0.49733	121650
0.49800	120392
0.49867	119164
0.49933	117964
0.50000	116792
0.50067	115646
0.50133	114526
0.50200	113431
0.50267	112360
0.50333	111311
0.50400	110284
0.50467	109279
0.50533	108294
0.50600	107329
0.50667	106383
0.50733	105455
0.50800	104545
0.50867	103652
0.50933	102775
0.51000	101914
0.51067	101068
0.51133	100237
0.51200	99420
0.51267	98617
0.51333	97827
0.51400	97049
0.51467	96284
0.51533	95532
0.51600	94790
0.51667	94060
0.51733	93341
0.51800	92632
0.51867	91934
0.51933	91245
0.52000	90566
0.52067	89896
0.52133	89235
0.52200	88583
0.52267	87939
0.52333	87303
0.52400	86676
0.52467	86056
0.52533	85444
0.52600	84839
0.52667	84241
0.52733	83650
0.52800	83066
0.52867	82489
0.52933	81918
0.53000	81353
0.53067	80795
0.53133	80242
0.53200	79695
0.53267	79154
0.53333	78619
0.53400	78089
0.53467	77564
0.53533	77044
0.53600	76530
0.53667	76021
0.53733	75516
0.53800	75017
0.53867	74522
0.53933	74032
0.54000	73547
0.54067	73066
0.54133	72589
0.54200	72118
0.54267	71650
0.54333	71188
0.54400	70729
0.54467	70276
0.54533	69827
0.54600	69382
0.54667	68943
0.54733	68508
0.54800	68078
0.54867	67654
0.54933	67235
0.55000	66821
0.55067	66413
0.55133	66010
0.55200	65613
0.55267	65222
0.55333	64836
0.55400	64456
0.55467	64082
0.55533	63714
0.55600	63351
0.55667	62994
0.55733	62642
0.55800	62295
0.55867	61952
0.55933	61615
0.56000	61281
0.56067	60952
0.56133	60626
0.56200	60304
0.56267	59984
0.56333	59668
0.56400	59354
0.56467	59042
0.56533	58732
0.56600	58424
0.56667	58117
0.56733	57812
0.56800	57508
0.56867	57205
0.56933	56904
0.57000	56603
0.57067	56304
0.57133	56005
0.57200	55707
0.57267	55410
0.57333	55114
0.57400	54819
0.57467	54524
0.57533	54231
0.57600	53938
0.57667	53647
0.57733	53356
0.57800	53066
0.57867	52777
0.57933	52489
0.58000	52202
0.58067	51916
0.58133	51631
0.58200	51348
0.58267	51065
0.58333	50783
0.58400	50503
0.58467	50223
0.58533	49945
0.58600	49669
0.58667	49393
0.58733	49119
0.58800	48846
0.58867	48575
0.58933	48305
0.59000	48037
0.59067	47770
0.59133	47505
0.59200	47241
0.59267	46979
0.59333	46718
0.59400	46459
0.59467	46202
0.59533	45947
0.59600	45693
0.59667	45441
0.59733	45191
0.59800	44942
0.59867	44696
0.59933	44451
0.60000	44208
0.60067	43966
0.60133	43727
0.60200	43489
0.60267	43253
0.60333	43019
0.60400	42787
0.60467	42557
0.60533	42328
0.60600	42102
0.60667	41877
0.60733	41655
0.60800	41434
0.60867	41215
0.60933	40998
0.61000	40784
0.61067	40571
0.61133	40360
0.61200	40152
0.61267	39945
0.61333	39741
0.61400	39538
0.61467	39337
0.61533	39139
0.61600	38942
0.61667	38748
0.61733	38555
0.61800	38364
0.61867	38175
0.61933	37988
0.62000	37803
0.62067	37619
0.62133	37438
0.62200	37257
0.62267	37079
0.62333	36902
0.62400	36727
0.62467	36553
0.62533	36381
0.62600	36210
0.62667	36040
0.62733	35872
0.62800	35705
0.62867	35540
0.62933	35375
0.63000	35212
0.63067	35050
0.63133	34890
0.63200	34731
0.63267	34572
0.63333	34416
0.63400	34260
0.63467	34105
0.63533	33952
0.63600	33800
0.63667	33649
0.63733	33500
0.63800	33351
0.63867	33204
0.63933	33058
0.64000	32913
0.64067	32769
0.64133	32627
0.64200	32486
0.64267	32346
0.64333	32207
0.64400	32069
0.64467	31933
0.64533	31797
0.64600	31663
0.64667	31530
0.64733	31398
0.64800	31267
0.64867	31137
0.64933	31008
0.65000	30880
0.65067	30752
0.65133	30626
0.65200	30501
0.65267	30376
0.65333	30253
0.65400	30130
0.65467	30008
0.65533	29887
0.65600	29766
0.65667	29647
0.65733	29527
0.65800	29409
0.65867	29291
0.65933	29174
0.66000	29058
0.66067	28942
0.66133	28827
0.66200	28712
0.66267	28598
0.66333	28485
0.66400	28372
0.66467	28260
0.66533	28148
0.66600	28037
0.66667	27927
0.66733	27817
0.66800	27708
0.66867	27600
0.66933	27492
0.67000	27385
0.67067	27278
0.67133	27173
0.67200	27067
0.67267	26963
0.67333	26859
0.67400	26757
0.67467	26655
0.67533	26554
0.67600	26454
0.67667	26356
0.67733	26258
0.67800	26163
0.67867	26069
0.67933	25977
0.68000	25888
0.68067	25801
0.68133	25717
0.68200	25636
0.68267	25559
0.68333	25485
0.68400	25416
0.68467	25352
0.68533	25293
0.68600	25240
0.68667	25193
0.68733	25153
0.68800	25120
0.68867	25094
0.68933	25077
0.69000	25067
0.69067	25067
0.69133	25075
0.69200	25093
0.69267	25120
0.69333	25157
0.69400	25203
0.69467	25258
0.69533	25322
0.69600	25395
0.69667	25477
0.69733	25566
0.69800	25662
0.69867	25764
0.69933	25873
0.70000	25985
0.70067	26102
0.70133	26222
0.70200	26343
0.70267	26465
0.70333	26587
0.70400	26707
0.70467	26825
0.70533	26941
0.70600	27052
0.70667	27158
0.70733	27258
0.70800	27352
0.70867	27439
0.70933	27519
0.71000	27590
0.71067	27653
0.71133	27708
0.71200	27754
0.71267	27790
0.71333	27818
0.71400	27837
0.71467	27847
0.71533	27848
0.71600	27841
0.71667	27825
0.71733	27802
0.71800	27771
0.71867	27732
0.71933	27686
0.72000	27633
0.72067	27574
0.72133	27509
0.72200	27438
0.72267	27361
0.72333	27280
0.72400	27193
0.72467	27102
0.72533	27007
0.72600	26908
0.72667	26806
0.72733	26700
0.72800	26591
0.72867	26479
0.72933	26365
0.73000	26248
0.73067	26130
0.73133	26009
0.73200	25886
0.73267	25763
0.73333	25637
0.73400	25511
0.73467	25384
0.73533	25255
0.73600	25126
0.73667	24996
0.73733	24866
0.73800	24736
0.73867	24605
0.73933	24474
0.74000	24343
0.74067	24211
0.74133	24081
0.74200	23950
0.74267	23820
0.74333	23690
0.74400	23560
0.74467	23431
0.74533	23303
0.74600	23175
0.74667	23048
0.74733	22921
0.74800	22796
0.74867	22671
0.74933	22547
0.75000	22424
0.75067	22302
0.75133	22181
0.75200	22061
0.75267	21941
0.75333	21823
0.75400	21706
0.75467	21590
0.75533	21475
0.75600	21361
0.75667	21249
0.75733	21137
0.75800	21027
0.75867	20917
0.75933	20809
0.76000	20702
0.76067	20596
0.76133	20491
0.76200	20388
0.76267	20285
0.76333	20184
0.76400	20084
0.76467	19985
0.76533	19887
0.76600	19791
0.76667	19695
0.76733	19601
0.76800	19508
0.76867	19415
0.76933	19324
0.77000	19235
0.77067	19146
0.77133	19058
0.77200	18972
0.77267	18887
0.77333	18802
0.77400	18719
0.77467	18637
0.77533	18556
0.77600	18476
0.77667	18397
0.77733	18319
0.77800	18242
0.77867	18166
0.77933	18091
0.78000	18017
0.78067	17944
0.78133	17872
0.78200	17801
0.78267	17731
0.78333	17661
0.78400	17593
0.78467	17526
0.78533	17459
0.78600	17393
0.78667	17329
0.78733	17265
0.78800	17202
0.78867	17139
0.78933	17078
0.79000	17018
0.79067	16958
0.79133	16899
0.79200	16841
0.79267	16784
0.79333	16727
0.79400	16671
0.79467	16616
0.79533	16562
0.79600	16509
0.79667	16456
0.79733	16404
0.79800	16353
0.79867	16302
0.79933	16253
0.80000	16203
0.80067	16155
0.80133	16107
0.80200	16060
0.80267	16014
0.80333	15968
0.80400	15923
0.80467	15878
0.80533	15835
0.80600	15791
0.80667	15749
0.80733	15707
0.80800	15665
0.80867	15624
0.80933	15583
0.81000	15543
0.81067	15504
0.81133	15465
0.81200	15426
0.81267	15389
0.81333	15351
0.81400	15314
0.81467	15278
0.81533	15242
0.81600	15206
0.81667	15172
0.81733	15137
0.81800	15103
0.81867	15069
0.81933	15036
0.82000	15004
0.82067	14971
0.82133	14939
0.82200	14908
0.82267	14877
0.82333	14846
0.82400	14816
0.82467	14786
0.82533	14756
0.82600	14727
0.82667	14697
0.82733	14669
0.82800	14640
0.82867	14612
0.82933	14584
0.83000	14557
0.83067	14529
0.83133	14502
0.83200	14475
0.83267	14448
0.83333	14421
0.83400	14395
0.83467	14369
0.83533	14342
0.83600	14316
0.83667	14290
0.83733	14265
0.83800	14239
0.83867	14214
0.83933	14188
0.84000	14163
0.84067	14137
0.84133	14112
0.84200	14087
0.84267	14062
0.84333	14037
0.84400	14012
0.84467	13987
0.84533	13961
0.84600	13936
0.84667	13911
0.84733	13886
0.84800	13861
0.84867	13836
0.84933	13810
0.85000	13785
0.85067	13760
0.85133	13735
0.85200	13709
0.85267	13684
0.85333	13659
0.85400	13634
0.85467	13609
0.85533	13583
0.85600	13558
0.85667	13533
0.85733	13508
0.85800	13483
0.85867	13457
0.85933	13432
0.86000	13407
0.86067	13382
0.86133	13357
0.86200	13332
0.86267	13307
0.86333	13282
0.86400	13258
0.86467	13233
0.86533	13208
0.86600	13183
0.86667	13159
0.86733	13134
0.86800	13110
0.86867	13086
0.86933	13062
0.87000	13038
0.87067	13014
0.87133	12990
0.87200	12967
0.87267	12943
0.87333	12920
0.87400	12896
0.87467	12873
0.87533	12850
0.87600	12827
0.87667	12805
0.87733	12782
0.87800	12760
0.87867	12737
0.87933	12715
0.88000	12693
0.88067	12671
0.88133	12649
0.88200	12627
0.88267	12606
0.88333	12584
0.88400	12563
0.88467	12542
0.88533	12521
0.88600	12501
0.88667	12480
0.88733	12459
0.88800	12439
0.88867	12419
0.88933	12399
0.89000	12379
0.89067	12360
0.89133	12340
0.89200	12321
0.89267	12302
0.89333	12283
0.89400	12264
0.89467	12245
0.89533	12227
0.89600	12208
0.89667	12190
0.89733	12172
0.89800	12154
0.89867	12136
0.89933	12118
0.90000	12100
0.90067	12082
0.90133	12065
0.90200	12047
0.90267	12029
0.90333	12012
0.90400	11995
0.90467	11977
0.90533	11960
0.90600	11943
0.90667	11926
0.90733	11908
0.90800	11891
0.90867	11875
0.90933	11858
0.91000	11841
0.91067	11824
0.91133	11808
0.91200	11791
0.91267	11775
0.91333	11758
0.91400	11742
0.91467	11725
0.91533	11709
0.91600	11693
0.91667	11677
0.91733	11661
0.91800	11645
0.91867	11629
0.91933	11614
0.92000	11598
0.92067	11583
0.92133	11567
0.92200	11552
0.92267	11537
0.92333	11521
0.92400	11506
0.92467	11491
0.92533	11476
0.92600	11461
0.92667	11447
0.92733	11432
0.92800	11417
0.92867	11403
0.92933	11388
0.93000	11374
0.93067	11359
0.93133	11345
0.93200	11331
0.93267	11317
0.93333	11303
0.93400	11289
0.93467	11275
0.93533	11261
0.93600	11248
0.93667	11234
0.93733	11220
0.93800	11207
0.93867	11193
0.93933	11180
0.94000	11166
0.94067	11153
0.94133	11139
0.94200	11126
0.94267	11113
0.94333	11099
0.94400	11086
0.94467	11072
0.94533	11059
0.94600	11046
0.94667	11033
0.94733	11019
0.94800	11006
0.94867	10993
0.94933	10980
0.95000	10967
0.95067	10954
0.95133	10941
0.95200	10928
0.95267	10915
0.95333	10902
0.95400	10889
0.95467	10877
0.95533	10864
0.95600	10851
0.95667	10839
0.95733	10826
0.95800	10814
0.95867	10802
0.95933	10789
0.96000	10777
0.96067	10765
0.96133	10753
0.96200	10741
0.96267	10729
0.96333	10717
0.96400	10705
0.96467	10694
0.96533	10682
0.96600	10670
0.96667	10659
0.96733	10647
0.96800	10636
0.96867	10624
0.96933	10613
0.97000	10601
0.97067	10590
0.97133	10578
0.97200	10567
0.97267	10555
0.97333	10544
0.97400	10532
0.97467	10521
0.97533	10509
0.97600	10497
0.97667	10486
0.97733	10474
0.97800	10462
0.97867	10450
0.97933	10439
0.98000	10427
0.98067	10415
0.98133	10404
0.98200	10392
0.98267	10380
0.98333	10368
0.98400	10356
0.98467	10344
0.98533	10333
0.98600	10321
0.98667	10309
0.98733	10297
0.98800	10285
0.98867	10273
0.98933	10262
0.99000	10250
0.99067	10238
0.99133	10226
0.99200	10214
0.99267	10202
0.99333	10191
0.99400	10179
0.99467	10167
0.99533	10155
0.99600	10143
0.99667	10132
0.99733	10120
0.99800	10108
0.99867	10097
0.99933	10085
1.00000	10073
1.00067	10062
1.00133	10050
1.00200	10038
1.00267	10027
1.00333	10015
1.00400	10004
1.00467	9992
1.00533	9981
1.00600	9970
1.00667	9959
1.00733	9948
1.00800	9937
1.00867	9926
1.00933	9916
1.01000	9905
1.01067	9895
1.01133	9885
1.01200	9875
1.01267	9865
1.01333	9856
1.01400	9847
1.01467	9838
1.01533	9829
1.01600	9821
1.01667	9813
1.01733	9806
1.01800	9798
1.01867	9792
1.01933	9785
1.02000	9779
1.02067	9774
1.02133	9769
1.02200	9764
1.02267	9760
1.02333	9756
1.02400	9752
1.02467	9749
1.02533	9746
1.02600	9744
1.02667	9742
1.02733	9740
1.02800	9738
1.02867	9737
1.02933	9735
1.03000	9734
1.03067	9733
1.03133	9731
1.03200	9730
1.03267	9729
1.03333	9728
1.03400	9726
1.03467	9724
1.03533	9723
1.03600	9721
1.03667	9718
1.03733	9716
1.03800	9713
1.03867	9710
1.03933	9706
1.04000	9703
1.04067	9699
1.04133	9695
1.04200	9690
1.04267	9685
1.04333	9680
1.04400	9675
1.04467	9669
1.04533	9663
1.04600	9657
1.04667	9650
1.04733	9644
1.04800	9636
1.04867	9629
1.04933	9622
1.05000	9614
1.05067	9606
1.05133	9598
1.05200	9590
1.05267	9581
1.05333	9573
1.05400	9564
1.05467	9555
1.05533	9546
1.05600	9537
1.05667	9527
1.05733	9518
1.05800	9508
1.05867	9499
1.05933	9489
1.06000	9479
1.06067	9469
1.06133	9459
1.06200	9449
1.06267	9438
1.06333	9428
1.06400	9418
1.06467	9407
1.06533	9397
1.06600	9386
1.06667	9376
1.06733	9365
1.06800	9354
1.06867	9344
1.06933	9333
1.07000	9322
1.07067	9312
1.07133	9301
1.07200	9290
1.07267	9279
1.07333	9269
1.07400	9258
1.07467	9248
1.07533	9237
1.07600	9226
1.07667	9216
1.07733	9205
1.07800	9195
1.07867	9184
1.07933	9174
1.08000	9163
1.08067	9153
1.08133	9142
1.08200	9132
1.08267	9121
1.08333	9111
1.08400	9100
1.08467	9090
1.08533	9080
1.08600	9069
1.08667	9059
1.08733	9049
1.08800	9038
1.08867	9028
1.08933	9018
1.09000	9008
1.09067	8998
1.09133	8988
1.09200	8978
1.09267	8968
1.09333	8959
1.09400	8949
1.09467	8940
1.09533	8930
1.09600	8921
1.09667	8911
1.09733	8902
1.09800	8893
1.09867	8883
1.09933	8874
1.10000	8865
1.10067	8856
1.10133	8847
1.10200	8838
1.10267	8829
1.10333	8820
1.10400	8811
1.10467	8802
1.10533	8794
1.10600	8785
1.10667	8776
1.10733	8768
1.10800	8759
1.10867	8751
1.10933	8743
1.11000	8734
1.11067	8726
1.11133	8718
1.11200	8710
1.11267	8702
1.11333	8694
1.11400	8686
1.11467	8678
1.11533	8670
1.11600	8663
1.11667	8655
1.11733	8647
1.11800	8640
1.11867	8633
1.11933	8625
1.12000	8618
1.12067	8611
1.12133	8604
1.12200	8597
1.12267	8590
1.12333	8583
1.12400	8576
1.12467	8570
1.12533	8563
1.12600	8557
1.12667	8551
1.12733	8545
1.12800	8539
1.12867	8533
1.12933	8527
1.13000	8522
1.13067	8517
1.13133	8512
1.13200	8507
1.13267	8502
1.13333	8498
1.13400	8494
1.13467	8490
1.13533	8486
1.13600	8483
1.13667	8479
1.13733	8476
1.13800	8474
1.13867	8471
1.13933	8469
1.14000	8467
1.14067	8465
1.14133	8463
1.14200	8461
1.14267	8460
1.14333	8458
1.14400	8457
1.14467	8455
1.14533	8454
1.14600	8453
1.14667	8451
1.14733	8450
1.14800	8448
1.14867	8447
1.14933	8445
1.15000	8443
1.15067	8441
1.15133	8439
1.15200	8437
1.15267	8435
1.15333	8433
1.15400	8430
1.15467	8427
1.15533	8424
1.15600	8421
1.15667	8418
1.15733	8414
1.15800	8411
1.15867	8407
1.15933	8403
1.16000	8399
1.16067	8395
1.16133	8390
1.16200	8386
1.16267	8381
1.16333	8376
1.16400	8371
1.16467	8366
1.16533	8360
1.16600	8355
1.16667	8349
1.16733	8344
1.16800	8338
1.16867	8332
1.16933	8326
1.17000	8320
1.17067	8314
1.17133	8308
1.17200	8302
1.17267	8296
1.17333	8290
1.17400	8283
1.17467	8277
1.17533	8271
1.17600	8264
1.17667	8258
1.17733	8252
1.17800	8245
1.17867	8239
1.17933	8232
1.18000	8226
1.18067	8219
1.18133	8213
1.18200	8206
1.18267	8199
1.18333	8193
1.18400	8186
1.18467	8180
1.18533	8173
1.18600	8167
1.18667	8160
1.18733	8154
1.18800	8148
1.18867	8141
1.18933	8135
1.19000	8129
1.19067	8123
1.19133	8117
1.19200	8111
1.19267	8105
1.19333	8099
1.19400	8093
1.19467	8088
1.19533	8082
1.19600	8076
1.19667	8071
1.19733	8066
1.19800	8060
1.19867	8055
1.19933	8050
1.20000	8045
1.20067	8040
1.20133	8035
1.20200	8030
1.20267	8026
1.20333	8021
1.20400	8016
1.20467	8012
1.20533	8007
1.20600	8003
1.20667	7999
1.20733	7995
1.20800	7990
1.20867	7986
1.20933	7982
1.21000	7979
1.21067	7975
1.21133	7971
1.21200	7968
1.21267	7964
1.21333	7960
1.21400	7957
1.21467	7953
1.21533	7950
1.21600	7947
1.21667	7944
1.21733	7940
1.21800	7937
1.21867	7934
1.21933	7931
1.22000	7928
1.22067	7925
1.22133	7922
1.22200	7919
1.22267	7916
1.22333	7913
1.22400	7910
1.22467	7908
1.22533	7905
1.22600	7902
1.22667	7900
1.22733	7897
1.22800	7894
1.22867	7892
1.22933	7889
1.23000	7887
1.23067	7884
1.23133	7882
1.23200	7879
1.23267	7877
1.23333	7874
1.23400	7872
1.23467	7870
1.23533	7867
1.23600	7865
1.23667	7863
1.23733	7860
1.23800	7858
1.23867	7856
1.23933	7854
1.24000	7852
1.24067	7849
1.24133	7847
1.24200	7845
1.24267	7843
1.24333	7841
1.24400	7839
1.24467	7836
1.24533	7834
1.24600	7832
1.24667	7830
1.24733	7828
1.24800	7827
1.24867	7825
1.24933	7823
1.25000	7821
1.25067	7819
1.25133	7818
1.25200	7816
1.25267	7815
1.25333	7813
1.25400	7812
1.25467	7810
1.25533	7809
1.25600	7808
1.25667	7806
1.25733	7805
1.25800	7804
1.25867	7802
1.25933	7801
1.26000	7800
1.26067	7799
1.26133	7798
1.26200	7797
1.26267	7796
1.26333	7795
1.26400	7794
1.26467	7794
1.26533	7793
1.26600	7793
1.26667	7792
1.26733	7792
1.26800	7791
1.26867	7791
1.26933	7791
1.27000	7791
1.27067	7791
1.27133	7791
1.27200	7791
1.27267	7791
1.27333	7791
1.27400	7791
1.27467	7792
1.27533	7792
1.27600	7793
1.27667	7793
1.27733	7794
1.27800	7795
1.27867	7797
1.27933	7798
1.28000	7799
1.28067	7801
1.28133	7803
1.28200	7805
1.28267	7807
1.28333	7809
1.28400	7811
1.28467	7814
1.28533	7816
1.28600	7819
1.28667	7822
1.28733	7825
1.28800	7827
1.28867	7830
1.28933	7833
1.29000	7836
1.29067	7838
1.29133	7841
1.29200	7844
1.29267	7846
1.29333	7848
1.29400	7851
1.29467	7853
1.29533	7855
1.29600	7857
1.29667	7859
1.29733	7860
1.29800	7862
1.29867	7863
1.29933	7864
1.30000	7865
1.30067	7866
1.30133	7866
1.30200	7866
1.30267	7866
1.30333	7866
1.30400	7866
1.30467	7866
1.30533	7865
1.30600	7864
1.30667	7863
1.30733	7862
1.30800	7861
1.30867	7859
1.30933	7857
1.31000	7856
1.31067	7854
1.31133	7851
1.31200	7849
1.31267	7847
1.31333	7844
1.31400	7841
1.31467	7839
1.31533	7836
1.31600	7832
1.31667	7829
1.31733	7826
1.31800	7822
1.31867	7818
1.31933	7815
1.32000	7811
1.32067	7807
1.32133	7802
1.32200	7798
1.32267	7794
1.32333	7789
1.32400	7785
1.32467	7780
1.32533	7775
1.32600	7770
1.32667	7765
1.32733	7760
1.32800	7755
1.32867	7750
1.32933	7745
1.33000	7739
1.33067	7734
1.33133	7728
1.33200	7723
1.33267	7717
1.33333	7712
1.33400	7706
1.33467	7700
1.33533	7694
1.33600	7688
1.33667	7682
1.33733	7676
1.33800	7670
1.33867	7663
1.33933	7657
1.34000	7651
1.34067	7644
1.34133	7638
1.34200	7631
1.34267	7625
1.34333	7618
1.34400	7611
1.34467	7605
1.34533	7598
1.34600	7591
1.34667	7585
1.34733	7578
1.34800	7571
1.34867	7565
1.34933	7558
1.35000	7552
1.35067	7545
1.35133	7539
1.35200	7532
1.35267	7526
1.35333	7519
1.35400	7513
1.35467	7507
1.35533	7500
1.35600	7494
1.35667	7488
1.35733	7482
1.35800	7476
1.35867	7470
1.35933	7464
1.36000	7458
1.36067	7452
1.36133	7446
1.36200	7440
1.36267	7435
1.36333	7429
1.36400	7423
1.36467	7418
1.36533	7413
1.36600	7407
1.36667	7402
1.36733	7397
1.36800	7391
1.36867	7386
1.36933	7381
1.37000	7376
1.37067	7371
1.37133	7366
1.37200	7362
1.37267	7357
1.37333	7352
1.37400	7348
1.37467	7343
1.37533	7339
1.37600	7334
1.37667	7330
1.37733	7326
1.37800	7322
1.37867	7317
1.37933	7313
1.38000	7309
1.38067	7306
1.38133	7302
1.38200	7298
1.38267	7294
1.38333	7290
1.38400	7287
1.38467	7283
1.38533	7279
1.38600	7275
1.38667	7272
1.38733	7268
1.38800	7264
1.38867	7261
1.38933	7257
1.39000	7253
1.39067	7250
1.39133	7246
1.39200	7242
1.39267	7239
1.39333	7235
1.39400	7231
1.39467	7228
1.39533	7224
1.39600	7220
1.39667	7216
1.39733	7213
1.39800	7209
1.39867	7205
1.39933	7201
1.40000	7198
1.40067	7194
1.40133	7190
1.40200	7186
1.40267	7182
1.40333	7178
1.40400	7175
1.40467	7171
1.40533	7167
1.40600	7163
1.40667	7159
1.40733	7155
1.40800	7151
1.40867	7148
1.40933	7144
1.41000	7140
1.41067	7136
1.41133	7133
1.41200	7129
1.41267	7125
1.41333	7122
1.41400	7118
1.41467	7114
1.41533	7111
1.41600	7107
1.41667	7104
1.41733	7101
1.41800	7097
1.41867	7094
1.41933	7090
1.42000	7087
1.42067	7084
1.42133	7081
1.42200	7078
1.42267	7074
1.42333	7071
1.42400	7068
1.42467	7065
1.42533	7062
1.42600	7059
1.42667	7056
1.42733	7053
1.42800	7050
1.42867	7047
1.42933	7045
1.43000	7042
1.43067	7039
1.43133	7037
1.43200	7034
1.43267	7032
1.43333	7029
1.43400	7027
1.43467	7024
1.43533	7022
1.43600	7020
1.43667	7017
1.43733	7015
1.43800	7013
1.43867	7011
1.43933	7009
1.44000	7007
1.44067	7005
1.44133	7003
1.44200	7001
1.44267	6999
1.44333	6998
1.44400	6996
1.44467	6994
1.44533	6992
1.44600	6991
1.44667	6989
1.44733	6987
1.44800	6986
1.44867	6984
1.44933	6983
1.45000	6981
1.45067	6980
1.45133	6978
1.45200	6977
1.45267	6975
1.45333	6973
1.45400	6972
1.45467	6970
1.45533	6969
1.45600	6967
1.45667	6965
1.45733	6964
1.45800	6962
1.45867	6960
1.45933	6958
1.46000	6957
1.46067	6955
1.46133	6953
1.46200	6951
1.46267	6950
1.46333	6948
1.46400	6946
1.46467	6945
1.46533	6943
1.46600	6941
1.46667	6940
1.46733	6938
1.46800	6936
1.46867	6934
1.46933	6933
1.47000	6931
1.47067	6929
1.47133	6928
1.47200	6926
1.47267	6924
1.47333	6922
1.47400	6921
1.47467	6919
1.47533	6917
1.47600	6915
1.47667	6914
1.47733	6912
1.47800	6910
1.47867	6908
1.47933	6906
1.48000	6905
1.48067	6903
1.48133	6901
1.48200	6899
1.48267	6897
1.48333	6894
1.48400	6892
1.48467	6890
1.48533	6888
1.48600	6885
1.48667	6883
1.48733	6881
1.48800	6878
1.48867	6876
1.48933	6873
1.49000	6870
1.49067	6868
1.49133	6865
1.49200	6862
1.49267	6859
1.49333	6857
1.49400	6854
1.49467	6851
1.49533	6848
1.49600	6845
1.49667	6842
1.49733	6839
1.49800	6836
1.49867	6833
1.49933	6830
1.50000	6827
1.50067	6824
1.50133	6821
1.50200	6818
1.50267	6815
1.50333	6812
1.50400	6809
1.50467	6806
1.50533	6803
1.50600	6800
1.50667	6797
1.50733	6794
1.50800	6791
1.50867	6789
1.50933	6786
1.51000	6783
1.51067	6780
1.51133	6777
1.51200	6774
1.51267	6772
1.51333	6769
1.51400	6766
1.51467	6763
1.51533	6761
1.51600	6758
1.51667	6756
1.51733	6753
1.51800	6750
1.51867	6748
1.51933	6745
1.52000	6743
1.52067	6740
1.52133	6738
1.52200	6735
1.52267	6733
1.52333	6731
1.52400	6728
1.52467	6726
1.52533	6724
1.52600	6721
1.52667	6719
1.52733	6716
1.52800	6714
1.52867	6712
1.52933	6709
1.53000	6707
1.53067	6705
1.53133	6702
1.53200	6700
1.53267	6698
1.53333	6696
1.53400	6694
1.53467	6692
1.53533	6689
1.53600	6687
1.53667	6685
1.53733	6683
1.53800	6681
1.53867	6679
1.53933	6677
1.54000	6675
1.54067	6672
1.54133	6670
1.54200	6668
1.54267	6666
1.54333	6664
1.54400	6662
1.54467	6660
1.54533	6658
1.54600	6655
1.54667	6653
1.54733	6651
1.54800	6649
1.54867	6647
1.54933	6645
1.55000	6643
1.55067	6641
1.55133	6639
1.55200	6636
1.55267	6634
1.55333	6632
1.55400	6630
1.55467	6629
1.55533	6627
1.55600	6625
1.55667	6623
1.55733	6621
1.55800	6619
1.55867	6617
1.55933	6615
1.56000	6614
1.56067	6612
1.56133	6610
1.56200	6608
1.56267	6606
1.56333	6604
1.56400	6602
1.56467	6600
1.56533	6598
1.56600	6596
1.56667	6594
1.56733	6592
1.56800	6591
1.56867	6589
1.56933	6587
1.57000	6585
1.57067	6583
1.57133	6581
1.57200	6579
1.57267	6577
1.57333	6576
1.57400	6574
1.57467	6572
1.57533	6570
1.57600	6568
1.57667	6567
1.57733	6565
1.57800	6563
1.57867	6561
1.57933	6559
1.58000	6558
1.58067	6556
1.58133	6554
1.58200	6552
1.58267	6550
1.58333	6549
1.58400	6547
1.58467	6545
1.58533	6544
1.58600	6542
1.58667	6541
1.58733	6539
1.58800	6538
1.58867	6536
1.58933	6534
1.59000	6533
1.59067	6531
1.59133	6529
1.59200	6528
1.59267	6526
1.59333	6525
1.59400	6523
1.59467	6521
1.59533	6520
1.59600	6518
1.59667	6517
1.59733	6515
1.59800	6514
1.59867	6512
1.59933	6511
1.60000	6510
1.60067	6508
1.60133	6507
1.60200	6506
1.60267	6504
1.60333	6503
1.60400	6501
1.60467	6500
1.60533	6498
1.60600	6497
1.60667	6496
1.60733	6494
1.60800	6493
1.60867	6491
1.60933	6490
1.61000	6489
1.61067	6488
1.61133	6486
1.61200	6485
1.61267	6484
1.61333	6483
1.61400	6481
1.61467	6480
1.61533	6479
1.61600	6478
1.61667	6476
1.61733	6475
1.61800	6474
1.61867	6473
1.61933	6472
1.62000	6471
1.62067	6469
1.62133	6468
1.62200	6467
1.62267	6465
1.62333	6464
1.62400	6463
1.62467	6462
1.62533	6460
1.62600	6459
1.62667	6458
1.62733	6456
1.62800	6455
1.62867	6454
1.62933	6453
1.63000	6452
1.63067	6450
1.63133	6449
1.63200	6448
1.63267	6447
1.63333	6446
1.63400	6445
1.63467	6444
1.63533	6443
1.63600	6442
1.63667	6441
1.63733	6440
1.63800	6439
1.63867	6438
1.63933	6437
1.64000	6436
1.64067	6435
1.64133	6434
1.64200	6433
1.64267	6432
1.64333	6432
1.64400	6431
1.64467	6430
1.64533	6429
1.64600	6429
1.64667	6428
1.64733	6427
1.64800	6427
1.64867	6426
1.64933	6425
1.65000	6425
1.65067	6424
1.65133	6424
1.65200	6423
1.65267	6423
1.65333	6422
1.65400	6422
1.65467	6421
1.65533	6421
1.65600	6421
1.65667	6420
1.65733	6420
1.65800	6419
1.65867	6419
1.65933	6419
1.66000	6419
1.66067	6418
1.66133	6418
1.66200	6418
1.66267	6417
1.66333	6417
1.66400	6417
1.66467	6416
1.66533	6416
1.66600	6415
1.66667	6415
1.66733	6414
1.66800	6414
1.66867	6413
1.66933	6413
1.67000	6412
1.67067	6411
1.67133	6411
1.67200	6410
1.67267	6409
1.67333	6408
1.67400	6407
1.67467	6406
1.67533	6405
1.67600	6404
1.67667	6403
1.67733	6402
1.67800	6401
1.67867	6400
1.67933	6399
1.68000	6397
1.68067	6396
1.68133	6395
1.68200	6393
1.68267	6392
1.68333	6390
1.68400	6389
1.68467	6387
1.68533	6386
1.68600	6384
1.68667	6383
1.68733	6381
1.68800	6380
1.68867	6378
1.68933	6377
1.69000	6375
1.69067	6374
1.69133	6372
1.69200	6371
1.69267	6369
1.69333	6368
1.69400	6366
1.69467	6365
1.69533	6363
1.69600	6362
1.69667	6360
1.69733	6359
1.69800	6357
1.69867	6356
1.69933	6354
1.70000	6353
1.70067	6351
1.70133	6350
1.70200	6348
1.70267	6346
1.70333	6345
1.70400	6343
1.70467	6342
1.70533	6340
1.70600	6339
1.70667	6337
1.70733	6336
1.70800	6334
1.70867	6333
1.70933	6331
1.71000	6330
1.71067	6328
1.71133	6327
1.71200	6326
1.71267	6325
1.71333	6324
1.71400	6323
1.71467	6323
1.71533	6322
1.71600	6322
1.71667	6322
1.71733	6323
1.71800	6324
1.71867	6326
1.71933	6329
1.72000	6332
1.72067	6337
1.72133	6344
1.72200	6352
1.72267	6363
1.72333	6377
1.72400	6394
1.72467	6415
1.72533	6442
1.72600	6474
1.72667	6514
1.72733	6563
1.72800	6622
1.72867	6692
1.72933	6777
1.73000	6879
1.73067	7000
1.73133	7143
1.73200	7313
1.73267	7512
1.73333	7745
1.73400	8017
1.73467	8332
1.73533	8698
1.73600	9121
1.73667	9607
1.73733	10165
1.73800	10803
1.73867	11530
1.73933	12354
1.74000	13286
1.74067	14335
1.74133	15513
1.74200	16831
1.74267	18299
1.74333	19931
1.74400	21736
1.74467	23726
1.74533	25913
1.74600	28306
1.74667	30916
1.74733	33753
1.74800	36828
1.74867	40150
1.74933	43728
1.75000	47569
1.75067	51679
1.75133	56066
1.75200	60733
1.75267	65684
1.75333	70923
1.75400	76446
1.75467	82252
1.75533	88335
1.75600	94690
1.75667	101310
1.75733	108188
1.75800	115311
1.75867	122668
1.75933	130238
1.76000	138001
1.76067	145935
1.76133	154013
1.76200	162209
1.76267	170495
1.76333	178843
1.76400	187221
1.76467	195599
1.76533	203943
1.76600	212216
1.76667	220384
1.76733	228412
1.76800	236264
1.76867	243907
1.76933	251309
1.77000	258439
1.77067	265268
1.77133	271769
1.77200	277918
1.77267	283694
1.77333	289078
1.77400	294055
1.77467	298614
1.77533	302748
1.77600	306452
1.77667	309725
1.77733	312567
1.77800	314983
1.77867	316978
1.77933	318561
1.78000	319741
1.78067	320529
1.78133	320937
1.78200	320980
1.78267	320672
1.78333	320028
1.78400	319065
1.78467	317798
1.78533	316245
1.78600	314423
1.78667	312349
1.78733	310038
1.78800	307508
1.78867	304774
1.78933	301853
1.79000	298759
1.79067	295506
1.79133	292110
1.79200	288582
1.79267	284937
1.79333	281187
1.79400	277343
1.79467	273417
1.79533	269418
1.79600	265357
1.79667	261244
1.79733	257087
1.79800	252894
1.79867	248673
1.79933	244433
1.80000	240179
1.80067	235918
1.80133	231656
1.80200	227399
1.80267	223151
1.80333	218918
1.80400	214705
1.80467	210514
1.80533	206351
1.80600	202218
1.80667	198120
1.80733	194058
1.80800	190035
1.80867	186055
1.80933	182119
1.81000	178229
1.81067	174387
1.81133	170595
1.81200	166854
1.81267	163166
1.81333	159531
1.81400	155952
1.81467	152427
1.81533	148959
1.81600	145548
1.81667	142194
1.81733	138898
1.81800	135660
1.81867	132480
1.81933	129358
1.82000	126294
1.82067	123289
1.82133	120341
1.82200	117452
1.82267	114619
1.82333	111844
1.82400	109126
1.82467	106465
1.82533	103859
1.82600	101309
1.82667	98813
1.82733	96372
1.82800	93985
1.82867	91651
1.82933	89369
1.83000	87138
1.83067	84959
1.83133	82830
1.83200	80751
1.83267	78720
1.83333	76737
1.83400	74802
1.83467	72913
1.83533	71070
1.83600	69271
1.83667	67517
1.83733	65806
1.83800	64137
1.83867	62511
1.83933	60925
1.84000	59379
1.84067	57873
1.84133	56405
1.84200	54975
1.84267	53582
1.84333	52225
1.84400	50904
1.84467	49618
1.84533	48365
1.84600	47146
1.84667	45959
1.84733	44804
1.84800	43680
1.84867	42586
1.84933	41522
1.85000	40486
1.85067	39479
1.85133	38499
1.85200	37547
1.85267	36620
1.85333	35719
1.85400	34843
1.85467	33992
1.85533	33164
1.85600	32359
1.85667	31577
1.85733	30817
1.85800	30079
1.85867	29361
1.85933	28664
1.86000	27986
1.86067	27328
1.86133	26688
1.86200	26067
1.86267	25464
1.86333	24878
1.86400	24309
1.86467	23756
1.86533	23219
1.86600	22698
1.86667	22192
1.86733	21700
1.86800	21223
1.86867	20759
1.86933	20310
1.87000	19873
1.87067	19449
1.87133	19038
1.87200	18638
1.87267	18251
1.87333	17874
1.87400	17509
1.87467	17155
1.87533	16811
1.87600	16477
1.87667	16153
1.87733	15839
1.87800	15534
1.87867	15238
1.87933	14951
1.88000	14673
1.88067	14403
1.88133	14140
1.88200	13886
1.88267	13639
1.88333	13400
1.88400	13168
1.88467	12943
1.88533	12724
1.88600	12513
1.88667	12307
1.88733	12108
1.88800	11915
1.88867	11727
1.88933	11546
1.89000	11369
1.89067	11199
1.89133	11033
1.89200	10873
1.89267	10717
1.89333	10566
1.89400	10419
1.89467	10278
1.89533	10140
1.89600	10007
1.89667	9877
1.89733	9752
1.89800	9630
1.89867	9513
1.89933	9398
1.90000	9288
1.90067	9180
1.90133	9076
1.90200	8975
1.90267	8877
1.90333	8782
1.90400	8689
1.90467	8600
1.90533	8513
1.90600	8429
1.90667	8348
1.90733	8268
1.90800	8192
1.90867	8117
1.90933	8045
1.91000	7975
1.91067	7907
1.91133	7840
1.91200	7776
1.91267	7714
1.91333	7654
1.91400	7595
1.91467	7538
1.91533	7482
1.91600	7429
1.91667	7376
1.91733	7326
1.91800	7276
1.91867	7228
1.91933	7182
1.92000	7136
1.92067	7092
1.92133	7049
1.92200	7008
1.92267	6967
1.92333	6928
1.92400	6889
1.92467	6852
1.92533	6816
1.92600	6780
1.92667	6746
1.92733	6712
1.92800	6680
1.92867	6648
1.92933	6617
1.93000	6587
1.93067	6557
1.93133	6529
1.93200	6501
1.93267	6474
1.93333	6447
1.93400	6422
1.93467	6396
1.93533	6372
1.93600	6348
1.93667	6325
1.93733	6302
1.93800	6280
1.93867	6258
1.93933	6237
1.94000	6217
1.94067	6197
1.94133	6178
1.94200	6159
1.94267	6141
1.94333	6123
1.94400	6105
1.94467	6088
1.94533	6072
1.94600	6056
1.94667	6040
1.94733	6025
1.94800	6010
1.94867	5995
1.94933	5981
1.95000	5967
1.95067	5954
1.95133	5941
1.95200	5929
1.95267	5916
1.95333	5904
1.95400	5893
1.95467	5881
1.95533	5870
1.95600	5859
1.95667	5849
1.95733	5838
1.95800	5828
1.95867	5818
1.95933	5809
1.96000	5799
1.96067	5790
1.96133	5781
1.96200	5773
1.96267	5764
1.96333	5756
1.96400	5748
1.96467	5740
1.96533	5732
1.96600	5724
1.96667	5717
1.96733	5709
1.96800	5702
1.96867	5695
1.96933	5689
1.97000	5682
1.97067	5676
1.97133	5669
1.97200	5663
1.97267	5657
1.97333	5651
1.97400	5645
1.97467	5640
1.97533	5634
1.97600	5628
1.97667	5623
1.97733	5618
1.97800	5613
1.97867	5607
1.97933	5602
1.98000	5598
1.98067	5593
1.98133	5588
1.98200	5583
1.98267	5579
1.98333	5574
1.98400	5570
1.98467	5566
1.98533	5561
1.98600	5557
1.98667	5553
1.98733	5549
1.98800	5545
1.98867	5541
1.98933	5538
1.99000	5534
1.99067	5530
1.99133	5527
1.99200	5523
1.99267	5520
1.99333	5516
1.99400	5513
1.99467	5510
1.99533	5506
1.99600	5503
1.99667	5500
1.99733	5497
1.99800	5494
1.99867	5491
1.99933	5488
2.00000	5485
2.00067	5482
2.00133	5479
2.00200	5476
2.00267	5473
2.00333	5470
2.00400	5467
2.00467	5464
2.00533	5461
2.00600	5458
2.00667	5455
2.00733	5452
2.00800	5449
2.00867	5446
2.00933	5443
2.01000	5440
2.01067	5437
2.01133	5434
2.01200	5431
2.01267	5427
2.01333	5424
2.01400	5421
2.01467	5418
2.01533	5414
2.01600	5411
2.01667	5408
2.01733	5405
2.01800	5401
2.01867	5398
2.01933	5395
2.02000	5392
2.02067	5388
2.02133	5385
2.02200	5382
2.02267	5379
2.02333	5375
2.02400	5372
2.02467	5369
2.02533	5366
2.02600	5363
2.02667	5360
2.02733	5357
2.02800	5353
2.02867	5350
2.02933	5347
2.03000	5344
2.03067	5341
2.03133	5338
2.03200	5335
2.03267	5332
2.03333	5330
2.03400	5327
2.03467	5324
2.03533	5321
2.03600	5319
2.03667	5316
2.03733	5314
2.03800	5311
2.03867	5309
2.03933	5306
2.04000	5304
2.04067	5301
2.04133	5299
2.04200	5296
2.04267	5294
2.04333	5292
2.04400	5289
2.04467	5287
2.04533	5285
2.04600	5282
2.04667	5280
2.04733	5278
2.04800	5275
2.04867	5273
2.04933	5271
2.05000	5269
2.05067	5266
2.05133	5264
2.05200	5262
2.05267	5260
2.05333	5257
2.05400	5255
2.05467	5253
2.05533	5251
2.05600	5248
2.05667	5246
2.05733	5244
2.05800	5242
2.05867	5240
2.05933	5237
2.06000	5235
2.06067	5233
2.06133	5231
2.06200	5229
2.06267	5227
2.06333	5224
2.06400	5222
2.06467	5220
2.06533	5218
2.06600	5216
2.06667	5214
2.06733	5212
2.06800	5210
2.06867	5208
2.06933	5206
2.07000	5204
2.07067	5201
2.07133	5199
2.07200	5197
2.07267	5195
2.07333	5193
2.07400	5191
2.07467	5189
2.07533	5187
2.07600	5185
2.07667	5183
2.07733	5181
2.07800	5179
2.07867	5177
2.07933	5175
2.08000	5173
2.08067	5170
2.08133	5168
2.08200	5166
2.08267	5164
2.08333	5162
2.08400	5160
2.08467	5158
2.08533	5156
2.08600	5154
2.08667	5152
2.08733	5150
2.08800	5148
2.08867	5146
2.08933	5144
2.09000	5142
2.09067	5140
2.09133	5138
2.09200	5135
2.09267	5133
2.09333	5131
2.09400	5129
2.09467	5127
2.09533	5125
2.09600	5123
2.09667	5121
2.09733	5120
2.09800	5118
2.09867	5116
2.09933	5114
2.10000	5112
2.10067	5110
2.10133	5108
2.10200	5106
2.10267	5104
2.10333	5102
2.10400	5100
2.10467	5098
2.10533	5096
2.10600	5095
2.10667	5093
2.10733	5091
2.10800	5089
2.10867	5087
2.10933	5085
2.11000	5083
2.11067	5081
2.11133	5079
2.11200	5077
2.11267	5075
2.11333	5074
2.11400	5072
2.11467	5070
2.11533	5068
2.11600	5066
2.11667	5064
2.11733	5063
2.11800	5061
2.11867	5059
2.11933	5057
2.12000	5055
2.12067	5054
2.12133	5052
2.12200	5050
2.12267	5048
2.12333	5046
2.12400	5045
2.12467	5043
2.12533	5041
2.12600	5039
2.12667	5037
2.12733	5036
2.12800	5034
2.12867	5032
2.12933	5030
2.13000	5028
2.13067	5026
2.13133	5025
2.13200	5023
2.13267	5021
2.13333	5019
2.13400	5017
2.13467	5015
2.13533	5014
2.13600	5012
2.13667	5010
2.13733	5008
2.13800	5006
2.13867	5004
2.13933	5002
2.14000	5000
2.14067	4999
2.14133	4997
2.14200	4995
2.14267	4993
2.14333	4991
2.14400	4990
2.14467	4988
2.14533	4986
2.14600	4985
2.14667	4983
2.14733	4981
2.14800	4979
2.14867	4978
2.14933	4976
2.15000	4974
2.15067	4973
2.15133	4971
2.15200	4969
2.15267	4967
2.15333	4966
2.15400	4964
2.15467	4962
2.15533	4961
2.15600	4959
2.15667	4958
2.15733	4956
2.15800	4954
2.15867	4953
2.15933	4951
2.16000	4950
2.16067	4948
2.16133	4946
2.16200	4945
2.16267	4943
2.16333	4941
2.16400	4940
2.16467	4938
2.16533	4937
2.16600	4935
2.16667	4934
2.16733	4932
2.16800	4930
2.16867	4929
2.16933	4927
2.17000	4926
2.17067	4924
2.17133	4923
2.17200	4921
2.17267	4920
2.17333	4918
2.17400	4917
2.17467	4915
2.17533	4914
2.17600	4912
2.17667	4911
2.17733	4909
2.17800	4908
2.17867	4906
2.17933	4905
2.18000	4904
2.18067	4902
2.18133	4901
2.18200	4899
2.18267	4898
2.18333	4897
2.18400	4895
2.18467	4894
2.18533	4892
2.18600	4891
2.18667	4890
2.18733	4888
2.18800	4887
2.18867	4886
2.18933	4884
2.19000	4883
2.19067	4882
2.19133	4880
2.19200	4879
2.19267	4878
2.19333	4876
2.19400	4875
2.19467	4874
2.19533	4873
2.19600	4871
2.19667	4870
2.19733	4869
2.19800	4868
2.19867	4866
2.19933	4865
2.20000	4864
2.20067	4863
2.20133	4862
2.20200	4861
2.20267	4860
2.20333	4859
2.20400	4858
2.20467	4857
2.20533	4856
2.20600	4856
2.20667	4855
2.20733	4854
2.20800	4854
2.20867	4853
2.20933	4853
2.21000	4852
2.21067	4852
2.21133	4851
2.21200	4851
2.21267	4851
2.21333	4850
2.21400	4850
2.21467	4850
2.21533	4849
2.21600	4849
2.21667	4849
2.21733	4849
2.21800	4849
2.21867	4849
2.21933	4849
2.22000	4849
2.22067	4849
2.22133	4849
2.22200	4849
2.22267	4849
2.22333	4849
2.22400	4849
2.22467	4849
2.22533	4849
2.22600	4849
2.22667	4849
2.22733	4849
2.22800	4849
2.22867	4849
2.22933	4849
2.23000	4849
2.23067	4849
2.23133	4849
2.23200	4849
2.23267	4849
2.23333	4849
2.23400	4848
2.23467	4848
2.23533	4848
2.23600	4848
2.23667	4847
2.23733	4847
2.23800	4846
2.23867	4846
2.23933	4845
2.24000	4845
2.24067	4844
2.24133	4843
2.24200	4843
2.24267	4842
2.24333	4841
2.24400	4840
2.24467	4840
2.24533	4839
2.24600	4838
2.24667	4837
2.24733	4837
2.24800	4836
2.24867	4835
2.24933	4834
2.25000	4834
2.25067	4833
2.25133	4832
2.25200	4831
2.25267	4831
2.25333	4830
2.25400	4829
2.25467	4828
2.25533	4828
2.25600	4827
2.25667	4826
2.25733	4825
2.25800	4825
2.25867	4824
2.25933	4823
2.26000	4822
2.26067	4821
2.26133	4820
2.26200	4819
2.26267	4818
2.26333	4818
2.26400	4817
2.26467	4816
2.26533	4814
2.26600	4813
2.26667	4812
2.26733	4811
2.26800	4810
2.26867	4809
2.26933	4807
2.27000	4806
2.27067	4805
2.27133	4804
2.27200	4803
2.27267	4802
2.27333	4800
2.27400	4799
2.27467	4798
2.27533	4797
2.27600	4796
2.27667	4794
2.27733	4793
2.27800	4792
2.27867	4790
2.27933	4789
2.28000	4788
2.28067	4786
2.28133	4785
2.28200	4783
2.28267	4782
2.28333	4781
2.28400	4779
2.28467	4778
2.28533	4776
2.28600	4775
2.28667	4773
2.28733	4772
2.28800	4771
2.28867	4769
2.28933	4768
2.29000	4766
2.29067	4765
2.29133	4764
2.29200	4762
2.29267	4761
2.29333	4760
2.29400	4758
2.29467	4757
2.29533	4756
2.29600	4755
2.29667	4753
2.29733	4752
2.29800	4751
2.29867	4750
2.29933	4748
2.30000	4747
2.30067	4746
2.30133	4745
2.30200	4744
2.30267	4743
2.30333	4742
2.30400	4741
2.30467	4740
2.30533	4739
2.30600	4738
2.30667	4737
2.30733	4736
2.30800	4735
2.30867	4734
2.30933	4733
2.31000	4733
2.31067	4732
2.31133	4731
2.31200	4730
2.31267	4730
2.31333	4729
2.31400	4728
2.31467	4728
2.31533	4727
2.31600	4727
2.31667	4726
2.31733	4726
2.31800	4726
2.31867	4725
2.31933	4725
2.32000	4725
2.32067	4724
2.32133	4724
2.32200	4724
2.32267	4724
2.32333	4724
2.32400	4724
2.32467	4723
2.32533	4723
2.32600	4723
2.32667	4723
2.32733	4723
2.32800	4723
2.32867	4723
2.32933	4723
2.33000	4723
2.33067	4723
2.33133	4723
2.33200	4723
2.33267	4723
2.33333	4723
2.33400	4723
2.33467	4723
2.33533	4723
2.33600	4723
2.33667	4724
2.33733	4724
2.33800	4724
2.33867	4724
2.33933	4725
2.34000	4725
2.34067	4725
2.34133	4726
2.34200	4726
2.34267	4726
2.34333	4727
2.34400	4727
2.34467	4727
2.34533	4728
2.34600	4728
2.34667	4729
2.34733	4729
2.34800	4730
2.34867	4730
2.34933	4731
2.35000	4731
2.35067	4731
2.35133	4732
2.35200	4732
2.35267	4733
2.35333	4733
2.35400	4734
2.35467	4734
2.35533	4735
2.35600	4735
2.35667	4735
2.35733	4736
2.35800	4736
2.35867	4737
2.35933	4737
2.36000	4738
2.36067	4738
2.36133	4739
2.36200	4739
2.36267	4740
2.36333	4740
2.36400	4741
2.36467	4741
2.36533	4742
2.36600	4742
2.36667	4743
2.36733	4743
2.36800	4744
2.36867	4744
2.36933	4745
2.37000	4745
2.37067	4746
2.37133	4746
2.37200	4746
2.37267	4747
2.37333	4747
2.37400	4747
2.37467	4747
2.37533	4748
2.37600	4748
2.37667	4748
2.37733	4748
2.37800	4747
2.37867	4747
2.37933	4747
2.38000	4747
2.38067	4747
2.38133	4747
2.38200	4746
2.38267	4746
2.38333	4746
2.38400	4746
2.38467	4745
2.38533	4745
2.38600	4745
2.38667	4744
2.38733	4744
2.38800	4744
2.38867	4744
2.38933	4743
2.39000	4743
2.39067	4743
2.39133	4742
2.39200	4742
2.39267	4742
2.39333	4741
2.39400	4741
2.39467	4740
2.39533	4740
2.39600	4739
2.39667	4739
2.39733	4738
2.39800	4738
2.39867	4737
2.39933	4737
2.40000	4736
2.40067	4736
2.40133	4735
2.40200	4734
2.40267	4734
2.40333	4733
2.40400	4732
2.40467	4732
2.40533	4731
2.40600	4730
2.40667	4730
2.40733	4729
2.40800	4728
2.40867	4728
2.40933	4727
2.41000	4727
2.41067	4726
2.41133	4725
2.41200	4725
2.41267	4724
2.41333	4724
2.41400	4723
2.41467	4723
2.41533	4722
2.41600	4722
2.41667	4721
2.41733	4721
2.41800	4720
2.41867	4719
2.41933	4719
2.42000	4718
2.42067	4718
2.42133	4717
2.42200	4717
2.42267	4716
2.42333	4715
2.42400	4715
2.42467	4714
2.42533	4713
2.42600	4712
2.42667	4711
2.42733	4711
2.42800	4710
2.42867	4709
2.42933	4708
2.43000	4707
2.43067	4706
2.43133	4705
2.43200	4704
2.43267	4703
2.43333	4702
2.43400	4700
2.43467	4699
2.43533	4698
2.43600	4697
2.43667	4695
2.43733	4694
2.43800	4693
2.43867	4691
2.43933	4690
2.44000	4688
2.44067	4687
2.44133	4685
2.44200	4684
2.44267	4682
2.44333	4681
2.44400	4679
2.44467	4677
2.44533	4675
2.44600	4674
2.44667	4672
2.44733	4670
2.44800	4668
2.44867	4666
2.44933	4664
2.45000	4662
2.45067	4660
2.45133	4658
2.45200	4656
2.45267	4654
2.45333	4652
2.45400	4650
2.45467	4647
2.45533	4645
2.45600	4643
2.45667	4641
2.45733	4639
2.45800	4637
2.45867	4634
2.45933	4632
2.46000	4630
2.46067	4628
2.46133	4625
2.46200	4623
2.46267	4621
2.46333	4618
2.46400	4616
2.46467	4614
2.46533	4611
2.46600	4609
2.46667	4607
2.46733	4605
2.46800	4602
2.46867	4600
2.46933	4598
2.47000	4595
2.47067	4593
2.47133	4591
2.47200	4589
2.47267	4587
2.47333	4585
2.47400	4583
2.47467	4580
2.47533	4578
2.47600	4576
2.47667	4575
2.47733	4573
2.47800	4571
2.47867	4569
2.47933	4567
2.48000	4565
2.48067	4563
2.48133	4561
2.48200	4559
2.48267	4557
2.48333	4555
2.48400	4553
2.48467	4551
2.48533	4550
2.48600	4548
2.48667	4546
2.48733	4544
2.48800	4542
2.48867	4541
2.48933	4539
2.49000	4537
2.49067	4535
2.49133	4533
2.49200	4532
2.49267	4530
2.49333	4528
2.49400	4527
2.49467	4525
2.49533	4523
2.49600	4522
2.49667	4520
2.49733	4518
2.49800	4516
2.49867	4515
2.49933	4513
2.50000	4512
2.50067	4510
2.50133	4509
2.50200	4507
2.50267	4505
2.50333	4504
2.50400	4502
2.50467	4501
2.50533	4499
2.50600	4498
2.50667	4496
2.50733	4495
2.50800	4493
2.50867	4491
2.50933	4490
2.51000	4488
2.51067	4487
2.51133	4485
2.51200	4483
2.51267	4482
2.51333	4480
2.51400	4478
2.51467	4477
2.51533	4475
2.51600	4474
2.51667	4472
2.51733	4470
2.51800	4469
2.51867	4467
2.51933	4465
2.52000	4464
2.52067	4462
2.52133	4460
2.52200	4458
2.52267	4457
2.52333	4455
2.52400	4453
2.52467	4452
2.52533	4450
2.52600	4448
2.52667	4447
2.52733	4445
2.52800	4443
2.52867	4442
2.52933	4440
2.53000	4439
2.53067	4437
2.53133	4436
2.53200	4434
2.53267	4433
2.53333	4431
2.53400	4429
2.53467	4428
2.53533	4426
2.53600	4424
2.53667	4423
2.53733	4421
2.53800	4420
2.53867	4418
2.53933	4416
2.54000	4415
2.54067	4413
2.54133	4412
2.54200	4410
2.54267	4408
2.54333	4407
2.54400	4405
2.54467	4404
2.54533	4402
2.54600	4400
2.54667	4399
2.54733	4397
2.54800	4396
2.54867	4394
2.54933	4393
2.55000	4391
2.55067	4390
2.55133	4388
2.55200	4387
2.55267	4385
2.55333	4384
2.55400	4383
2.55467	4381
2.55533	4380
2.55600	4378
2.55667	4377
2.55733	4375
2.55800	4374
2.55867	4373
2.55933	4371
2.56000	4370
2.56067	4369
2.56133	4367
2.56200	4366
2.56267	4365
2.56333	4364
2.56400	4362
2.56467	4361
2.56533	4360
2.56600	4359
2.56667	4357
2.56733	4356
2.56800	4355
2.56867	4354
2.56933	4352
2.57000	4351
2.57067	4350
2.57133	4349
2.57200	4347
2.57267	4346
2.57333	4345
2.57400	4344
2.57467	4343
2.57533	4342
2.57600	4341
2.57667	4339
2.57733	4338
2.57800	4337
2.57867	4336
2.57933	4335
2.58000	4334
2.58067	4333
2.58133	4332
2.58200	4330
2.58267	4329
2.58333	4328
2.58400	4327
2.58467	4326
2.58533	4325
2.58600	4324
2.58667	4323
2.58733	4322
2.58800	4321
2.58867	4320
2.58933	4319
2.59000	4318
2.59067	4317
2.59133	4316
2.59200	4315
2.59267	4314
2.59333	4313
2.59400	4313
2.59467	4312
2.59533	4311
2.59600	4310
2.59667	4309
2.59733	4309
2.59800	4308
2.59867	4307
2.59933	4306
2.60000	4305
2.60067	4305
2.60133	4304
2.60200	4303
2.60267	4302
2.60333	4301
2.60400	4300
2.60467	4299
2.60533	4298
2.60600	4297
2.60667	4296
2.60733	4295
2.60800	4294
2.60867	4293
2.60933	4292
2.61000	4291
2.61067	4290
2.61133	4289
2.61200	4288
2.61267	4287
2.61333	4286
2.61400	4285
2.61467	4285
2.61533	4284
2.61600	4283
2.61667	4282
2.61733	4281
2.61800	4280
2.61867	4279
2.61933	4278
2.62000	4278
2.62067	4277
2.62133	4276
2.62200	4275
2.62267	4274
2.62333	4273
2.62400	4272
2.62467	4271
2.62533	4270
2.62600	4269
2.62667	4267
2.62733	4266
2.62800	4265
2.62867	4264
2.62933	4263
2.63000	4262
2.63067	4261
2.63133	4260
2.63200	4259
2.63267	4257
2.63333	4256
2.63400	4255
2.63467	4254
2.63533	4253
2.63600	4251
2.63667	4250
2.63733	4249
2.63800	4248
2.63867	4247
2.63933	4246
2.64000	4245
2.64067	4244
2.64133	4243
2.64200	4242
2.64267	4241
2.64333	4240
2.64400	4239
2.64467	4238
2.64533	4237
2.64600	4236
2.64667	4235
2.64733	4233
2.64800	4232
2.64867	4231
2.64933	4230
2.65000	4229
2.65067	4228
2.65133	4227
2.65200	4226
2.65267	4224
2.65333	4223
2.65400	4222
2.65467	4221
2.65533	4220
2.65600	4219
2.65667	4218
2.65733	4216
2.65800	4215
2.65867	4214
2.65933	4213
2.66000	4212
2.66067	4211
2.66133	4210
2.66200	4208
2.66267	4207
2.66333	4206
2.66400	4205
2.66467	4204
2.66533	4202
2.66600	4201
2.66667	4200
2.66733	4199
2.66800	4198
2.66867	4196
2.66933	4195
2.67000	4194
2.67067	4193
2.67133	4192
2.67200	4191
2.67267	4190
2.67333	4189
2.67400	4188
2.67467	4186
2.67533	4185
2.67600	4184
2.67667	4183
2.67733	4182
2.67800	4181
2.67867	4180
2.67933	4178
2.68000	4177
2.68067	4176
2.68133	4175
2.68200	4174
2.68267	4173
2.68333	4172
2.68400	4170
2.68467	4169
2.68533	4168
2.68600	4167
2.68667	4166
2.68733	4165
2.68800	4163
2.68867	4162
2.68933	4161
2.69000	4160
2.69067	4159
2.69133	4158
2.69200	4157
2.69267	4156
2.69333	4155
2.69400	4154
2.69467	4153
2.69533	4152
2.69600	4151
2.69667	4150
2.69733	4149
2.69800	4148
2.69867	4147
2.69933	4146
2.70000	4145
2.70067	4144
2.70133	4144
2.70200	4143
2.70267	4142
2.70333	4141
2.70400	4140
2.70467	4139
2.70533	4139
2.70600	4138
2.70667	4137
2.70733	4136
2.70800	4135
2.70867	4135
2.70933	4134
2.71000	4133
2.71067	4132
2.71133	4132
2.71200	4131
2.71267	4130
2.71333	4130
2.71400	4129
2.71467	4128
2.71533	4128
2.71600	4127
2.71667	4126
2.71733	4126
2.71800	4125
2.71867	4124
2.71933	4124
2.72000	4123
2.72067	4122
2.72133	4122
2.72200	4121
2.72267	4120
2.72333	4120
2.72400	4119
2.72467	4118
2.72533	4118
2.72600	4117
2.72667	4116
2.72733	4116
2.72800	4115
2.72867	4114
2.72933	4114
2.73000	4113
2.73067	4113
2.73133	4112
2.73200	4111
2.73267	4111
2.73333	4110
2.73400	4110
2.73467	4109
2.73533	4109
2.73600	4108
2.73667	4108
2.73733	4107
2.73800	4107
2.73867	4106
2.73933	4106
2.74000	4105
2.74067	4105
2.74133	4104
2.74200	4104
2.74267	4103
2.74333	4103
2.74400	4103
2.74467	4102
2.74533	4102
2.74600	4101
2.74667	4101
2.74733	4101
2.74800	4100
2.74867	4100
2.74933	4100
2.75000	4099
2.75067	4099
2.75133	4099
2.75200	4098
2.75267	4098
2.75333	4098
2.75400	4098
2.75467	4098
2.75533	4097
2.75600	4097
2.75667	4097
2.75733	4097
2.75800	4097
2.75867	4097
2.75933	4097
2.76000	4097
2.76067	4097
2.76133	4097
2.76200	4098
2.76267	4098
2.76333	4098
2.76400	4098
2.76467	4098
2.76533	4099
2.76600	4099
2.76667	4099
2.76733	4099
2.76800	4100
2.76867	4100
2.76933	4100
2.77000	4101
2.77067	4101
2.77133	4101
2.77200	4102
2.77267	4102
2.77333	4103
2.77400	4104
2.77467	4104
2.77533	4105
2.77600	4105
2.77667	4106
2.77733	4107
2.77800	4108
2.77867	4109
2.77933	4109
2.78000	4110
2.78067	4111
2.78133	4113
2.78200	4114
2.78267	4115
2.78333	4116
2.78400	4118
2.78467	4119
2.78533	4121
2.78600	4122
2.78667	4124
2.78733	4126
2.78800	4128
2.78867	4129
2.78933	4131
2.79000	4133
2.79067	4135
2.79133	4137
2.79200	4140
2.79267	4142
2.79333	4144
2.79400	4147
2.79467	4149
2.79533	4152
2.79600	4154
2.79667	4157
2.79733	4160
2.79800	4162
2.79867	4165
2.79933	4168
2.80000	4171
2.80067	4174
2.80133	4177
2.80200	4180
2.80267	4183
2.80333	4186
2.80400	4190
2.80467	4193
2.80533	4196
2.80600	4199
2.80667	4203
2.80733	4206
2.80800	4209
2.80867	4213
2.80933	4216
2.81000	4220
2.81067	4223
2.81133	4226
2.81200	4230
2.81267	4233
2.81333	4237
2.81400	4240
2.81467	4243
2.81533	4247
2.81600	4250
2.81667	4253
2.81733	4256
2.81800	4259
2.81867	4262
2.81933	4265
2.82000	4268
2.82067	4271
2.82133	4274
2.82200	4276
2.82267	4279
2.82333	4281
2.82400	4284
2.82467	4286
2.82533	4288
2.82600	4290
2.82667	4292
2.82733	4294
2.82800	4296
2.82867	4297
2.82933	4299
2.83000	4300
2.83067	4302
2.83133	4303
2.83200	4304
2.83267	4305
2.83333	4305
2.83400	4306
2.83467	4307
2.83533	4307
2.83600	4307
2.83667	4308
2.83733	4308
2.83800	4308
2.83867	4307
2.83933	4307
2.84000	4307
2.84067	4306
2.84133	4306
2.84200	4305
2.84267	4304
2.84333	4303
2.84400	4302
2.84467	4301
2.84533	4300
2.84600	4298
2.84667	4297
2.84733	4295
2.84800	4294
2.84867	4292
2.84933	4290
2.85000	4289
2.85067	4287
2.85133	4285
2.85200	4283
2.85267	4281
2.85333	4279
2.85400	4277
2.85467	4275
2.85533	4273
2.85600	4271
2.85667	4268
2.85733	4266
2.85800	4264
2.85867	4262
2.85933	4260
2.86000	4258
2.86067	4256
2.86133	4254
2.86200	4252
2.86267	4250
2.86333	4248
2.86400	4246
2.86467	4244
2.86533	4242
2.86600	4240
2.86667	4238
2.86733	4237
2.86800	4235
2.86867	4233
2.86933	4232
2.87000	4230
2.87067	4229
2.87133	4228
2.87200	4226
2.87267	4225
2.87333	4224
2.87400	4224
2.87467	4223
2.87533	4222
2.87600	4221
2.87667	4221
2.87733	4221
2.87800	4220
2.87867	4220
2.87933	4220
2.88000	4220
2.88067	4221
2.88133	4221
2.88200	4222
2.88267	4222
2.88333	4223
2.88400	4224
2.88467	4225
2.88533	4227
2.88600	4228
2.88667	4230
2.88733	4232
2.88800	4234
2.88867	4236
2.88933	4238
2.89000	4241
2.89067	4243
2.89133	4246
2.89200	4249
2.89267	4252
2.89333	4255
2.89400	4258
2.89467	4262
2.89533	4265
2.89600	4269
2.89667	4272
2.89733	4276
2.89800	4280
2.89867	4283
2.89933	4287
2.90000	4291
2.90067	4295
2.90133	4299
2.90200	4303
2.90267	4307
2.90333	4311
2.90400	4314
2.90467	4318
2.90533	4322
2.90600	4325
2.90667	4328
2.90733	4332
2.90800	4335
2.90867	4338
2.90933	4341
2.91000	4344
2.91067	4346
2.91133	4349
2.91200	4351
2.91267	4353
2.91333	4355
2.91400	4356
2.91467	4358
2.91533	4359
2.91600	4360
2.91667	4360
2.91733	4361
2.91800	4361
2.91867	4361
2.91933	4360
2.92000	4360
2.92067	4359
2.92133	4358
2.92200	4356
2.92267	4355
2.92333	4353
2.92400	4351
2.92467	4349
2.92533	4346
2.92600	4343
2.92667	4340
2.92733	4337
2.92800	4334
2.92867	4330
2.92933	4326
2.93000	4322
2.93067	4318
2.93133	4314
2.93200	4309
2.93267	4304
2.93333	4299
2.93400	4294
2.93467	4289
2.93533	4284
2.93600	4278
2.93667	4272
2.93733	4267
2.93800	4261
2.93867	4255
2.93933	4249
2.94000	4243
2.94067	4237
2.94133	4230
2.94200	4224
2.94267	4218
2.94333	4211
2.94400	4205
2.94467	4198
2.94533	4192
2.94600	4185
2.94667	4179
2.94733	4173
2.94800	4166
2.94867	4160
2.94933	4153
2.95000	4147
2.95067	4140
2.95133	4134
2.95200	4128
2.95267	4122
2.95333	4115
2.95400	4109
2.95467	4103
2.95533	4097
2.95600	4091
2.95667	4085
2.95733	4079
2.95800	4073
2.95867	4067
2.95933	4061
2.96000	4055
2.96067	4050
2.96133	4044
2.96200	4038
2.96267	4033
2.96333	4028
2.96400	4022
2.96467	4017
2.96533	4012
2.96600	4006
2.96667	4001
2.96733	3996
2.96800	3991
2.96867	3986
2.96933	3981
2.97000	3977
2.97067	3972
2.97133	3967
2.97200	3963
2.97267	3958
2.97333	3954
2.97400	3949
2.97467	3945
2.97533	3941
2.97600	3937
2.97667	3932
2.97733	3928
2.97800	3924
2.97867	3921
2.97933	3917
2.98000	3913
2.98067	3909
2.98133	3906
2.98200	3902
2.98267	3899
2.98333	3895
2.98400	3892
2.98467	3888
2.98533	3885
2.98600	3882
2.98667	3879
2.98733	3876
2.98800	3872
2.98867	3869
2.98933	3866
2.99000	3863
2.99067	3861
2.99133	3858
2.99200	3855
2.99267	3852
2.99333	3849
2.99400	3847
2.99467	3844
2.99533	3841
2.99600	3839
2.99667	3836
2.99733	3834
2.99800	3831
2.99867	3828
2.99933	3826
3.00000	3823
3.00067	3821
3.00133	3819
3.00200	3816
3.00267	3814
3.00333	3811
3.00400	3809
3.00467	3807
3.00533	3804
3.00600	3802
3.00667	3800
3.00733	3798
3.00800	3795
3.00867	3793
3.00933	3791
3.01000	3789
3.01067	3787
3.01133	3785
3.01200	3783
3.01267	3782
3.01333	3780
3.01400	3778
3.01467	3776
3.01533	3774
3.01600	3772
3.01667	3770
3.01733	3769
3.01800	3767
3.01867	3765
3.01933	3763
3.02000	3761
3.02067	3759
3.02133	3758
3.02200	3756
3.02267	3754
3.02333	3752
3.02400	3750
3.02467	3748
3.02533	3747
3.02600	3745
3.02667	3743
3.02733	3741
3.02800	3740
3.02867	3738
3.02933	3736
3.03000	3735
3.03067	3733
3.03133	3731
3.03200	3730
3.03267	3728
3.03333	3726
3.03400	3725
3.03467	3723
3.03533	3721
3.03600	3720
3.03667	3718
3.03733	3717
3.03800	3715
3.03867	3714
3.03933	3713
3.04000	3711
3.04067	3710
3.04133	3709
3.04200	3707
3.04267	3706
3.04333	3705
3.04400	3703
3.04467	3702
3.04533	3701
3.04600	3700
3.04667	3699
3.04733	3697
3.04800	3696
3.04867	3695
3.04933	3694
3.05000	3693
3.05067	3692
3.05133	3691
3.05200	3690
3.05267	3690
3.05333	3689
3.05400	3688
3.05467	3687
3.05533	3687
3.05600	3686
3.05667	3685
3.05733	3685
3.05800	3684
3.05867	3684
3.05933	3683
3.06000	3683
3.06067	3682
3.06133	3682
3.06200	3682
3.06267	3681
3.06333	3681
3.06400	3681
3.06467	3681
3.06533	3681
3.06600	3681
3.06667	3681
3.06733	3681
3.06800	3681
3.06867	3681
3.06933	3681
3.07000	3682
3.07067	3682
3.07133	3682
3.07200	3683
3.07267	3683
3.07333	3683
3.07400	3684
3.07467	3684
3.07533	3685
3.07600	3685
3.07667	3686
3.07733	3686
3.07800	3687
3.07867	3687
3.07933	3688
3.08000	3688
3.08067	3689
3.08133	3690
3.08200	3690
3.08267	3691
3.08333	3691
3.08400	3692
3.08467	3692
3.08533	3693
3.08600	3693
3.08667	3694
3.08733	3694
3.08800	3695
3.08867	3695
3.08933	3695
3.09000	3696
3.09067	3696
3.09133	3696
3.09200	3697
3.09267	3697
3.09333	3697
3.09400	3697
3.09467	3697
3.09533	3697
3.09600	3697
3.09667	3697
3.09733	3696
3.09800	3696
3.09867	3696
3.09933	3695
3.10000	3695
3.10067	3695
3.10133	3694
3.10200	3693
3.10267	3693
3.10333	3692
3.10400	3691
3.10467	3690
3.10533	3689
3.10600	3688
3.10667	3687
3.10733	3686
3.10800	3685
3.10867	3684
3.10933	3683
3.11000	3682
3.11067	3681
3.11133	3679
3.11200	3678
3.11267	3677
3.11333	3675
3.11400	3674
3.11467	3672
3.11533	3671
3.11600	3669
3.11667	3668
3.11733	3666
3.11800	3664
3.11867	3663
3.11933	3661
3.12000	3659
3.12067	3657
3.12133	3656
3.12200	3654
3.12267	3652
3.12333	3650
3.12400	3648
3.12467	3646
3.12533	3644
3.12600	3642
3.12667	3641
3.12733	3639
3.12800	3637
3.12867	3635
3.12933	3633
3.13000	3631
3.13067	3630
3.13133	3628
3.13200	3626
3.13267	3624
3.13333	3622
3.13400	3621
3.13467	3619
3.13533	3617
3.13600	3615
3.13667	3614
3.13733	3612
3.13800	3610
3.13867	3609
3.13933	3607
3.14000	3605
3.14067	3604
3.14133	3602
3.14200	3600
3.14267	3599
3.14333	3597
3.14400	3595
3.14467	3594
3.14533	3592
3.14600	3591
3.14667	3589
3.14733	3588
3.14800	3586
3.14867	3585
3.14933	3583
3.15000	3582
3.15067	3580
3.15133	3579
3.15200	3577
3.15267	3576
3.15333	3575
3.15400	3573
3.15467	3572
3.15533	3570
3.15600	3569
3.15667	3568
3.15733	3566
3.15800	3565
3.15867	3564
3.15933	3563
3.16000	3562
3.16067	3560
3.16133	3559
3.16200	3558
3.16267	3557
3.16333	3556
3.16400	3555
3.16467	3554
3.16533	3552
3.16600	3551
3.16667	3550
3.16733	3549
3.16800	3548
3.16867	3547
3.16933	3546
3.17000	3545
3.17067	3544
3.17133	3543
3.17200	3542
3.17267	3541
3.17333	3540
3.17400	3539
3.17467	3538
3.17533	3537
3.17600	3536
3.17667	3535
3.17733	3534
3.17800	3533
3.17867	3532
3.17933	3531
3.18000	3530
3.18067	3529
3.18133	3528
3.18200	3527
3.18267	3526
3.18333	3525
3.18400	3524
3.18467	3523
3.18533	3522
3.18600	3521
3.18667	3520
3.18733	3519
3.18800	3519
3.18867	3518
3.18933	3517
3.19000	3516
3.19067	3515
3.19133	3514
3.19200	3513
3.19267	3512
3.19333	3511
3.19400	3510
3.19467	3509
3.19533	3508
3.19600	3508
3.19667	3507
3.19733	3506
3.19800	3505
3.19867	3504
3.19933	3503
3.20000	3502
3.20067	3501
3.20133	3500
3.20200	3499
3.20267	3498
3.20333	3497
3.20400	3496
3.20467	3496
3.20533	3495
3.20600	3494
3.20667	3493
3.20733	3492
3.20800	3491
3.20867	3490
3.20933	3489
3.21000	3488
3.21067	3487
3.21133	3486
3.21200	3485
3.21267	3485
3.21333	3484
3.21400	3483
3.21467	3482
3.21533	3481
3.21600	3481
3.21667	3480
3.21733	3479
3.21800	3478
3.21867	3478
3.21933	3477
3.22000	3476
3.22067	3476
3.22133	3475
3.22200	3474
3.22267	3474
3.22333	3473
3.22400	3472
3.22467	3472
3.22533	3471
3.22600	3470
3.22667	3470
3.22733	3469
3.22800	3469
3.22867	3468
3.22933	3467
3.23000	3467
3.23067	3466
3.23133	3466
3.23200	3465
3.23267	3465
3.23333	3464
3.23400	3464
3.23467	3463
3.23533	3463
3.23600	3462
3.23667	3462
3.23733	3461
3.23800	3461
3.23867	3461
3.23933	3460
3.24000	3460
3.24067	3460
3.24133	3459
3.24200	3459
3.24267	3459
3.24333	3458
3.24400	3458
3.24467	3458
3.24533	3458
3.24600	3457
3.24667	3457
3.24733	3457
3.24800	3457
3.24867	3457
3.24933	3456
3.25000	3456
3.25067	3456
3.25133	3456
3.25200	3456
3.25267	3455
3.25333	3455
3.25400	3455
3.25467	3455
3.25533	3454
3.25600	3454
3.25667	3454
3.25733	3453
3.25800	3453
3.25867	3453
3.25933	3453
3.26000	3452
3.26067	3452
3.26133	3452
3.26200	3451
3.26267	3451
3.26333	3451
3.26400	3450
3.26467	3450
3.26533	3450
3.26600	3449
3.26667	3449
3.26733	3449
3.26800	3448
3.26867	3448
3.26933	3448
3.27000	3447
3.27067	3447
3.27133	3447
3.27200	3446
3.27267	3446
3.27333	3446
3.27400	3445
3.27467	3445
3.27533	3445
3.27600	3444
3.27667	3444
3.27733	3444
3.27800	3443
3.27867	3443
3.27933	3443
3.28000	3442
3.28067	3442
3.28133	3442
3.28200	3441
3.28267	3441
3.28333	3441
3.28400	3440
3.28467	3440
3.28533	3440
3.28600	3440
3.28667	3440
3.28733	3439
3.28800	3439
3.28867	3439
3.28933	3438
3.29000	3438
3.29067	3438
3.29133	3438
3.29200	3437
3.29267	3437
3.29333	3437
3.29400	3436
3.29467	3436
3.29533	3436
3.29600	3436
3.29667	3435
3.29733	3435
3.29800	3435
3.29867	3435
3.29933	3434
3.30000	3434
3.30067	3434
3.30133	3434
3.30200	3433
3.30267	3433
3.30333	3433
3.30400	3433
3.30467	3433
3.30533	3433
3.30600	3432
3.30667	3432
3.30733	3432
3.30800	3432
3.30867	3432
3.30933	3432
3.31000	3432
3.31067	3432
3.31133	3432
3.31200	3432
3.31267	3432
3.31333	3432
3.31400	3431
3.31467	3431
3.31533	3431
3.31600	3431
3.31667	3431
3.31733	3430
3.31800	3430
3.31867	3430
3.31933	3430
3.32000	3430
3.32067	3429
3.32133	3429
3.32200	3429
3.32267	3429
3.32333	3428
3.32400	3428
3.32467	3428
3.32533	3427
3.32600	3427
3.32667	3427
3.32733	3426
3.32800	3426
3.32867	3426
3.32933	3425
3.33000	3425
3.33067	3425
3.33133	3425
3.33200	3424
3.33267	3424
3.33333	3424
3.33400	3423
3.33467	3423
3.33533	3423
3.33600	3422
3.33667	3422
3.33733	3422
3.33800	3421
3.33867	3421
3.33933	3421
3.34000	3420
3.34067	3420
3.34133	3420
3.34200	3419
3.34267	3419
3.34333	3419
3.34400	3418
3.34467	3418
3.34533	3418
3.34600	3417
3.34667	3417
3.34733	3417
3.34800	3416
3.34867	3416
3.34933	3416
3.35000	3415
3.35067	3415
3.35133	3415
3.35200	3414
3.35267	3414
3.35333	3414
3.35400	3414
3.35467	3413
3.35533	3413
3.35600	3413
3.35667	3413
3.35733	3413
3.35800	3412
3.35867	3412
3.35933	3412
3.36000	3412
3.36067	3412
3.36133	3412
3.36200	3412
3.36267	3412
3.36333	3411
3.36400	3411
3.36467	3411
3.36533	3411
3.36600	3411
3.36667	3411
3.36733	3411
3.36800	3411
3.36867	3411
3.36933	3411
3.37000	3411
3.37067	3411
3.37133	3411
3.37200	3411
3.37267	3411
3.37333	3412
3.37400	3412
3.37467	3412
3.37533	3412
3.37600	3412
3.37667	3412
3.37733	3412
3.37800	3413
3.37867	3413
3.37933	3413
3.38000	3413
3.38067	3414
3.38133	3414
3.38200	3414
3.38267	3415
3.38333	3415
3.38400	3416
3.38467	3416
3.38533	3417
3.38600	3417
3.38667	3418
3.38733	3418
3.38800	3419
3.38867	3419
3.38933	3420
3.39000	3420
3.39067	3421
3.39133	3421
3.39200	3422
3.39267	3422
3.39333	3423
3.39400	3423
3.39467	3424
3.39533	3425
3.39600	3425
3.39667	3426
3.39733	3427
3.39800	3427
3.39867	3428
3.39933	3429
3.40000	3429
3.40067	3430
3.40133	3431
3.40200	3431
3.40267	3432
3.40333	3433
3.40400	3434
3.40467	3434
3.40533	3435
3.40600	3436
3.40667	3437
3.40733	3438
3.40800	3439
3.40867	3440
3.40933	3440
3.41000	3441
3.41067	3442
3.41133	3443
3.41200	3444
3.41267	3445
3.41333	3446
3.41400	3447
3.41467	3448
3.41533	3449
3.41600	3450
3.41667	3451
3.41733	3452
3.41800	3453
3.41867	3454
3.41933	3456
3.42000	3457
3.42067	3458
3.42133	3459
3.42200	3460
3.42267	3461
3.42333	3462
3.42400	3463
3.42467	3464
3.42533	3465
3.42600	3467
3.42667	3468
3.42733	3469
3.42800	3471
3.42867	3472
3.42933	3473
3.43000	3475
3.43067	3476
3.43133	3478
3.43200	3479
3.43267	3481
3.43333	3482
3.43400	3484
3.43467	3485
3.43533	3487
3.43600	3489
3.43667	3490
3.43733	3492
3.43800	3494
3.43867	3496
3.43933	3498
3.44000	3500
3.44067	3502
3.44133	3504
3.44200	3506
3.44267	3508
3.44333	3511
3.44400	3513
3.44467	3516
3.44533	3518
3.44600	3521
3.44667	3523
3.44733	3526
3.44800	3529
3.44867	3531
3.44933	3534
3.45000	3537
3.45067	3540
3.45133	3543
3.45200	3546
3.45267	3550
3.45333	3553
3.45400	3556
3.45467	3560
3.45533	3563
3.45600	3567
3.45667	3570
3.45733	3574
3.45800	3578
3.45867	3582
3.45933	3586
3.46000	3590
3.46067	3594
3.46133	3598
3.46200	3602
3.46267	3606
3.46333	3610
3.46400	3614
3.46467	3619
3.46533	3623
3.46600	3627
3.46667	3632
3.46733	3636
3.46800	3640
3.46867	3645
3.46933	3650
3.47000	3654
3.47067	3659
3.47133	3663
3.47200	3668
3.47267	3673
3.47333	3677
3.47400	3682
3.47467	3687
3.47533	3691
3.47600	3696
3.47667	3701
3.47733	3706
3.47800	3710
3.47867	3715
3.47933	3720
3.48000	3725
3.48067	3729
3.48133	3734
3.48200	3739
3.48267	3744
3.48333	3749
3.48400	3754
3.48467	3759
3.48533	3765
3.48600	3770
3.48667	3775
3.48733	3781
3.48800	3787
3.48867	3792
3.48933	3798
3.49000	3804
3.49067	3810
3.49133	3816
3.49200	3822
3.49267	3829
3.49333	3835
3.49400	3842
3.49467	3848
3.49533	3855
3.49600	3863
3.49667	3870
3.49733	3878
3.49800	3885
3.49867	3893
3.49933	3902
3.50000	3910
3.50067	3919
3.50133	3928
3.50200	3938
3.50267	3947
3.50333	3958
3.50400	3968
3.50467	3979
3.50533	3990
3.50600	4002
3.50667	4015
3.50733	4027
3.50800	4041
3.50867	4055
3.50933	4069
3.51000	4084
3.51067	4100
3.51133	4116
3.51200	4133
3.51267	4150
3.51333	4169
3.51400	4187
3.51467	4207
3.51533	4227
3.51600	4248
3.51667	4270
3.51733	4293
3.51800	4316
3.51867	4340
3.51933	4365
3.52000	4391
3.52067	4417
3.52133	4445
3.52200	4473
3.52267	4503
3.52333	4533
3.52400	4564
3.52467	4597
3.52533	4630
3.52600	4664
3.52667	4699
3.52733	4735
3.52800	4772
3.52867	4811
3.52933	4850
3.53000	4890
3.53067	4931
3.53133	4973
3.53200	5016
3.53267	5060
3.53333	5105
3.53400	5151
3.53467	5197
3.53533	5245
3.53600	5293
3.53667	5342
3.53733	5392
3.53800	5442
3.53867	5494
3.53933	5546
3.54000	5598
3.54067	5651
3.54133	5705
3.54200	5759
3.54267	5814
3.54333	5869
3.54400	5925
3.54467	5981
3.54533	6037
3.54600	6094
3.54667	6151
3.54733	6208
3.54800	6265
3.54867	6323
3.54933	6380
3.55000	6437
3.55067	6494
3.55133	6551
3.55200	6608
3.55267	6665
3.55333	6721
3.55400	6777
3.55467	6832
3.55533	6887
3.55600	6942
3.55667	6996
3.55733	7049
3.55800	7102
3.55867	7154
3.55933	7205
3.56000	7256
3.56067	7305
3.56133	7354
3.56200	7402
3.56267	7449
3.56333	7494
3.56400	7539
3.56467	7582
3.56533	7625
3.56600	7666
3.56667	7706
3.56733	7744
3.56800	7782
3.56867	7818
3.56933	7852
3.57000	7886
3.57067	7918
3.57133	7948
3.57200	7977
3.57267	8005
3.57333	8032
3.57400	8057
3.57467	8081
3.57533	8103
3.57600	8124
3.57667	8143
3.57733	8162
3.57800	8179
3.57867	8194
3.57933	8208
3.58000	8221
3.58067	8233
3.58133	8243
3.58200	8252
3.58267	8260
3.58333	8266
3.58400	8271
3.58467	8275
3.58533	8278
3.58600	8279
3.58667	8280
3.58733	8279
3.58800	8277
3.58867	8275
3.58933	8271
3.59000	8266
3.59067	8260
3.59133	8254
3.59200	8246
3.59267	8238
3.59333	8228
3.59400	8218
3.59467	8207
3.59533	8195
3.59600	8183
3.59667	8169
3.59733	8155
3.59800	8141
3.59867	8125
3.59933	8109
3.60000	8093
3.60067	8076
3.60133	8058
3.60200	8040
3.60267	8022
3.60333	8002
3.60400	7983
3.60467	7963
3.60533	7942
3.60600	7921
3.60667	7900
3.60733	7878
3.60800	7856
3.60867	7834
3.60933	7811
3.61000	7788
3.61067	7765
3.61133	7741
3.61200	7718
3.61267	7693
3.61333	7669
3.61400	7644
3.61467	7619
3.61533	7594
3.61600	7568
3.61667	7542
3.61733	7516
3.61800	7490
3.61867	7463
3.61933	7436
3.62000	7409
3.62067	7382
3.62133	7355
3.62200	7327
3.62267	7300
3.62333	7272
3.62400	7244
3.62467	7216
3.62533	7188
3.62600	7159
3.62667	7131
3.62733	7102
3.62800	7073
3.62867	7044
3.62933	7015
3.63000	6986
3.63067	6957
3.63133	6927
3.63200	6898
3.63267	6868
3.63333	6838
3.63400	6809
3.63467	6779
3.63533	6749
3.63600	6719
3.63667	6689
3.63733	6659
3.63800	6629
3.63867	6599
3.63933	6568
3.64000	6538
3.64067	6508
3.64133	6478
3.64200	6447
3.64267	6417
3.64333	6387
3.64400	6357
3.64467	6327
3.64533	6297
3.64600	6267
3.64667	6237
3.64733	6207
3.64800	6178
3.64867	6148
3.64933	6119
3.65000	6089
3.65067	6060
3.65133	6031
3.65200	6002
3.65267	5974
3.65333	5945
3.65400	5917
3.65467	5888
3.65533	5860
3.65600	5832
3.65667	5804
3.65733	5777
3.65800	5749
3.65867	5722
3.65933	5695
3.66000	5668
3.66067	5641
3.66133	5614
3.66200	5588
3.66267	5562
3.66333	5536
3.66400	5510
3.66467	5484
3.66533	5459
3.66600	5434
3.66667	5409
3.66733	5384
3.66800	5360
3.66867	5336
3.66933	5312
3.67000	5288
3.67067	5265
3.67133	5242
3.67200	5219
3.67267	5196
3.67333	5173
3.67400	5151
3.67467	5129
3.67533	5108
3.67600	5086
3.67667	5065
3.67733	5044
3.67800	5023
3.67867	5003
3.67933	4983
3.68000	4963
3.68067	4943
3.68133	4924
3.68200	4905
3.68267	4886
3.68333	4868
3.68400	4849
3.68467	4831
3.68533	4813
3.68600	4796
3.68667	4778
3.68733	4761
3.68800	4744
3.68867	4727
3.68933	4711
3.69000	4695
3.69067	4678
3.69133	4663
3.69200	4647
3.69267	4631
3.69333	4616
3.69400	4601
3.69467	4587
3.69533	4572
3.69600	4558
3.69667	4544
3.69733	4530
3.69800	4516
3.69867	4503
3.69933	4489
3.70000	4476
3.70067	4463
3.70133	4451
3.70200	4438
3.70267	4426
3.70333	4414
3.70400	4402
3.70467	4390
3.70533	4378
3.70600	4367
3.70667	4355
3.70733	4344
3.70800	4333
3.70867	4322
3.70933	4312
3.71000	4301
3.71067	4291
3.71133	4281
3.71200	4270
3.71267	4261
3.71333	4251
3.71400	4241
3.71467	4232
3.71533	4222
3.71600	4213
3.71667	4204
3.71733	4196
3.71800	4187
3.71867	4178
3.71933	4170
3.72000	4162
3.72067	4154
3.72133	4146
3.72200	4138
3.72267	4130
3.72333	4122
3.72400	4115
3.72467	4107
3.72533	4100
3.72600	4093
3.72667	4085
3.72733	4078
3.72800	4071
3.72867	4064
3.72933	4058
3.73000	4051
3.73067	4044
3.73133	4038
3.73200	4031
3.73267	4025
3.73333	4018
3.73400	4012
3.73467	4006
3.73533	4000
3.73600	3994
3.73667	3988
3.73733	3982
3.73800	3976
3.73867	3970
3.73933	3965
3.74000	3959
3.74067	3953
3.74133	3948
3.74200	3942
3.74267	3937
3.74333	3932
3.74400	3926
3.74467	3921
3.74533	3916
3.74600	3911
3.74667	3906
3.74733	3901
3.74800	3896
3.74867	3891
3.74933	3886
3.75000	3881
3.75067	3876
3.75133	3871
3.75200	3867
3.75267	3862
3.75333	3857
3.75400	3853
3.75467	3848
3.75533	3843
3.75600	3839
3.75667	3834
3.75733	3830
3.75800	3826
3.75867	3821
3.75933	3817
3.76000	3813
3.76067	3809
3.76133	3805
3.76200	3801
3.76267	3796
3.76333	3792
3.76400	3788
3.76467	3785
3.76533	3781
3.76600	3777
3.76667	3773
3.76733	3769
3.76800	3766
3.76867	3762
3.76933	3758
3.77000	3755
3.77067	3751
3.77133	3748
3.77200	3745
3.77267	3741
3.77333	3738
3.77400	3734
3.77467	3731
3.77533	3727
3.77600	3724
3.77667	3721
3.77733	3717
3.77800	3714
3.77867	3711
3.77933	3708
3.78000	3705
3.78067	3702
3.78133	3698
3.78200	3695
3.78267	3692
3.78333	3689
3.78400	3686
3.78467	3683
3.78533	3680
3.78600	3678
3.78667	3675
3.78733	3672
3.78800	3669
3.78867	3666
3.78933	3663
3.79000	3660
3.79067	3657
3.79133	3654
3.79200	3652
3.79267	3649
3.79333	3646
3.79400	3643
3.79467	3641
3.79533	3638
3.79600	3635
3.79667	3633
3.79733	3630
3.79800	3628
3.79867	3625
3.79933	3623
3.80000	3620
3.80067	3618
3.80133	3616
3.80200	3613
3.80267	3611
3.80333	3608
3.80400	3606
3.80467	3604
3.80533	3601
3.80600	3599
3.80667	3596
3.80733	3594
3.80800	3592
3.80867	3589
3.80933	3587
3.81000	3584
3.81067	3582
3.81133	3579
3.81200	3577
3.81267	3575
3.81333	3572
3.81400	3570
3.81467	3567
3.81533	3565
3.81600	3562
3.81667	3560
3.81733	3558
3.81800	3555
3.81867	3553
3.81933	3551
3.82000	3548
3.82067	3546
3.82133	3544
3.82200	3541
3.82267	3539
3.82333	3537
3.82400	3535
3.82467	3532
3.82533	3530
3.82600	3528
3.82667	3526
3.82733	3524
3.82800	3522
3.82867	3520
3.82933	3518
3.83000	3516
3.83067	3514
3.83133	3512
3.83200	3510
3.83267	3508
3.83333	3506
3.83400	3505
3.83467	3503
3.83533	3501
3.83600	3499
3.83667	3497
3.83733	3495
3.83800	3493
3.83867	3491
3.83933	3489
3.84000	3488
3.84067	3486
3.84133	3484
3.84200	3482
3.84267	3481
3.84333	3479
3.84400	3477
3.84467	3475
3.84533	3474
3.84600	3472
3.84667	3471
3.84733	3469
3.84800	3467
3.84867	3466
3.84933	3464
3.85000	3463
3.85067	3461
3.85133	3460
3.85200	3458
3.85267	3457
3.85333	3455
3.85400	3454
3.85467	3452
3.85533	3451
3.85600	3449
3.85667	3448
3.85733	3446
3.85800	3445
3.85867	3443
3.85933	3442
3.86000	3441
3.86067	3439
3.86133	3438
3.86200	3437
3.86267	3435
3.86333	3434
3.86400	3432
3.86467	3431
3.86533	3430
3.86600	3429
3.86667	3427
3.86733	3426
3.86800	3425
3.86867	3424
3.86933	3422
3.87000	3421
3.87067	3420
3.87133	3419
3.87200	3417
3.87267	3416
3.87333	3415
3.87400	3413
3.87467	3412
3.87533	3411
3.87600	3409
3.87667	3408
3.87733	3407
3.87800	3405
3.87867	3404
3.87933	3403
3.88000	3401
3.88067	3400
3.88133	3399
3.88200	3397
3.88267	3396
3.88333	3395
3.88400	3393
3.88467	3392
3.88533	3391
3.88600	3390
3.88667	3388
3.88733	3387
3.88800	3386
3.88867	3385
3.88933	3383
3.89000	3382
3.89067	3381
3.89133	3380
3.89200	3379
3.89267	3377
3.89333	3376
3.89400	3375
3.89467	3374
3.89533	3373
3.89600	3372
3.89667	3370
3.89733	3369
3.89800	3368
3.89867	3367
3.89933	3366
3.90000	3365
3.90067	3364
3.90133	3363
3.90200	3362
3.90267	3361
3.90333	3360
3.90400	3359
3.90467	3358
3.90533	3357
3.90600	3356
3.90667	3355
3.90733	3354
3.90800	3353
3.90867	3352
3.90933	3351
3.91000	3350
3.91067	3349
3.91133	3348
3.91200	3348
3.91267	3347
3.91333	3346
3.91400	3345
3.91467	3344
3.91533	3344
3.91600	3343
3.91667	3342
3.91733	3341
3.91800	3341
3.91867	3340
3.91933	3339
3.92000	3338
3.92067	3338
3.92133	3337
3.92200	3336
3.92267	3335
3.92333	3335
3.92400	3334
3.92467	3333
3.92533	3332
3.92600	3331
3.92667	3331
3.92733	3330
3.92800	3329
3.92867	3328
3.92933	3328
3.93000	3327
3.93067	3326
3.93133	3325
3.93200	3325
3.93267	3324
3.93333	3323
3.93400	3322
3.93467	3321
3.93533	3321
3.93600	3320
3.93667	3319
3.93733	3318
3.93800	3317
3.93867	3316
3.93933	3315
3.94000	3314
3.94067	3313
3.94133	3313
3.94200	3312
3.94267	3311
3.94333	3310
3.94400	3309
3.94467	3308
3.94533	3307
3.94600	3306
3.94667	3305
3.94733	3304
3.94800	3303
3.94867	3303
3.94933	3302
3.95000	3301
3.95067	3300
3.95133	3299
3.95200	3298
3.95267	3298
3.95333	3297
3.95400	3296
3.95467	3295
3.95533	3294
3.95600	3293
3.95667	3293
3.95733	3292
3.95800	3291
3.95867	3290
3.95933	3289
3.96000	3289
3.96067	3288
3.96133	3287
3.96200	3286
3.96267	3286
3.96333	3285
3.96400	3284
3.96467	3284
3.96533	3283
3.96600	3282
3.96667	3282
3.96733	3281
3.96800	3280
3.96867	3280
3.96933	3279
3.97000	3279
3.97067	3278
3.97133	3278
3.97200	3277
3.97267	3277
3.97333	3276
3.97400	3276
3.97467	3275
3.97533	3275
3.97600	3274
3.97667	3274
3.97733	3273
3.97800	3273
3.97867	3273
3.97933	3272
3.98000	3272
3.98067	3272
3.98133	3271
3.98200	3271
3.98267	3271
3.98333	3270
3.98400	3270
3.98467	3270
3.98533	3269
3.98600	3269
3.98667	3269
3.98733	3269
3.98800	3269
3.98867	3268
3.98933	3268
3.99000	3268
3.99067	3268
3.99133	3268
3.99200	3268
3.99267	3268
3.99333	3268
3.99400	3268
3.99467	3268
3.99533	3268
3.99600	3268
3.99667	3268
3.99733	3268
3.99800	3269
3.99867	3269
3.99933	3269
4.00000	3269
4.00067	3270
4.00133	3270
4.00200	3271
4.00267	3271
4.00333	3272
4.00400	3272
4.00467	3273
4.00533	3274
4.00600	3275
4.00667	3276
4.00733	3277
4.00800	3278
4.00867	3279
4.00933	3280
4.01000	3281
4.01067	3282
4.01133	3284
4.01200	3285
4.01267	3287
4.01333	3288
4.01400	3290
4.01467	3291
4.01533	3293
4.01600	3295
4.01667	3297
4.01733	3298
4.01800	3300
4.01867	3302
4.01933	3304
4.02000	3306
4.02067	3309
4.02133	3311
4.02200	3313
4.02267	3316
4.02333	3318
4.02400	3321
4.02467	3323
4.02533	3326
4.02600	3328
4.02667	3331
4.02733	3334
4.02800	3337
4.02867	3340
4.02933	3343
4.03000	3346
4.03067	3349
4.03133	3352
4.03200	3355
4.03267	3359
4.03333	3362
4.03400	3366
4.03467	3369
4.03533	3373
4.03600	3377
4.03667	3380
4.03733	3384
4.03800	3388
4.03867	3392
4.03933	3396
4.04000	3400
4.04067	3404
4.04133	3408
4.04200	3412
4.04267	3416
4.04333	3420
4.04400	3424
4.04467	3429
4.04533	3433
4.04600	3437
4.04667	3442
4.04733	3446
4.04800	3451
4.04867	3455
4.04933	3460
4.05000	3465
4.05067	3469
4.05133	3474
4.05200	3479
4.05267	3483
4.05333	3488
4.05400	3493
4.05467	3498
4.05533	3503
4.05600	3508
4.05667	3513
4.05733	3517
4.05800	3522
4.05867	3527
4.05933	3532
4.06000	3537
4.06067	3542
4.06133	3547
4.06200	3552
4.06267	3557
4.06333	3562
4.06400	3567
4.06467	3571
4.06533	3576
4.06600	3581
4.06667	3586
4.06733	3591
4.06800	3595
4.06867	3600
4.06933	3605
4.07000	3610
4.07067	3614
4.07133	3619
4.07200	3623
4.07267	3628
4.07333	3633
4.07400	3637
4.07467	3641
4.07533	3646
4.07600	3650
4.07667	3654
4.07733	3659
4.07800	3663
4.07867	3667
4.07933	3671
4.08000	3675
4.08067	3679
4.08133	3683
4.08200	3687
4.08267	3691
4.08333	3694
4.08400	3698
4.08467	3702
4.08533	3706
4.08600	3709
4.08667	3713
4.08733	3716
4.08800	3719
4.08867	3723
4.08933	3726
4.09000	3729
4.09067	3732
4.09133	3735
4.09200	3738
4.09267	3741
4.09333	3744
4.09400	3747
4.09467	3750
4.09533	3752
4.09600	3755
4.09667	3757
4.09733	3760
4.09800	3762
4.09867	3765
4.09933	3767
4.10000	3770
4.10067	3772
4.10133	3774
4.10200	3776
4.10267	3779
4.10333	3781
4.10400	3783
4.10467	3785
4.10533	3787
4.10600	3789
4.10667	3791
4.10733	3793
4.10800	3794
4.10867	3796
4.10933	3798
4.11000	3799
4.11067	3801
4.11133	3802
4.11200	3804
4.11267	3805
4.11333	3807
4.11400	3808
4.11467	3809
4.11533	3810
4.11600	3812
4.11667	3813
4.11733	3814
4.11800	3815
4.11867	3816
4.11933	3817
4.12000	3818
4.12067	3819
4.12133	3820
4.12200	3820
4.12267	3821
4.12333	3822
4.12400	3823
4.12467	3823
4.12533	3824
4.12600	3824
4.12667	3825
4.12733	3825
4.12800	3826
4.12867	3826
4.12933	3827
4.13000	3827
4.13067	3827
4.13133	3828
4.13200	3828
4.13267	3828
4.13333	3828
4.13400	3829
4.13467	3829
4.13533	3829
4.13600	3829
4.13667	3829
4.13733	3829
4.13800	3829
4.13867	3829
4.13933	3829
4.14000	3828
4.14067	3828
4.14133	3828
4.14200	3828
4.14267	3828
4.14333	3828
4.14400	3827
4.14467	3827
4.14533	3827
4.14600	3826
4.14667	3826
4.14733	3826
4.14800	3825
4.14867	3825
4.14933	3824
4.15000	3824
4.15067	3824
4.15133	3823
4.15200	3823
4.15267	3822
4.15333	3822
4.15400	3821
4.15467	3821
4.15533	3820
4.15600	3820
4.15667	3819
4.15733	3819
4.15800	3818
4.15867	3817
4.15933	3817
4.16000	3816
4.16067	3816
4.16133	3815
4.16200	3815
4.16267	3814
4.16333	3814
4.16400	3813
4.16467	3813
4.16533	3812
4.16600	3812
4.16667	3811
4.16733	3811
4.16800	3810
4.16867	3810
4.16933	3810
4.17000	3809
4.17067	3809
4.17133	3809
4.17200	3808
4.17267	3808
4.17333	3808
4.17400	3808
4.17467	3808
4.17533	3808
4.17600	3808
4.17667	3808
4.17733	3808
4.17800	3808
4.17867	3809
4.17933	3809
4.18000	3809
4.18067	3809
4.18133	3810
4.18200	3810
4.18267	3810
4.18333	3811
4.18400	3812
4.18467	3812
4.18533	3813
4.18600	3814
4.18667	3815
4.18733	3816
4.18800	3817
4.18867	3818
4.18933	3819
4.19000	3820
4.19067	3821
4.19133	3823
4.19200	3824
4.19267	3826
4.19333	3827
4.19400	3829
4.19467	3831
4.19533	3833
4.19600	3835
4.19667	3837
4.19733	3839
4.19800	3842
4.19867	3844
4.19933	3847
4.20000	3850
4.20067	3853
4.20133	3856
4.20200	3859
4.20267	3862
4.20333	3865
4.20400	3869
4.20467	3873
4.20533	3876
4.20600	3881
4.20667	3885
4.20733	3889
4.20800	3894
4.20867	3899
4.20933	3904
4.21000	3909
4.21067	3914
4.21133	3919
4.21200	3925
4.21267	3931
4.21333	3936
4.21400	3943
4.21467	3949
4.21533	3955
4.21600	3962
4.21667	3969
4.21733	3976
4.21800	3983
4.21867	3990
4.21933	3998
4.22000	4006
4.22067	4014
4.22133	4022
4.22200	4031
4.22267	4040
4.22333	4049
4.22400	4058
4.22467	4068
4.22533	4077
4.22600	4088
4.22667	4098
4.22733	4109
4.22800	4120
4.22867	4132
4.22933	4143
4.23000	4155
4.23067	4168
4.23133	4181
4.23200	4194
4.23267	4207
4.23333	4221
4.23400	4235
4.23467	4249
4.23533	4264
4.23600	4279
4.23667	4295
4.23733	4311
4.23800	4327
4.23867	4344
4.23933	4361
4.24000	4378
4.24067	4396
4.24133	4414
4.24200	4433
4.24267	4452
4.24333	4471
4.24400	4491
4.24467	4511
4.24533	4532
4.24600	4552
4.24667	4574
4.24733	4595
4.24800	4617
4.24867	4640
4.24933	4662
4.25000	4686
4.25067	4709
4.25133	4733
4.25200	4758
4.25267	4783
4.25333	4808
4.25400	4833
4.25467	4859
4.25533	4885
4.25600	4912
4.25667	4939
4.25733	4966
4.25800	4994
4.25867	5022
4.25933	5051
4.26000	5080
4.26067	5109
4.26133	5139
4.26200	5169
4.26267	5199
4.26333	5230
4.26400	5261
4.26467	5292
4.26533	5324
4.26600	5356
4.26667	5389
4.26733	5422
4.26800	5455
4.26867	5489
4.26933	5523
4.27000	5557
4.27067	5592
4.27133	5626
4.27200	5662
4.27267	5697
4.27333	5733
4.27400	5770
4.27467	5806
4.27533	5843
4.27600	5881
4.27667	5918
4.27733	5956
4.27800	5994
4.27867	6033
4.27933	6072
4.28000	6111
4.28067	6150
4.28133	6189
4.28200	6229
4.28267	6269
4.28333	6309
4.28400	6349
4.28467	6390
4.28533	6431
4.28600	6471
4.28667	6512
4.28733	6553
4.28800	6594
4.28867	6635
4.28933	6676
4.29000	6718
4.29067	6759
4.29133	6800
4.29200	6842
4.29267	6883
4.29333	6924
4.29400	6965
4.29467	7007
4.29533	7048
4.29600	7089
4.29667	7130
4.29733	7171
4.29800	7211
4.29867	7252
4.29933	7293
4.30000	7333
4.30067	7373
4.30133	7413
4.30200	7453
4.30267	7493
4.30333	7532
4.30400	7572
4.30467	7611
4.30533	7649
4.30600	7687
4.30667	7725
4.30733	7762
4.30800	7800
4.30867	7836
4.30933	7873
4.31000	7908
4.31067	7944
4.31133	7979
4.31200	8014
4.31267	8048
4.31333	8082
4.31400	8116
4.31467	8149
4.31533	8181
4.31600	8214
4.31667	8246
4.31733	8277
4.31800	8308
4.31867	8338
4.31933	8368
4.32000	8398
4.32067	8426
4.32133	8455
4.32200	8482
4.32267	8510
4.32333	8536
4.32400	8562
4.32467	8587
4.32533	8611
4.32600	8635
4.32667	8658
4.32733	8681
4.32800	8703
4.32867	8724
4.32933	8744
4.33000	8764
4.33067	8783
4.33133	8802
4.33200	8820
4.33267	8837
4.33333	8853
4.33400	8869
4.33467	8884
4.33533	8898
4.33600	8912
4.33667	8924
4.33733	8937
4.33800	8948
4.33867	8959
4.33933	8969
4.34000	8978
4.34067	8987
4.34133	8995
4.34200	9002
4.34267	9008
4.34333	9014
4.34400	9020
4.34467	9024
4.34533	9028
4.34600	9032
4.34667	9034
4.34733	9037
4.34800	9038
4.34867	9039
4.34933	9040
4.35000	9040
4.35067	9040
4.35133	9039
4.35200	9038
4.35267	9036
4.35333	9034
4.35400	9031
4.35467	9029
4.35533	9025
4.35600	9022
4.35667	9018
4.35733	9015
4.35800	9011
4.35867	9007
4.35933	9002
4.36000	8998
4.36067	8994
4.36133	8989
4.36200	8985
4.36267	8981
4.36333	8977
4.36400	8973
4.36467	8969
4.36533	8966
4.36600	8963
4.36667	8960
4.36733	8958
4.36800	8956
4.36867	8954
4.36933	8953
4.37000	8952
4.37067	8952
4.37133	8952
4.37200	8953
4.37267	8955
4.37333	8957
4.37400	8960
4.37467	8964
4.37533	8968
4.37600	8974
4.37667	8980
4.37733	8987
4.37800	8995
4.37867	9004
4.37933	9014
4.38000	9025
4.38067	9036
4.38133	9049
4.38200	9063
4.38267	9078
4.38333	9094
4.38400	9111
4.38467	9129
4.38533	9148
4.38600	9168
4.38667	9190
4.38733	9212
4.38800	9236
4.38867	9261
4.38933	9288
4.39000	9316
4.39067	9345
4.39133	9375
4.39200	9407
4.39267	9440
4.39333	9474
4.39400	9510
4.39467	9547
4.39533	9585
4.39600	9625
4.39667	9666
4.39733	9708
4.39800	9752
4.39867	9797
4.39933	9843
4.40000	9891
4.40067	9941
4.40133	9991
4.40200	10044
4.40267	10097
4.40333	10152
4.40400	10209
4.40467	10267
4.40533	10326
4.40600	10386
4.40667	10448
4.40733	10511
4.40800	10575
4.40867	10640
4.40933	10707
4.41000	10774
4.41067	10842
4.41133	10911
4.41200	10981
4.41267	11052
4.41333	11124
4.41400	11196
4.41467	11269
4.41533	11343
4.41600	11418
4.41667	11493
4.41733	11569
4.41800	11646
4.41867	11723
4.41933	11801
4.42000	11879
4.42067	11958
4.42133	12036
4.42200	12115
4.42267	12195
4.42333	12274
4.42400	12354
4.42467	12433
4.42533	12512
4.42600	12592
4.42667	12671
4.42733	12750
4.42800	12828
4.42867	12906
4.42933	12984
4.43000	13061
4.43067	13138
4.43133	13214
4.43200	13289
4.43267	13364
4.43333	13437
4.43400	13510
4.43467	13582
4.43533	13654
4.43600	13724
4.43667	13793
4.43733	13861
4.43800	13929
4.43867	13995
4.43933	14059
4.44000	14123
4.44067	14185
4.44133	14246
4.44200	14305
4.44267	14363
4.44333	14419
4.44400	14473
4.44467	14526
4.44533	14577
4.44600	14626
4.44667	14674
4.44733	14719
4.44800	14763
4.44867	14804
4.44933	14843
4.45000	14881
4.45067	14916
4.45133	14948
4.45200	14979
4.45267	15007
4.45333	15033
4.45400	15057
4.45467	15079
4.45533	15098
4.45600	15115
4.45667	15129
4.45733	15141
4.45800	15151
4.45867	15159
4.45933	15164
4.46000	15167
4.46067	15167
4.46133	15165
4.46200	15161
4.46267	15155
4.46333	15146
4.46400	15135
4.46467	15122
4.46533	15106
4.46600	15088
4.46667	15067
4.46733	15045
4.46800	15020
4.46867	14993
4.46933	14963
4.47000	14931
4.47067	14897
4.47133	14861
4.47200	14823
4.47267	14782
4.47333	14739
4.47400	14694
4.47467	14647
4.47533	14598
4.47600	14547
4.47667	14495
4.47733	14440
4.47800	14383
4.47867	14325
4.47933	14264
4.48000	14202
4.48067	14139
4.48133	14073
4.48200	14006
4.48267	13938
4.48333	13868
4.48400	13796
4.48467	13723
4.48533	13649
4.48600	13574
4.48667	13498
4.48733	13420
4.48800	13342
4.48867	13262
4.48933	13182
4.49000	13101
4.49067	13019
4.49133	12936
4.49200	12853
4.49267	12769
4.49333	12684
4.49400	12599
4.49467	12513
4.49533	12427
4.49600	12341
4.49667	12254
4.49733	12167
4.49800	12080
4.49867	11992
4.49933	11905
4.50000	11817
4.50067	11730
4.50133	11642
4.50200	11554
4.50267	11467
4.50333	11379
4.50400	11292
4.50467	11205
4.50533	11118
4.50600	11032
4.50667	10946
4.50733	10860
4.50800	10774
4.50867	10689
4.50933	10605
4.51000	10521
4.51067	10438
4.51133	10355
4.51200	10272
4.51267	10191
4.51333	10110
4.51400	10030
4.51467	9950
4.51533	9872
4.51600	9794
4.51667	9717
4.51733	9640
4.51800	9565
4.51867	9491
4.51933	9417
4.52000	9345
4.52067	9274
4.52133	9203
4.52200	9134
4.52267	9066
4.52333	8999
4.52400	8933
4.52467	8868
4.52533	8804
4.52600	8741
4.52667	8680
4.52733	8619
4.52800	8560
4.52867	8502
4.52933	8445
4.53000	8390
4.53067	8335
4.53133	8282
4.53200	8230
4.53267	8180
4.53333	8130
4.53400	8082
4.53467	8036
4.53533	7990
4.53600	7946
4.53667	7903
4.53733	7861
4.53800	7821
4.53867	7781
4.53933	7743
4.54000	7707
4.54067	7671
4.54133	7637
4.54200	7604
4.54267	7573
4.54333	7543
4.54400	7514
4.54467	7486
4.54533	7460
4.54600	7434
4.54667	7410
4.54733	7388
4.54800	7366
4.54867	7346
4.54933	7327
4.55000	7310
4.55067	7293
4.55133	7278
4.55200	7264
4.55267	7251
4.55333	7240
4.55400	7230
4.55467	7221
4.55533	7213
4.55600	7206
4.55667	7200
4.55733	7195
4.55800	7192
4.55867	7189
4.55933	7188
4.56000	7187
4.56067	7188
4.56133	7190
4.56200	7192
4.56267	7196
4.56333	7201
4.56400	7206
4.56467	7212
4.56533	7219
4.56600	7228
4.56667	7236
4.56733	7246
4.56800	7257
4.56867	7268
4.56933	7280
4.57000	7293
4.57067	7307
4.57133	7321
4.57200	7336
4.57267	7352
4.57333	7369
4.57400	7386
4.57467	7404
4.57533	7422
4.57600	7441
4.57667	7461
4.57733	7480
4.57800	7501
4.57867	7522
4.57933	7543
4.58000	7565
4.58067	7587
4.58133	7609
4.58200	7632
4.58267	7655
4.58333	7679
4.58400	7702
4.58467	7726
4.58533	7750
4.58600	7774
4.58667	7799
4.58733	7823
4.58800	7848
4.58867	7872
4.58933	7897
4.59000	7921
4.59067	7946
4.59133	7970
4.59200	7995
4.59267	8019
4.59333	8043
4.59400	8066
4.59467	8090
4.59533	8113
4.59600	8137
4.59667	8159
4.59733	8182
4.59800	8204
4.59867	8227
4.59933	8249
4.60000	8270
4.60067	8292
4.60133	8313
4.60200	8334
4.60267	8354
4.60333	8374
4.60400	8394
4.60467	8413
4.60533	8432
4.60600	8451
4.60667	8469
4.60733	8486
4.60800	8503
4.60867	8520
4.60933	8536
4.61000	8552
4.61067	8568
4.61133	8582
4.61200	8597
4.61267	8610
4.61333	8624
4.61400	8636
4.61467	8649
4.61533	8660
4.61600	8671
4.61667	8682
4.61733	8692
4.61800	8702
4.61867	8711
4.61933	8720
4.62000	8728
4.62067	8735
4.62133	8743
4.62200	8749
4.62267	8755
4.62333	8761
4.62400	8766
4.62467	8771
4.62533	8775
4.62600	8779
4.62667	8782
4.62733	8784
4.62800	8786
4.62867	8787
4.62933	8788
4.63000	8788
4.63067	8788
4.63133	8787
4.63200	8786
4.63267	8784
4.63333	8782
4.63400	8780
4.63467	8776
4.63533	8773
4.63600	8769
4.63667	8764
4.63733	8760
4.63800	8754
4.63867	8749
4.63933	8743
4.64000	8736
4.64067	8730
4.64133	8723
4.64200	8715
4.64267	8708
4.64333	8700
4.64400	8691
4.64467	8683
4.64533	8674
4.64600	8665
4.64667	8655
4.64733	8646
4.64800	8636
4.64867	8626
4.64933	8615
4.65000	8605
4.65067	8594
4.65133	8583
4.65200	8572
4.65267	8561
4.65333	8549
4.65400	8538
4.65467	8526
4.65533	8514
4.65600	8502
4.65667	8489
4.65733	8477
4.65800	8465
4.65867	8452
4.65933	8440
4.66000	8427
4.66067	8414
4.66133	8402
4.66200	8389
4.66267	8376
4.66333	8363
4.66400	8350
4.66467	8337
4.66533	8324
4.66600	8311
4.66667	8297
4.66733	8284
4.66800	8271
4.66867	8257
4.66933	8243
4.67000	8230
4.67067	8216
4.67133	8202
4.67200	8188
4.67267	8174
4.67333	8160
4.67400	8146
4.67467	8132
4.67533	8118
4.67600	8104
4.67667	8089
4.67733	8075
4.67800	8061
4.67867	8046
4.67933	8032
4.68000	8017
4.68067	8003
4.68133	7989
4.68200	7974
4.68267	7960
4.68333	7946
4.68400	7932
4.68467	7917
4.68533	7903
4.68600	7889
4.68667	7875
4.68733	7861
4.68800	7847
4.68867	7833
4.68933	7819
4.69000	7805
4.69067	7791
4.69133	7777
4.69200	7764
4.69267	7750
4.69333	7736
4.69400	7723
4.69467	7709
4.69533	7695
4.69600	7682
4.69667	7669
4.69733	7655
4.69800	7642
4.69867	7629
4.69933	7616
4.70000	7603
4.70067	7590
4.70133	7577
4.70200	7564
4.70267	7551
4.70333	7539
4.70400	7526
4.70467	7514
4.70533	7502
4.70600	7490
4.70667	7478
4.70733	7466
4.70800	7454
4.70867	7442
4.70933	7430
4.71000	7418
4.71067	7407
4.71133	7395
4.71200	7384
4.71267	7372
4.71333	7361
4.71400	7350
4.71467	7339
4.71533	7328
4.71600	7317
4.71667	7306
4.71733	7295
4.71800	7285
4.71867	7274
4.71933	7264
4.72000	7253
4.72067	7243
4.72133	7233
4.72200	7222
4.72267	7212
4.72333	7202
4.72400	7192
4.72467	7182
4.72533	7172
4.72600	7162
4.72667	7152
4.72733	7143
4.72800	7133
4.72867	7124
4.72933	7114
4.73000	7105
4.73067	7096
4.73133	7086
4.73200	7077
4.73267	7068
4.73333	7059
4.73400	7050
4.73467	7041
4.73533	7032
4.73600	7023
4.73667	7015
4.73733	7006
4.73800	6997
4.73867	6989
4.73933	6980
4.74000	6972
4.74067	6964
4.74133	6955
4.74200	6947
4.74267	6939
4.74333	6931
4.74400	6923
4.74467	6915
4.74533	6907
4.74600	6899
4.74667	6891
4.74733	6883
4.74800	6876
4.74867	6868
4.74933	6861
4.75000	6853
4.75067	6846
4.75133	6838
4.75200	6831
4.75267	6824
4.75333	6816
4.75400	6809
4.75467	6802
4.75533	6795
4.75600	6787
4.75667	6780
4.75733	6773
4.75800	6766
4.75867	6759
4.75933	6752
4.76000	6745
4.76067	6738
4.76133	6731
4.76200	6724
4.76267	6718
4.76333	6711
4.76400	6704
4.76467	6698
4.76533	6691
4.76600	6685
4.76667	6678
4.76733	6672
4.76800	6665
4.76867	6659
4.76933	6652
4.77000	6646
4.77067	6639
4.77133	6633
4.77200	6627
4.77267	6621
4.77333	6615
4.77400	6608
4.77467	6602
4.77533	6597
4.77600	6591
4.77667	6585
4.77733	6579
4.77800	6574
4.77867	6568
4.77933	6562
4.78000	6557
4.78067	6551
4.78133	6546
4.78200	6541
4.78267	6535
4.78333	6530
4.78400	6525
4.78467	6520
4.78533	6515
4.78600	6509
4.78667	6504
4.78733	6499
4.78800	6494
4.78867	6489
4.78933	6484
4.79000	6479
4.79067	6475
4.79133	6470
4.79200	6465
4.79267	6460
4.79333	6455
4.79400	6450
4.79467	6445
4.79533	6440
4.79600	6436
4.79667	6431
4.79733	6426
4.79800	6421
4.79867	6417
4.79933	6412
4.80000	6407
4.80067	6403
4.80133	6398
4.80200	6393
4.80267	6389
4.80333	6384
4.80400	6379
4.80467	6375
4.80533	6370
4.80600	6365
4.80667	6361
4.80733	6356
4.80800	6352
4.80867	6347
4.80933	6342
4.81000	6338
4.81067	6333
4.81133	6329
4.81200	6324
4.81267	6320
4.81333	6315
4.81400	6311
4.81467	6306
4.81533	6302
4.81600	6298
4.81667	6293
4.81733	6289
4.81800	6285
4.81867	6280
4.81933	6276
4.82000	6271
4.82067	6267
4.82133	6263
4.82200	6258
4.82267	6254
4.82333	6249
4.82400	6245
4.82467	6241
4.82533	6236
4.82600	6232
4.82667	6228
4.82733	6224
4.82800	6219
4.82867	6215
4.82933	6211
4.83000	6207
4.83067	6203
4.83133	6199
4.83200	6195
4.83267	6190
4.83333	6186
4.83400	6182
4.83467	6178
4.83533	6174
4.83600	6170
4.83667	6166
4.83733	6162
4.83800	6158
4.83867	6154
4.83933	6150
4.84000	6146
4.84067	6142
4.84133	6138
4.84200	6133
4.84267	6129
4.84333	6125
4.84400	6121
4.84467	6117
4.84533	6113
4.84600	6108
4.84667	6104
4.84733	6100
4.84800	6096
4.84867	6092
4.84933	6087
4.85000	6083
4.85067	6079
4.85133	6075
4.85200	6071
4.85267	6067
4.85333	6063
4.85400	6059
4.85467	6055
4.85533	6050
4.85600	6046
4.85667	6042
4.85733	6038
4.85800	6034
4.85867	6030
4.85933	6026
4.86000	6022
4.86067	6018
4.86133	6014
4.86200	6011
4.86267	6007
4.86333	6003
4.86400	5999
4.86467	5995
4.86533	5992
4.86600	5988
4.86667	5984
4.86733	5981
4.86800	5977
4.86867	5974
4.86933	5970
4.87000	5967
4.87067	5964
4.87133	5961
4.87200	5957
4.87267	5954
4.87333	5951
4.87400	5948
4.87467	5945
4.87533	5942
4.87600	5939
4.87667	5936
4.87733	5933
4.87800	5930
4.87867	5927
4.87933	5924
4.88000	5921
4.88067	5918
4.88133	5916
4.88200	5913
4.88267	5910
4.88333	5907
4.88400	5904
4.88467	5901
4.88533	5898
4.88600	5895
4.88667	5892
4.88733	5889
4.88800	5886
4.88867	5883
4.88933	5879
4.89000	5876
4.89067	5873
4.89133	5870
4.89200	5867
4.89267	5864
4.89333	5861
4.89400	5857
4.89467	5854
4.89533	5851
4.89600	5848
4.89667	5844
4.89733	5841
4.89800	5838
4.89867	5835
4.89933	5832
4.90000	5829
4.90067	5826
4.90133	5822
4.90200	5819
4.90267	5816
4.90333	5813
4.90400	5810
4.90467	5807
4.90533	5804
4.90600	5801
4.90667	5797
4.90733	5794
4.90800	5791
4.90867	5788
4.90933	5785
4.91000	5782
4.91067	5779
4.91133	5776
4.91200	5773
4.91267	5770
4.91333	5767
4.91400	5764
4.91467	5761
4.91533	5758
4.91600	5755
4.91667	5752
4.91733	5749
4.91800	5746
4.91867	5743
4.91933	5740
4.92000	5737
4.92067	5734
4.92133	5731
4.92200	5728
4.92267	5725
4.92333	5722
4.92400	5720
4.92467	5717
4.92533	5714
4.92600	5711
4.92667	5708
4.92733	5705
4.92800	5703
4.92867	5700
4.92933	5697
4.93000	5694
4.93067	5691
4.93133	5688
4.93200	5686
4.93267	5683
4.93333	5680
4.93400	5677
4.93467	5674
4.93533	5671
4.93600	5668
4.93667	5665
4.93733	5662
4.93800	5658
4.93867	5655
4.93933	5652
4.94000	5649
4.94067	5647
4.94133	5644
4.94200	5641
4.94267	5638
4.94333	5635
4.94400	5632
4.94467	5630
4.94533	5627
4.94600	5624
4.94667	5622
4.94733	5619
4.94800	5616
4.94867	5614
4.94933	5611
4.95000	5608
4.95067	5606
4.95133	5603
4.95200	5601
4.95267	5598
4.95333	5596
4.95400	5594
4.95467	5591
4.95533	5589
4.95600	5586
4.95667	5584
4.95733	5582
4.95800	5579
4.95867	5577
4.95933	5575
4.96000	5572
4.96067	5570
4.96133	5568
4.96200	5565
4.96267	5563
4.96333	5561
4.96400	5559
4.96467	5556
4.96533	5554
4.96600	5552
4.96667	5550
4.96733	5548
4.96800	5546
4.96867	5543
4.96933	5541
4.97000	5539
4.97067	5537
4.97133	5535
4.97200	5533
4.97267	5530
4.97333	5528
4.97400	5526
4.97467	5524
4.97533	5522
4.97600	5519
4.97667	5517
4.97733	5515
4.97800	5513
4.97867	5511
4.97933	5508
4.98000	5506
4.98067	5504
4.98133	5502
4.98200	5500
4.98267	5498
4.98333	5495
4.98400	5493
4.98467	5491
4.98533	5489
4.98600	5487
4.98667	5485
4.98733	5483
4.98800	5481
4.98867	5479
4.98933	5477
4.99000	5475
4.99067	5473
4.99133	5471
4.99200	5469
4.99267	5467
4.99333	5465
4.99400	5463
4.99467	5461
4.99533	5459
4.99600	5457
4.99667	5455
4.99733	5453
4.99800	5451
4.99867	5449
4.99933	5447
5.00000	5445
5.00067	5443
5.00133	5441
5.00200	5439
5.00267	5437
5.00333	5435
5.00400	5433
5.00467	5431
5.00533	5429
5.00600	5427
5.00667	5425
5.00733	5423
5.00800	5420
5.00867	5418
5.00933	5416
5.01000	5414
5.01067	5412
5.01133	5409
5.01200	5407
5.01267	5405
5.01333	5403
5.01400	5400
5.01467	5398
5.01533	5396
5.01600	5393
5.01667	5391
5.01733	5389
5.01800	5386
5.01867	5384
5.01933	5381
5.02000	5379
5.02067	5376
5.02133	5374
5.02200	5371
5.02267	5369
5.02333	5366
5.02400	5364
5.02467	5361
5.02533	5359
5.02600	5356
5.02667	5354
5.02733	5351
5.02800	5349
5.02867	5346
5.02933	5344
5.03000	5341
5.03067	5339
5.03133	5336
5.03200	5334
5.03267	5332
5.03333	5329
5.03400	5327
5.03467	5325
5.03533	5323
5.03600	5320
5.03667	5318
5.03733	5316
5.03800	5314
5.03867	5312
5.03933	5310
5.04000	5308
5.04067	5306
5.04133	5305
5.04200	5303
5.04267	5301
5.04333	5299
5.04400	5297
5.04467	5296
5.04533	5294
5.04600	5292
5.04667	5291
5.04733	5289
5.04800	5287
5.04867	5285
5.04933	5284
5.05000	5282
5.05067	5280
5.05133	5278
5.05200	5276
5.05267	5274
5.05333	5272
5.05400	5270
5.05467	5268
5.05533	5266
5.05600	5264
5.05667	5262
5.05733	5260
5.05800	5258
5.05867	5256
5.05933	5254
5.06000	5253
5.06067	5251
5.06133	5249
5.06200	5247
5.06267	5245
5.06333	5243
5.06400	5242
5.06467	5240
5.06533	5238
5.06600	5237
5.06667	5235
5.06733	5234
5.06800	5232
5.06867	5231
5.06933	5230
5.07000	5228
5.07067	5227
5.07133	5226
5.07200	5224
5.07267	5223
5.07333	5222
5.07400	5221
5.07467	5220
5.07533	5219
5.07600	5218
5.07667	5217
5.07733	5216
5.07800	5215
5.07867	5214
5.07933	5213
5.08000	5212
5.08067	5211
5.08133	5211
5.08200	5210
5.08267	5209
5.08333	5208
5.08400	5207
5.08467	5206
5.08533	5205
5.08600	5205
5.08667	5204
5.08733	5203
5.08800	5202
5.08867	5201
5.08933	5201
5.09000	5200
5.09067	5199
5.09133	5198
5.09200	5197
5.09267	5197
5.09333	5196
5.09400	5195
5.09467	5195
5.09533	5194
5.09600	5193
5.09667	5193
5.09733	5192
5.09800	5191
5.09867	5191
5.09933	5190
5.10000	5190
5.10067	5190
5.10133	5189
5.10200	5189
5.10267	5189
5.10333	5188
5.10400	5188
5.10467	5188
5.10533	5188
5.10600	5188
5.10667	5188
5.10733	5189
5.10800	5189
5.10867	5189
5.10933	5189
5.11000	5189
5.11067	5190
5.11133	5190
5.11200	5191
5.11267	5191
5.11333	5192
5.11400	5193
5.11467	5194
5.11533	5194
5.11600	5196
5.11667	5197
5.11733	5198
5.11800	5199
5.11867	5201
5.11933	5202
5.12000	5204
5.12067	5206
5.12133	5208
5.12200	5210
5.12267	5212
5.12333	5214
5.12400	5217
5.12467	5219
5.12533	5222
5.12600	5225
5.12667	5228
5.12733	5231
5.12800	5235
5.12867	5238
5.12933	5242
5.13000	5246
5.13067	5251
5.13133	5255
5.13200	5260
5.13267	5265
5.13333	5270
5.13400	5275
5.13467	5280
5.13533	5286
5.13600	5292
5.13667	5298
5.13733	5305
5.13800	5312
5.13867	5319
5.13933	5326
5.14000	5334
5.14067	5342
5.14133	5350
5.14200	5358
5.14267	5367
5.14333	5376
5.14400	5385
5.14467	5395
5.14533	5405
5.14600	5415
5.14667	5425
5.14733	5436
5.14800	5447
5.14867	5459
5.14933	5471
5.15000	5483
5.15067	5495
5.15133	5508
5.15200	5521
5.15267	5535
5.15333	5549
5.15400	5563
5.15467	5577
5.15533	5592
5.15600	5607
5.15667	5623
5.15733	5639
5.15800	5655
5.15867	5671
5.15933	5688
5.16000	5706
5.16067	5723
5.16133	5741
5.16200	5760
5.16267	5778
5.16333	5797
5.16400	5817
5.16467	5836
5.16533	5857
5.16600	5877
5.16667	5898
5.16733	5919
5.16800	5941
5.16867	5963
5.16933	5985
5.17000	6008
5.17067	6031
5.17133	6054
5.17200	6078
5.17267	6102
5.17333	6126
5.17400	6151
5.17467	6176
5.17533	6201
5.17600	6227
5.17667	6252
5.17733	6279
5.17800	6305
5.17867	6332
5.17933	6359
5.18000	6386
5.18067	6414
5.18133	6441
5.18200	6469
5.18267	6497
5.18333	6525
5.18400	6554
5.18467	6582
5.18533	6611
5.18600	6640
5.18667	6669
5.18733	6698
5.18800	6728
5.18867	6757
5.18933	6787
5.19000	6816
5.19067	6846
5.19133	6876
5.19200	6907
5.19267	6937
5.19333	6967
5.19400	6997
5.19467	7027
5.19533	7058
5.19600	7088
5.19667	7118
5.19733	7148
5.19800	7179
5.19867	7209
5.19933	7239
5.20000	7269
5.20067	7298
5.20133	7328
5.20200	7357
5.20267	7387
5.20333	7416
5.20400	7445
5.20467	7473
5.20533	7502
5.20600	7530
5.20667	7558
5.20733	7586
5.20800	7613
5.20867	7641
5.20933	7668
5.21000	7694
5.21067	7721
5.21133	7747
5.21200	7773
5.21267	7798
5.21333	7823
5.21400	7848
5.21467	7872
5.21533	7896
5.21600	7920
5.21667	7943
5.21733	7966
5.21800	7989
5.21867	8011
5.21933	8032
5.22000	8053
5.22067	8074
5.22133	8094
5.22200	8114
5.22267	8133
5.22333	8152
5.22400	8170
5.22467	8188
5.22533	8205
5.22600	8222
5.22667	8238
5.22733	8253
5.22800	8268
5.22867	8283
5.22933	8296
5.23000	8310
5.23067	8322
5.23133	8334
5.23200	8346
5.23267	8357
5.23333	8367
5.23400	8377
5.23467	8386
5.23533	8394
5.23600	8402
5.23667	8409
5.23733	8416
5.23800	8422
5.23867	8427
5.23933	8432
5.24000	8436
5.24067	8440
5.24133	8443
5.24200	8445
5.24267	8447
5.24333	8449
5.24400	8449
5.24467	8449
5.24533	8449
5.24600	8448
5.24667	8447
5.24733	8445
5.24800	8442
5.24867	8439
5.24933	8435
5.25000	8431
5.25067	8426
5.25133	8421
5.25200	8415
5.25267	8409
5.25333	8402
5.25400	8395
5.25467	8387
5.25533	8379
5.25600	8370
5.25667	8361
5.25733	8351
5.25800	8341
5.25867	8331
5.25933	8320
5.26000	8308
5.26067	8297
5.26133	8285
5.26200	8273
5.26267	8260
5.26333	8247
5.26400	8234
5.26467	8220
5.26533	8206
5.26600	8192
5.26667	8177
5.26733	8162
5.26800	8147
5.26867	8132
5.26933	8117
5.27000	8101
5.27067	8085
5.27133	8069
5.27200	8052
5.27267	8036
5.27333	8019
5.27400	8002
5.27467	7985
5.27533	7968
5.27600	7950
5.27667	7933
5.27733	7915
5.27800	7897
5.27867	7879
5.27933	7861
5.28000	7843
5.28067	7824
5.28133	7806
5.28200	7787
5.28267	7769
5.28333	7750
5.28400	7731
5.28467	7712
5.28533	7693
5.28600	7674
5.28667	7655
5.28733	7636
5.28800	7617
5.28867	7598
5.28933	7579
5.29000	7559
5.29067	7540
5.29133	7521
5.29200	7502
5.29267	7483
5.29333	7464
5.29400	7444
5.29467	7425
5.29533	7406
5.29600	7387
5.29667	7368
5.29733	7349
5.29800	7330
5.29867	7311
5.29933	7293
5.30000	7274
5.30067	7255
5.30133	7237
5.30200	7218
5.30267	7200
5.30333	7181
5.30400	7163
5.30467	7145
5.30533	7127
5.30600	7109
5.30667	7091
5.30733	7074
5.30800	7056
5.30867	7038
5.30933	7021
5.31000	7004
5.31067	6986
5.31133	6969
5.31200	6952
5.31267	6936
5.31333	6919
5.31400	6902
5.31467	6886
5.31533	6869
5.31600	6853
5.31667	6837
5.31733	6821
5.31800	6805
5.31867	6789
5.31933	6774
5.32000	6758
5.32067	6743
5.32133	6728
5.32200	6713
5.32267	6698
5.32333	6683
5.32400	6668
5.32467	6654
5.32533	6639
5.32600	6625
5.32667	6611
5.32733	6597
5.32800	6583
5.32867	6569
5.32933	6556
5.33000	6542
5.33067	6529
5.33133	6516
5.33200	6503
5.33267	6490
5.33333	6477
5.33400	6464
5.33467	6451
5.33533	6439
5.33600	6426
5.33667	6414
5.33733	6402
5.33800	6390
5.33867	6378
5.33933	6366
5.34000	6354
5.34067	6342
5.34133	6330
5.34200	6319
5.34267	6308
5.34333	6296
5.34400	6285
5.34467	6274
5.34533	6263
5.34600	6252
5.34667	6241
5.34733	6231
5.34800	6220
5.34867	6210
5.34933	6200
5.35000	6190
5.35067	6180
5.35133	6170
5.35200	6160
5.35267	6150
5.35333	6141
5.35400	6131
5.35467	6121
5.35533	6112
5.35600	6103
5.35667	6094
5.35733	6085
5.35800	6076
5.35867	6067
5.35933	6058
5.36000	6049
5.36067	6041
5.36133	6032
5.36200	6024
5.36267	6016
5.36333	6007
5.36400	5999
5.36467	5991
5.36533	5983
5.36600	5975
5.36667	5968
5.36733	5960
5.36800	5952
5.36867	5944
5.36933	5937
5.37000	5929
5.37067	5922
5.37133	5915
5.37200	5907
5.37267	5900
5.37333	5893
5.37400	5886
5.37467	5879
5.37533	5872
5.37600	5865
5.37667	5858
5.37733	5851
5.37800	5844
5.37867	5837
5.37933	5830
5.38000	5824
5.38067	5817
5.38133	5811
5.38200	5805
5.38267	5798
5.38333	5792
5.38400	5786
5.38467	5780
5.38533	5774
5.38600	5767
5.38667	5761
5.38733	5755
5.38800	5749
5.38867	5743
5.38933	5737
5.39000	5731
5.39067	5725
5.39133	5720
5.39200	5714
5.39267	5708
5.39333	5703
5.39400	5697
5.39467	5691
5.39533	5686
5.39600	5681
5.39667	5675
5.39733	5670
5.39800	5665
5.39867	5660
5.39933	5654
5.40000	5649
5.40067	5644
5.40133	5639
5.40200	5634
5.40267	5630
5.40333	5625
5.40400	5620
5.40467	5615
5.40533	5610
5.40600	5605
5.40667	5601
5.40733	5596
5.40800	5591
5.40867	5586
5.40933	5582
5.41000	5577
5.41067	5572
5.41133	5568
5.41200	5563
5.41267	5559
5.41333	5554
5.41400	5550
5.41467	5545
5.41533	5541
5.41600	5536
5.41667	5532
5.41733	5528
5.41800	5523
5.41867	5519
5.41933	5515
5.42000	5511
5.42067	5506
5.42133	5502
5.42200	5498
5.42267	5494
5.42333	5490
5.42400	5485
5.42467	5481
5.42533	5477
5.42600	5473
5.42667	5469
5.42733	5465
5.42800	5461
5.42867	5457
5.42933	5453
5.43000	5449
5.43067	5445
5.43133	5441
5.43200	5437
5.43267	5433
5.43333	5429
5.43400	5425
5.43467	5421
5.43533	5417
5.43600	5414
5.43667	5410
5.43733	5406
5.43800	5402
5.43867	5399
5.43933	5395
5.44000	5391
5.44067	5388
5.44133	5384
5.44200	5381
5.44267	5377
5.44333	5374
5.44400	5371
5.44467	5367
5.44533	5364
5.44600	5360
5.44667	5357
5.44733	5353
5.44800	5350
5.44867	5347
5.44933	5343
5.45000	5340
5.45067	5337
5.45133	5333
5.45200	5330
5.45267	5327
5.45333	5324
5.45400	5320
5.45467	5317
5.45533	5314
5.45600	5311
5.45667	5308
5.45733	5304
5.45800	5301
5.45867	5298
5.45933	5295
5.46000	5291
5.46067	5288
5.46133	5285
5.46200	5282
5.46267	5279
5.46333	5275
5.46400	5272
5.46467	5269
5.46533	5266
5.46600	5262
5.46667	5259
5.46733	5256
5.46800	5253
5.46867	5250
5.46933	5246
5.47000	5243
5.47067	5240
5.47133	5237
5.47200	5234
5.47267	5230
5.47333	5227
5.47400	5224
5.47467	5221
5.47533	5218
5.47600	5214
5.47667	5211
5.47733	5208
5.47800	5205
5.47867	5202
5.47933	5199
5.48000	5196
5.48067	5193
5.48133	5190
5.48200	5186
5.48267	5183
5.48333	5180
5.48400	5177
5.48467	5174
5.48533	5171
5.48600	5168
5.48667	5165
5.48733	5162
5.48800	5159
5.48867	5156
5.48933	5153
5.49000	5151
5.49067	5148
5.49133	5145
5.49200	5142
5.49267	5139
5.49333	5137
5.49400	5134
5.49467	5131
5.49533	5129
5.49600	5126
5.49667	5123
5.49733	5120
5.49800	5118
5.49867	5115
5.49933	5112
5.50000	5110
5.50067	5107
5.50133	5105
5.50200	5102
5.50267	5100
5.50333	5097
5.50400	5094
5.50467	5092
5.50533	5089
5.50600	5087
5.50667	5085
5.50733	5082
5.50800	5080
5.50867	5078
5.50933	5076
5.51000	5074
5.51067	5072
5.51133	5070
5.51200	5068
5.51267	5066
5.51333	5064
5.51400	5062
5.51467	5060
5.51533	5058
5.51600	5056
5.51667	5055
5.51733	5053
5.51800	5051
5.51867	5049
5.51933	5048
5.52000	5046
5.52067	5044
5.52133	5042
5.52200	5041
5.52267	5039
5.52333	5038
5.52400	5036
5.52467	5034
5.52533	5033
5.52600	5031
5.52667	5030
5.52733	5028
5.52800	5026
5.52867	5025
5.52933	5023
5.53000	5022
5.53067	5020
5.53133	5019
5.53200	5017
5.53267	5016
5.53333	5014
5.53400	5013
5.53467	5011
5.53533	5010
5.53600	5008
5.53667	5007
5.53733	5005
5.53800	5004
5.53867	5003
5.53933	5001
5.54000	5000
5.54067	4998
5.54133	4997
5.54200	4996
5.54267	4994
5.54333	4993
5.54400	4992
5.54467	4991
5.54533	4989
5.54600	4988
5.54667	4987
5.54733	4985
5.54800	4984
5.54867	4983
5.54933	4982
5.55000	4980
5.55067	4979
5.55133	4978
5.55200	4977
5.55267	4975
5.55333	4974
5.55400	4973
5.55467	4972
5.55533	4970
5.55600	4969
5.55667	4968
5.55733	4966
5.55800	4965
5.55867	4964
5.55933	4962
5.56000	4961
5.56067	4960
5.56133	4959
5.56200	4957
5.56267	4956
5.56333	4955
5.56400	4954
5.56467	4952
5.56533	4951
5.56600	4950
5.56667	4949
5.56733	4948
5.56800	4946
5.56867	4945
5.56933	4944
5.57000	4943
5.57067	4942
5.57133	4940
5.57200	4939
5.57267	4938
5.57333	4937
5.57400	4936
5.57467	4935
5.57533	4933
5.57600	4932
5.57667	4931
5.57733	4930
5.57800	4929
5.57867	4928
5.57933	4927
5.58000	4925
5.58067	4924
5.58133	4923
5.58200	4922
5.58267	4921
5.58333	4920
5.58400	4919
5.58467	4917
5.58533	4916
5.58600	4915
5.58667	4914
5.58733	4913
5.58800	4912
5.58867	4911
5.58933	4911
5.59000	4910
5.59067	4909
5.59133	4908
5.59200	4907
5.59267	4906
5.59333	4905
5.59400	4904
5.59467	4903
5.59533	4902
5.59600	4901
5.59667	4900
5.59733	4899
5.59800	4898
5.59867	4897
5.59933	4896
5.60000	4895
5.60067	4894
5.60133	4893
5.60200	4892
5.60267	4891
5.60333	4890
5.60400	4889
5.60467	4888
5.60533	4887
5.60600	4886
5.60667	4885
5.60733	4885
5.60800	4884
5.60867	4883
5.60933	4882
5.61000	4881
5.61067	4880
5.61133	4879
5.61200	4878
5.61267	4878
5.61333	4877
5.61400	4876
5.61467	4875
5.61533	4874
5.61600	4873
5.61667	4872
5.61733	4871
5.61800	4870
5.61867	4869
5.61933	4868
5.62000	4868
5.62067	4867
5.62133	4866
5.62200	4865
5.62267	4864
5.62333	4863
5.62400	4862
5.62467	4861
5.62533	4860
5.62600	4859
5.62667	4858
5.62733	4857
5.62800	4856
5.62867	4855
5.62933	4854
5.63000	4853
5.63067	4852
5.63133	4851
5.63200	4850
5.63267	4849
5.63333	4848
5.63400	4846
5.63467	4845
5.63533	4844
5.63600	4843
5.63667	4842
5.63733	4841
5.63800	4840
5.63867	4839
5.63933	4837
5.64000	4836
5.64067	4835
5.64133	4834
5.64200	4832
5.64267	4831
5.64333	4830
5.64400	4829
5.64467	4827
5.64533	4826
5.64600	4825
5.64667	4824
5.64733	4822
5.64800	4821
5.64867	4820
5.64933	4818
5.65000	4817
5.65067	4816
5.65133	4815
5.65200	4814
5.65267	4812
5.65333	4811
5.65400	4810
5.65467	4809
5.65533	4807
5.65600	4806
5.65667	4805
5.65733	4804
5.65800	4803
5.65867	4802
5.65933	4801
5.66000	4800
5.66067	4799
5.66133	4798
5.66200	4797
5.66267	4796
5.66333	4795
5.66400	4794
5.66467	4793
5.66533	4792
5.66600	4791
5.66667	4790
5.66733	4788
5.66800	4787
5.66867	4786
5.66933	4785
5.67000	4784
5.67067	4783
5.67133	4782
5.67200	4781
5.67267	4780
5.67333	4779
5.67400	4778
5.67467	4777
5.67533	4775
5.67600	4774
5.67667	4773
5.67733	4772
5.67800	4771
5.67867	4770
5.67933	4769
5.68000	4768
5.68067	4767
5.68133	4765
5.68200	4764
5.68267	4763
5.68333	4762
5.68400	4761
5.68467	4760
5.68533	4759
5.68600	4758
5.68667	4756
5.68733	4755
5.68800	4754
5.68867	4753
5.68933	4752
5.69000	4751
5.69067	4750
5.69133	4749
5.69200	4748
5.69267	4747
5.69333	4746
5.69400	4745
5.69467	4744
5.69533	4743
5.69600	4743
5.69667	4742
5.69733	4741
5.69800	4740
5.69867	4739
5.69933	4738
5.70000	4737
5.70067	4737
5.70133	4736
5.70200	4735
5.70267	4734
5.70333	4733
5.70400	4732
5.70467	4732
5.70533	4731
5.70600	4730
5.70667	4729
5.70733	4728
5.70800	4728
5.70867	4727
5.70933	4726
5.71000	4725
5.71067	4724
5.71133	4723
5.71200	4722
5.71267	4721
5.71333	4720
5.71400	4719
5.71467	4719
5.71533	4718
5.71600	4717
5.71667	4716
5.71733	4715
5.71800	4714
5.71867	4713
5.71933	4712
5.72000	4711
5.72067	4710
5.72133	4710
5.72200	4709
5.72267	4708
5.72333	4707
5.72400	4706
5.72467	4706
5.72533	4705
5.72600	4704
5.72667	4703
5.72733	4703
5.72800	4702
5.72867	4701
5.72933	4701
5.73000	4700
5.73067	4700
5.73133	4699
5.73200	4698
5.73267	4698
5.73333	4697
5.73400	4697
5.73467	4696
5.73533	4696
5.73600	4695
5.73667	4695
5.73733	4694
5.73800	4694
5.73867	4693
5.73933	4693
5.74000	4692
5.74067	4692
5.74133	4691
5.74200	4691
5.74267	4690
5.74333	4690
5.74400	4689
5.74467	4688
5.74533	4688
5.74600	4687
5.74667	4687
5.74733	4687
5.74800	4686
5.74867	4686
5.74933	4685
5.75000	4685
5.75067	4685
5.75133	4684
5.75200	4684
5.75267	4683
5.75333	4683
5.75400	4683
5.75467	4683
5.75533	4682
5.75600	4682
5.75667	4682
5.75733	4682
5.75800	4681
5.75867	4681
5.75933	4681
5.76000	4681
5.76067	4681
5.76133	4680
5.76200	4680
5.76267	4680
5.76333	4680
5.76400	4680
5.76467	4680
5.76533	4680
5.76600	4679
5.76667	4679
5.76733	4679
5.76800	4679
5.76867	4679
5.76933	4679
5.77000	4679
5.77067	4678
5.77133	4678
5.77200	4678
5.77267	4678
5.77333	4678
5.77400	4678
5.77467	4677
5.77533	4677
5.77600	4677
5.77667	4677
5.77733	4677
5.77800	4677
5.77867	4677
5.77933	4677
5.78000	4677
5.78067	4677
5.78133	4677
5.78200	4677
5.78267	4677
5.78333	4677
5.78400	4677
5.78467	4677
5.78533	4677
5.78600	4677
5.78667	4677
5.78733	4678
5.78800	4678
5.78867	4678
5.78933	4678
5.79000	4678
5.79067	4678
5.79133	4679
5.79200	4679
5.79267	4679
5.79333	4679
5.79400	4679
5.79467	4680
5.79533	4680
5.79600	4680
5.79667	4681
5.79733	4681
5.79800	4682
5.79867	4682
5.79933	4683
5.80000	4683
5.80067	4684
5.80133	4684
5.80200	4684
5.80267	4685
5.80333	4685
5.80400	4686
5.80467	4686
5.80533	4686
5.80600	4687
5.80667	4687
5.80733	4687
5.80800	4688
5.80867	4688
5.80933	4689
5.81000	4689
5.81067	4689
5.81133	4689
5.81200	4690
5.81267	4690
5.81333	4690
5.81400	4691
5.81467	4691
5.81533	4691
5.81600	4692
5.81667	4692
5.81733	4692
5.81800	4693
5.81867	4693
5.81933	4693
5.82000	4693
5.82067	4694
5.82133	4694
5.82200	4694
5.82267	4694
5.82333	4694
5.82400	4695
5.82467	4695
5.82533	4695
5.82600	4695
5.82667	4695
5.82733	4695
5.82800	4695
5.82867	4695
5.82933	4695
5.83000	4696
5.83067	4696
5.83133	4696
5.83200	4696
5.83267	4696
5.83333	4696
5.83400	4696
5.83467	4696
5.83533	4696
5.83600	4696
5.83667	4696
5.83733	4696
5.83800	4696
5.83867	4696
5.83933	4696
5.84000	4696
5.84067	4696
5.84133	4696
5.84200	4696
5.84267	4696
5.84333	4696
5.84400	4696
5.84467	4696
5.84533	4696
5.84600	4696
5.84667	4696
5.84733	4696
5.84800	4696
5.84867	4696
5.84933	4695
5.85000	4695
5.85067	4695
5.85133	4695
5.85200	4695
5.85267	4695
5.85333	4695
5.85400	4695
5.85467	4695
5.85533	4695
5.85600	4695
5.85667	4695
5.85733	4695
5.85800	4695
5.85867	4695
5.85933	4694
5.86000	4694
5.86067	4694
5.86133	4694
5.86200	4694
5.86267	4693
5.86333	4693
5.86400	4693
5.86467	4693
5.86533	4692
5.86600	4692
5.86667	4692
5.86733	4692
5.86800	4691
5.86867	4691
5.86933	4691
5.87000	4690
5.87067	4690
5.87133	4690
5.87200	4689
5.87267	4689
5.87333	4688
5.87400	4688
5.87467	4687
5.87533	4687
5.87600	4686
5.87667	4686
5.87733	4685
5.87800	4685
5.87867	4684
5.87933	4683
5.88000	4683
5.88067	4682
5.88133	4682
5.88200	4681
5.88267	4680
5.88333	4680
5.88400	4679
5.88467	4678
5.88533	4678
5.88600	4677
5.88667	4676
5.88733	4675
5.88800	4675
5.88867	4674
5.88933	4673
5.89000	4672
5.89067	4672
5.89133	4671
5.89200	4670
5.89267	4669
5.89333	4668
5.89400	4667
5.89467	4666
5.89533	4665
5.89600	4664
5.89667	4664
5.89733	4663
5.89800	4662
5.89867	4661
5.89933	4660
5.90000	4659
5.90067	4658
5.90133	4657
5.90200	4656
5.90267	4655
5.90333	4655
5.90400	4654
5.90467	4653
5.90533	4652
5.90600	4651
5.90667	4650
5.90733	4650
5.90800	4649
5.90867	4648
5.90933	4647
5.91000	4647
5.91067	4646
5.91133	4645
5.91200	4645
5.91267	4644
5.91333	4643
5.91400	4642
5.91467	4642
5.91533	4641
5.91600	4640
5.91667	4639
5.91733	4639
5.91800	4638
5.91867	4637
5.91933	4636
5.92000	4636
5.92067	4635
5.92133	4634
5.92200	4633
5.92267	4633
5.92333	4632
5.92400	4632
5.92467	4631
5.92533	4631
5.92600	4630
5.92667	4630
5.92733	4629
5.92800	4629
5.92867	4628
5.92933	4628
5.93000	4627
5.93067	4627
5.93133	4626
5.93200	4626
5.93267	4625
5.93333	4625
5.93400	4624
5.93467	4624
5.93533	4623
5.93600	4623
5.93667	4623
5.93733	4622
5.93800	4622
5.93867	4622
5.93933	4621
5.94000	4621
5.94067	4621
5.94133	4620
5.94200	4620
5.94267	4620
5.94333	4620
5.94400	4620
5.94467	4620
5.94533	4620
5.94600	4619
5.94667	4619
5.94733	4619
5.94800	4619
5.94867	4619
5.94933	4619
5.95000	4619
5.95067	4619
5.95133	4619
5.95200	4620
5.95267	4620
5.95333	4620
5.95400	4620
5.95467	4620
5.95533	4620
5.95600	4620
5.95667	4620
5.95733	4621
5.95800	4621
5.95867	4621
5.95933	4621
5.96000	4621
5.96067	4621
5.96133	4621
5.96200	4621
5.96267	4621
5.96333	4621
5.96400	4621
5.96467	4621
5.96533	4621
5.96600	4621
5.96667	4622
5.96733	4622
5.96800	4621
5.96867	4621
5.96933	4621
5.97000	4621
5.97067	4621
5.97133	4621
5.97200	4621
5.97267	4621
5.97333	4621
5.97400	4621
5.97467	4621
5.97533	4621
5.97600	4620
5.97667	4620
5.97733	4620
5.97800	4620
5.97867	4620
5.97933	4620
5.98000	4619
5.98067	4619
5.98133	4619
5.98200	4619
5.98267	4619
5.98333	4619
5.98400	4619
5.98467	4619
5.98533	4618
5.98600	4618
5.98667	4618
5.98733	4618
5.98800	4618
5.98867	4618
5.98933	4618
5.99000	4617
5.99067	4617
5.99133	4617
5.99200	4617
5.99267	4617
5.99333	4617
5.99400	4617
5.99467	4617
5.99533	4617
5.99600	4616
5.99667	4616
5.99733	4616
5.99800	4616
5.99867	4616
5.99933	4616
6.00000	4616
6.00067	4615
6.00133	4615
6.00200	4615
6.00267	4615
6.00333	4614
6.00400	4614
6.00467	4614
6.00533	4614
6.00600	4613
6.00667	4613
6.00733	4613
6.00800	4613
6.00867	4612
6.00933	4612
6.01000	4612
6.01067	4611
6.01133	4611
6.01200	4611
6.01267	4610
6.01333	4610
6.01400	4610
6.01467	4609
6.01533	4609
6.01600	4609
6.01667	4608
6.01733	4608
6.01800	4608
6.01867	4607
6.01933	4607
6.02000	4607
6.02067	4606
6.02133	4606
6.02200	4606
6.02267	4606
6.02333	4605
6.02400	4605
6.02467	4605
6.02533	4604
6.02600	4604
6.02667	4604
6.02733	4603
6.02800	4603
6.02867	4603
6.02933	4602
6.03000	4602
6.03067	4601
6.03133	4601
6.03200	4601
6.03267	4600
6.03333	4600
6.03400	4600
6.03467	4599
6.03533	4599
6.03600	4599
6.03667	4598
6.03733	4598
6.03800	4598
6.03867	4597
6.03933	4597
6.04000	4596
6.04067	4596
6.04133	4596
6.04200	4595
6.04267	4595
6.04333	4594
6.04400	4594
6.04467	4593
6.04533	4593
6.04600	4592
6.04667	4592
6.04733	4591
6.04800	4591
6.04867	4590
6.04933	4590
6.05000	4589
6.05067	4589
6.05133	4588
6.05200	4588
6.05267	4587
6.05333	4586
6.05400	4586
6.05467	4585
6.05533	4584
6.05600	4584
6.05667	4583
6.05733	4582
6.05800	4581
6.05867	4581
6.05933	4580
6.06000	4579
6.06067	4578
6.06133	4578
6.06200	4577
6.06267	4576
6.06333	4576
6.06400	4575
6.06467	4574
6.06533	4574
6.06600	4573
6.06667	4572
6.06733	4571
6.06800	4571
6.06867	4570
6.06933	4570
6.07000	4569
6.07067	4568
6.07133	4568
6.07200	4567
6.07267	4566
6.07333	4566
6.07400	4565
6.07467	4565
6.07533	4564
6.07600	4564
6.07667	4563
6.07733	4563
6.07800	4562
6.07867	4562
6.07933	4561
6.08000	4561
6.08067	4560
6.08133	4560
6.08200	4559
6.08267	4559
6.08333	4558
6.08400	4558
6.08467	4557
6.08533	4557
6.08600	4556
6.08667	4555
6.08733	4555
6.08800	4554
6.08867	4554
6.08933	4553
6.09000	4553
6.09067	4552
6.09133	4552
6.09200	4552
6.09267	4551
6.09333	4551
6.09400	4550
6.09467	4550
6.09533	4549
6.09600	4549
6.09667	4549
6.09733	4548
6.09800	4548
6.09867	4547
6.09933	4547
6.10000	4547
6.10067	4546
6.10133	4546
6.10200	4545
6.10267	4545
6.10333	4544
6.10400	4544
6.10467	4543
6.10533	4543
6.10600	4542
6.10667	4542
6.10733	4541
6.10800	4541
6.10867	4540
6.10933	4540
6.11000	4540
6.11067	4539
6.11133	4539
6.11200	4538
6.11267	4538
6.11333	4537
6.11400	4537
6.11467	4536
6.11533	4536
6.11600	4535
6.11667	4535
6.11733	4534
6.11800	4534
6.11867	4533
6.11933	4533
6.12000	4532
6.12067	4532
6.12133	4531
6.12200	4530
6.12267	4530
6.12333	4529
6.12400	4529
6.12467	4528
6.12533	4528
6.12600	4527
6.12667	4526
6.12733	4526
6.12800	4525
6.12867	4525
6.12933	4524
6.13000	4524
6.13067	4523
6.13133	4522
6.13200	4522
6.13267	4521
6.13333	4521
6.13400	4520
6.13467	4520
6.13533	4519
6.13600	4519
6.13667	4518
6.13733	4518
6.13800	4517
6.13867	4516
6.13933	4516
6.14000	4515
6.14067	4515
6.14133	4514
6.14200	4514
6.14267	4513
6.14333	4512
6.14400	4512
6.14467	4511
6.14533	4511
6.14600	4510
6.14667	4510
6.14733	4509
6.14800	4509
6.14867	4508
6.14933	4508
6.15000	4507
6.15067	4507
6.15133	4506
6.15200	4506
6.15267	4505
6.15333	4505
6.15400	4504
6.15467	4504
6.15533	4503
6.15600	4503
6.15667	4502
6.15733	4502
6.15800	4501
6.15867	4501
6.15933	4501
6.16000	4500
6.16067	4500
6.16133	4499
6.16200	4499
6.16267	4498
6.16333	4498
6.16400	4497
6.16467	4497
6.16533	4496
6.16600	4496
6.16667	4495
6.16733	4495
6.16800	4494
6.16867	4494
6.16933	4493
6.17000	4493
6.17067	4492
6.17133	4492
6.17200	4492
6.17267	4491
6.17333	4491
6.17400	4491
6.17467	4490
6.17533	4490
6.17600	4489
6.17667	4489
6.17733	4489
6.17800	4488
6.17867	4488
6.17933	4488
6.18000	4488
6.18067	4488
6.18133	4487
6.18200	4487
6.18267	4487
6.18333	4487
6.18400	4487
6.18467	4487
6.18533	4487
6.18600	4487
6.18667	4487
6.18733	4487
6.18800	4487
6.18867	4487
6.18933	4487
6.19000	4487
6.19067	4487
6.19133	4487
6.19200	4487
6.19267	4487
6.19333	4487
6.19400	4487
6.19467	4487
6.19533	4487
6.19600	4488
6.19667	4488
6.19733	4488
6.19800	4488
6.19867	4488
6.19933	4489
6.20000	4489
6.20067	4489
6.20133	4489
6.20200	4490
6.20267	4490
6.20333	4490
6.20400	4491
6.20467	4491
6.20533	4491
6.20600	4492
6.20667	4492
6.20733	4492
6.20800	4493
6.20867	4493
6.20933	4493
6.21000	4494
6.21067	4494
6.21133	4494
6.21200	4495
6.21267	4495
6.21333	4496
6.21400	4496
6.21467	4497
6.21533	4497
6.21600	4498
6.21667	4498
6.21733	4499
6.21800	4500
6.21867	4500
6.21933	4501
6.22000	4501
6.22067	4502
6.22133	4503
6.22200	4503
6.22267	4504
6.22333	4505
6.22400	4505
6.22467	4506
6.22533	4507
6.22600	4508
6.22667	4508
6.22733	4509
6.22800	4510
6.22867	4511
6.22933	4512
6.23000	4513
6.23067	4514
6.23133	4515
6.23200	4516
6.23267	4517
6.23333	4518
6.23400	4519
6.23467	4519
6.23533	4520
6.23600	4521
6.23667	4522
6.23733	4523
6.23800	4524
6.23867	4525
6.23933	4526
6.24000	4527
6.24067	4527
6.24133	4528
6.24200	4529
6.24267	4530
6.24333	4531
6.24400	4532
6.24467	4533
6.24533	4534
6.24600	4534
6.24667	4535
6.24733	4536
6.24800	4537
6.24867	4538
6.24933	4538
6.25000	4539
6.25067	4540
6.25133	4541
6.25200	4541
6.25267	4542
6.25333	4543
6.25400	4544
6.25467	4544
6.25533	4545
6.25600	4546
6.25667	4546
6.25733	4547
6.25800	4548
6.25867	4548
6.25933	4549
6.26000	4549
6.26067	4550
6.26133	4550
6.26200	4551
6.26267	4551
6.26333	4552
6.26400	4552
6.26467	4553
6.26533	4553
6.26600	4553
6.26667	4554
6.26733	4554
6.26800	4554
6.26867	4555
6.26933	4555
6.27000	4555
6.27067	4555
6.27133	4556
6.27200	4556
6.27267	4556
6.27333	4556
6.27400	4556
6.27467	4556
6.27533	4556
6.27600	4556
6.27667	4556
6.27733	4556
6.27800	4556
6.27867	4556
6.27933	4556
6.28000	4556
6.28067	4556
6.28133	4556
6.28200	4556
6.28267	4556
6.28333	4556
6.28400	4556
6.28467	4556
6.28533	4556
6.28600	4556
6.28667	4555
6.28733	4555
6.28800	4555
6.28867	4555
6.28933	4555
6.29000	4555
6.29067	4555
6.29133	4554
6.29200	4554
6.29267	4554
6.29333	4554
6.29400	4553
6.29467	4553
6.29533	4553
6.29600	4553
6.29667	4552
6.29733	4552
6.29800	4552
6.29867	4551
6.29933	4551
6.30000	4551
6.30067	4550
6.30133	4550
6.30200	4549
6.30267	4549
6.30333	4549
6.30400	4548
6.30467	4548
6.30533	4547
6.30600	4547
6.30667	4547
6.30733	4546
6.30800	4546
6.30867	4545
6.30933	4545
6.31000	4544
6.31067	4544
6.31133	4543
6.31200	4543
6.31267	4542
6.31333	4542
6.31400	4541
6.31467	4540
6.31533	4540
6.31600	4539
6.31667	4539
6.31733	4538
6.31800	4538
6.31867	4537
6.31933	4537
6.32000	4536
6.32067	4535
6.32133	4535
6.32200	4534
6.32267	4533
6.32333	4533
6.32400	4532
6.32467	4531
6.32533	4531
6.32600	4530
6.32667	4529
6.32733	4529
6.32800	4528
6.32867	4527
6.32933	4526
6.33000	4526
6.33067	4525
6.33133	4524
6.33200	4523
6.33267	4523
6.33333	4522
6.33400	4521
6.33467	4520
6.33533	4519
6.33600	4519
6.33667	4518
6.33733	4517
6.33800	4516
6.33867	4515
6.33933	4514
6.34000	4514
6.34067	4513
6.34133	4512
6.34200	4511
6.34267	4510
6.34333	4510
6.34400	4509
6.34467	4508
6.34533	4507
6.34600	4507
6.34667	4506
6.34733	4505
6.34800	4504
6.34867	4504
6.34933	4503
6.35000	4502
6.35067	4502
6.35133	4501
6.35200	4500
6.35267	4500
6.35333	4499
6.35400	4498
6.35467	4497
6.35533	4497
6.35600	4496
6.35667	4495
6.35733	4495
6.35800	4494
6.35867	4493
6.35933	4493
6.36000	4492
6.36067	4491
6.36133	4490
6.36200	4490
6.36267	4489
6.36333	4488
6.36400	4488
6.36467	4487
6.36533	4486
6.36600	4486
6.36667	4485
6.36733	4485
6.36800	4484
6.36867	4484
6.36933	4483
6.37000	4482
6.37067	4482
6.37133	4481
6.37200	4481
6.37267	4480
6.37333	4480
6.37400	4479
6.37467	4479
6.37533	4478
6.37600	4477
6.37667	4477
6.37733	4476
6.37800	4476
6.37867	4475
6.37933	4475
6.38000	4474
6.38067	4474
6.38133	4473
6.38200	4473
6.38267	4472
6.38333	4472
6.38400	4472
6.38467	4471
6.38533	4471
6.38600	4470
6.38667	4470
6.38733	4469
6.38800	4469
6.38867	4468
6.38933	4468
6.39000	4468
6.39067	4467
6.39133	4467
6.39200	4466
6.39267	4466
6.39333	4466
6.39400	4465
6.39467	4465
6.39533	4465
6.39600	4464
6.39667	4464
6.39733	4464
6.39800	4463
6.39867	4464
6.39933	4464

