[Header]
Application Name	LabSolutions
Version	5.73
Data File Name	C:\LabSolutions\Data\Project1\stephen\2016-01-11\50_benzil.gcd
Output Date	1/11/2016
Output Time	1:18:01 PM

[Configuration]
Instrument Name	WEISSTA-PC-Instrument1
Instrument #	1
Line #	1
# of Detectors	1
Detector ID	DET#2
Detector Name	DFID1
# of Channels	1

[Chromatogram (Ch1)]
Interval(msec)	40
# of Points	9600
Start Time(min)	0.000
End Time(min)	6.400
R.Time (min)	Intensity
0.00033	1
0.00100	1
0.00167	1
0.00233	1
0.00300	1
0.00367	1
0.00433	1
0.00500	1
0.00567	1
0.00633	1
0.00700	1
0.00767	1
0.00833	1
0.00900	0
0.00967	0
0.01033	-0
0.01100	-1
0.01167	-2
0.01233	-3
0.01300	-3
0.01367	-5
0.01433	-6
0.01500	-7
0.01567	-8
0.01633	-10
0.01700	-12
0.01767	-13
0.01833	-15
0.01900	-17
0.01967	-20
0.02033	-22
0.02100	-24
0.02167	-27
0.02233	-29
0.02300	-32
0.02367	-34
0.02433	-37
0.02500	-40
0.02567	-43
0.02633	-46
0.02700	-49
0.02767	-52
0.02833	-55
0.02900	-59
0.02967	-62
0.03033	-65
0.03100	-68
0.03167	-71
0.03233	-75
0.03300	-78
0.03367	-81
0.03433	-84
0.03500	-87
0.03567	-90
0.03633	-93
0.03700	-96
0.03767	-98
0.03833	-101
0.03900	-104
0.03967	-107
0.04033	-109
0.04100	-112
0.04167	-114
0.04233	-117
0.04300	-120
0.04367	-122
0.04433	-125
0.04500	-127
0.04567	-129
0.04633	-132
0.04700	-134
0.04767	-136
0.04833	-139
0.04900	-141
0.04967	-143
0.05033	-145
0.05100	-148
0.05167	-150
0.05233	-152
0.05300	-155
0.05367	-157
0.05433	-159
0.05500	-161
0.05567	-164
0.05633	-166
0.05700	-168
0.05767	-171
0.05833	-173
0.05900	-175
0.05967	-177
0.06033	-180
0.06100	-182
0.06167	-184
0.06233	-186
0.06300	-189
0.06367	-191
0.06433	-193
0.06500	-195
0.06567	-197
0.06633	-199
0.06700	-201
0.06767	-203
0.06833	-205
0.06900	-207
0.06967	-209
0.07033	-211
0.07100	-213
0.07167	-215
0.07233	-217
0.07300	-218
0.07367	-220
0.07433	-221
0.07500	-223
0.07567	-224
0.07633	-226
0.07700	-227
0.07767	-229
0.07833	-229
0.07900	-226
0.07967	-215
0.08033	-187
0.08100	-138
0.08167	-61
0.08233	56
0.08300	235
0.08367	503
0.08433	837
0.08500	1236
0.08567	1709
0.08633	2292
0.08700	2972
0.08767	3761
0.08833	4649
0.08900	5642
0.08967	6763
0.09033	8023
0.09100	9350
0.09167	10730
0.09233	12172
0.09300	13662
0.09367	15196
0.09433	16776
0.09500	18410
0.09567	20067
0.09633	21710
0.09700	23328
0.09767	24927
0.09833	26563
0.09900	28218
0.09967	29855
0.10033	31434
0.10100	32959
0.10167	34498
0.10233	35979
0.10300	37364
0.10367	38670
0.10433	39938
0.10500	41156
0.10567	42300
0.10633	43366
0.10700	44348
0.10767	45258
0.10833	46102
0.10900	46864
0.10967	47577
0.11033	48248
0.11100	48845
0.11167	49387
0.11233	49857
0.11300	50265
0.11367	50624
0.11433	50944
0.11500	51206
0.11567	51395
0.11633	51516
0.11700	51577
0.11767	51591
0.11833	51555
0.11900	51469
0.11967	51342
0.12033	51169
0.12100	50968
0.12167	50887
0.12233	51623
0.12300	55492
0.12367	68658
0.12433	104241
0.12500	187283
0.12567	356246
0.12633	660383
0.12700	1155026
0.12767	1894195
0.12833	2925224
0.12900	4287508
0.12967	6008832
0.13033	8106430
0.13100	10586564
0.13167	13447295
0.13233	16679128
0.13300	20268112
0.13367	24196567
0.13433	28444255
0.13500	32989332
0.13567	37809021
0.13633	42879917
0.13700	48178662
0.13767	53682182
0.13833	59367717
0.13900	65213721
0.13967	71199734
0.14033	77306315
0.14100	83515488
0.14167	89810200
0.14233	96174441
0.14300	102593313
0.14367	109053018
0.14433	115540488
0.14500	122043454
0.14567	128550731
0.14633	135051888
0.14700	141537264
0.14767	147997930
0.14833	154425355
0.14900	160811747
0.14967	167149934
0.15033	173433587
0.15100	179656814
0.15167	185814400
0.15233	191901447
0.15300	197913880
0.15367	203847812
0.15433	209698703
0.15500	215462908
0.15567	221137292
0.15633	226719135
0.15700	232206145
0.15767	237596448
0.15833	242888143
0.15900	248079775
0.15967	253170006
0.16033	258157549
0.16100	263041549
0.16167	267821481
0.16233	272496963
0.16300	277067892
0.16367	281534384
0.16433	285896479
0.16500	290154347
0.16567	294308362
0.16633	298359027
0.16700	302306914
0.16767	306152804
0.16833	309897678
0.16900	313542907
0.16967	317090127
0.17033	320540683
0.17100	323895939
0.17167	327156970
0.17233	330324969
0.17300	333401136
0.17367	336386586
0.17433	339282036
0.17500	342086689
0.17567	344799418
0.17633	347417950
0.17700	349919013
0.17767	352238601
0.17833	354325517
0.17900	356171812
0.17967	357787438
0.18033	359184054
0.18100	360372824
0.18167	361364248
0.18233	362168417
0.18300	362794834
0.18367	363252617
0.18433	363550353
0.18500	363696083
0.18567	363696977
0.18633	363559467
0.18700	363289472
0.18767	362892379
0.18833	362373167
0.18900	361736110
0.18967	360984754
0.19033	360122076
0.19100	359150685
0.19167	358072489
0.19233	356889098
0.19300	355601515
0.19367	354210659
0.19433	352716803
0.19500	351120036
0.19567	349420060
0.19633	347616677
0.19700	345709215
0.19767	343697133
0.19833	341579871
0.19900	339357159
0.19967	337028638
0.20033	334594240
0.20100	332053960
0.20167	329408011
0.20233	326656943
0.20300	323801557
0.20367	320843116
0.20433	317783108
0.20500	314623535
0.20567	311366612
0.20633	308015040
0.20700	304571691
0.20767	301039963
0.20833	297423502
0.20900	293726463
0.20967	289953177
0.21033	286108461
0.21100	282197292
0.21167	278225044
0.21233	274197099
0.21300	270119083
0.21367	265996646
0.21433	261835553
0.21500	257641476
0.21567	253420070
0.21633	249176879
0.21700	244917330
0.21767	240646695
0.21833	236370081
0.21900	232092411
0.21967	227818395
0.22033	223552546
0.22100	219299142
0.22167	215062263
0.22233	210845752
0.22300	206653240
0.22367	202488128
0.22433	198353604
0.22500	194252636
0.22567	190187992
0.22633	186162223
0.22700	182177697
0.22767	178236583
0.22833	174340872
0.22900	170492365
0.22967	166692697
0.23033	162943341
0.23100	159245618
0.23167	155600697
0.23233	152009603
0.23300	148473227
0.23367	144992332
0.23433	141567564
0.23500	138199454
0.23567	134888425
0.23633	131634797
0.23700	128438798
0.23767	125300562
0.23833	122220144
0.23900	119197519
0.23967	116232589
0.24033	113325188
0.24100	110475088
0.24167	107682001
0.24233	104945585
0.24300	102265444
0.24367	99641143
0.24433	97072202
0.24500	94558104
0.24567	92098292
0.24633	89692178
0.24700	87339144
0.24767	85038544
0.24833	82789711
0.24900	80591954
0.24967	78444564
0.25033	76346817
0.25100	74297976
0.25167	72297287
0.25233	70343987
0.25300	68437303
0.25367	66576457
0.25433	64760665
0.25500	62989138
0.25567	61261084
0.25633	59575710
0.25700	57932219
0.25767	56329819
0.25833	54767715
0.25900	53245118
0.25967	51761241
0.26033	50315303
0.26100	48906529
0.26167	47534144
0.26233	46197381
0.26300	44895483
0.26367	43627699
0.26433	42393285
0.26500	41191509
0.26567	40021643
0.26633	38882969
0.26700	37774779
0.26767	36696376
0.26833	35647070
0.26900	34626185
0.26967	33633050
0.27033	32667008
0.27100	31727412
0.27167	30813627
0.27233	29925026
0.27300	29060996
0.27367	28220933
0.27433	27404243
0.27500	26610346
0.27567	25838669
0.27633	25088655
0.27700	24359752
0.27767	23651423
0.27833	22963142
0.27900	22294393
0.27967	21644670
0.28033	21013477
0.28100	20400330
0.28167	19804754
0.28233	19226284
0.28300	18664468
0.28367	18118863
0.28433	17589035
0.28500	17074560
0.28567	16575023
0.28633	16090018
0.28700	15619152
0.28767	15162038
0.28833	14718299
0.28900	14287568
0.28967	13869485
0.29033	13463701
0.29100	13069874
0.29167	12687669
0.29233	12316762
0.29300	11956837
0.29367	11607583
0.29433	11268702
0.29500	10939898
0.29567	10620885
0.29633	10311384
0.29700	10011124
0.29767	9719841
0.29833	9437277
0.29900	9163181
0.29967	8897308
0.30033	8639421
0.30100	8389287
0.30167	8146683
0.30233	7911387
0.30300	7683187
0.30367	7461874
0.30433	7247246
0.30500	7039108
0.30567	6837268
0.30633	6641540
0.30700	6451744
0.30767	6267704
0.30833	6089249
0.30900	5916213
0.30967	5748434
0.31033	5585755
0.31100	5428023
0.31167	5275091
0.31233	5126813
0.31300	4983052
0.31367	4843671
0.31433	4708538
0.31500	4577524
0.31567	4450505
0.31633	4327360
0.31700	4207972
0.31767	4092228
0.31833	3980016
0.31900	3871228
0.31967	3765761
0.32033	3663512
0.32100	3564383
0.32167	3468279
0.32233	3375106
0.32300	3284774
0.32367	3197197
0.32433	3112288
0.32500	3029965
0.32567	2950149
0.32633	2872764
0.32700	2797733
0.32767	2724983
0.32833	2654444
0.32900	2586047
0.32967	2519727
0.33033	2455419
0.33100	2393060
0.33167	2332591
0.33233	2273950
0.33300	2217082
0.33367	2161932
0.33433	2108446
0.33500	2056572
0.33567	2006260
0.33633	1957461
0.33700	1910126
0.33767	1864211
0.33833	1819671
0.33900	1776463
0.33967	1734544
0.34033	1693876
0.34100	1654418
0.34167	1616132
0.34233	1578981
0.34300	1542931
0.34367	1507947
0.34433	1473995
0.34500	1441043
0.34567	1409059
0.34633	1378014
0.34700	1347877
0.34767	1318621
0.34833	1290217
0.34900	1262639
0.34967	1235860
0.35033	1209857
0.35100	1184603
0.35167	1160076
0.35233	1136252
0.35300	1113110
0.35367	1090628
0.35433	1068785
0.35500	1047561
0.35567	1026936
0.35633	1006892
0.35700	987411
0.35767	968474
0.35833	950065
0.35900	932167
0.35967	914764
0.36033	897841
0.36100	881383
0.36167	865376
0.36233	849805
0.36300	834657
0.36367	819919
0.36433	805577
0.36500	791620
0.36567	778035
0.36633	764810
0.36700	751936
0.36767	739400
0.36833	727193
0.36900	715304
0.36967	703724
0.37033	692443
0.37100	681451
0.37167	670740
0.37233	660300
0.37300	650126
0.37367	640207
0.37433	630536
0.37500	621106
0.37567	611909
0.37633	602938
0.37700	594187
0.37767	585648
0.37833	577315
0.37900	569182
0.37967	561243
0.38033	553492
0.38100	545924
0.38167	538532
0.38233	531313
0.38300	524259
0.38367	517368
0.38433	510634
0.38500	504053
0.38567	497619
0.38633	491330
0.38700	485179
0.38767	479165
0.38833	473281
0.38900	467526
0.38967	461894
0.39033	456383
0.39100	450989
0.39167	445709
0.39233	440539
0.39300	435476
0.39367	430518
0.39433	425661
0.39500	420903
0.39567	416240
0.39633	411670
0.39700	407190
0.39767	402799
0.39833	398493
0.39900	394270
0.39967	390128
0.40033	386065
0.40100	382079
0.40167	378167
0.40233	374328
0.40300	370559
0.40367	366860
0.40433	363227
0.40500	359659
0.40567	356155
0.40633	352712
0.40700	349329
0.40767	346005
0.40833	342739
0.40900	339528
0.40967	336371
0.41033	333267
0.41100	330215
0.41167	327214
0.41233	324261
0.41300	321357
0.41367	318499
0.41433	315687
0.41500	312920
0.41567	310196
0.41633	307515
0.41700	304876
0.41767	302278
0.41833	299720
0.41900	297201
0.41967	294720
0.42033	292277
0.42100	289870
0.42167	287499
0.42233	285163
0.42300	282861
0.42367	280592
0.42433	278356
0.42500	276150
0.42567	273976
0.42633	271832
0.42700	269718
0.42767	267633
0.42833	265575
0.42900	263545
0.42967	261541
0.43033	259564
0.43100	257612
0.43167	255685
0.43233	253783
0.43300	251906
0.43367	250052
0.43433	248222
0.43500	246414
0.43567	244629
0.43633	242866
0.43700	241124
0.43767	239404
0.43833	237704
0.43900	236024
0.43967	234365
0.44033	232725
0.44100	231105
0.44167	229503
0.44233	227920
0.44300	226356
0.44367	224809
0.44433	223279
0.44500	221767
0.44567	220273
0.44633	218794
0.44700	217333
0.44767	215887
0.44833	214457
0.44900	213042
0.44967	211643
0.45033	210259
0.45100	208890
0.45167	207535
0.45233	206195
0.45300	204869
0.45367	203556
0.45433	202257
0.45500	200972
0.45567	199700
0.45633	198441
0.45700	197195
0.45767	195961
0.45833	194741
0.45900	193532
0.45967	192335
0.46033	191151
0.46100	189978
0.46167	188817
0.46233	187668
0.46300	186530
0.46367	185404
0.46433	184289
0.46500	183185
0.46567	182092
0.46633	181010
0.46700	179939
0.46767	178878
0.46833	177828
0.46900	176789
0.46967	175759
0.47033	174739
0.47100	173730
0.47167	172730
0.47233	171739
0.47300	170758
0.47367	169786
0.47433	168823
0.47500	167869
0.47567	166924
0.47633	165988
0.47700	165060
0.47767	164140
0.47833	163229
0.47900	162325
0.47967	161430
0.48033	160542
0.48100	159663
0.48167	158791
0.48233	157926
0.48300	157069
0.48367	156220
0.48433	155378
0.48500	154543
0.48567	153715
0.48633	152894
0.48700	152081
0.48767	151274
0.48833	150474
0.48900	149681
0.48967	148894
0.49033	148114
0.49100	147341
0.49167	146573
0.49233	145813
0.49300	145059
0.49367	144311
0.49433	143569
0.49500	142834
0.49567	142105
0.49633	141382
0.49700	140664
0.49767	139953
0.49833	139248
0.49900	138548
0.49967	137854
0.50033	137166
0.50100	136484
0.50167	135807
0.50233	135136
0.50300	134470
0.50367	133809
0.50433	133154
0.50500	132504
0.50567	131859
0.50633	131220
0.50700	130586
0.50767	129956
0.50833	129332
0.50900	128713
0.50967	128099
0.51033	127489
0.51100	126884
0.51167	126284
0.51233	125689
0.51300	125099
0.51367	124513
0.51433	123932
0.51500	123355
0.51567	122782
0.51633	122215
0.51700	121651
0.51767	121092
0.51833	120537
0.51900	119987
0.51967	119440
0.52033	118898
0.52100	118360
0.52167	117826
0.52233	117296
0.52300	116770
0.52367	116248
0.52433	115730
0.52500	115216
0.52567	114706
0.52633	114200
0.52700	113697
0.52767	113198
0.52833	112703
0.52900	112212
0.52967	111725
0.53033	111241
0.53100	110760
0.53167	110283
0.53233	109810
0.53300	109340
0.53367	108874
0.53433	108411
0.53500	107952
0.53567	107495
0.53633	107042
0.53700	106593
0.53767	106147
0.53833	105703
0.53900	105264
0.53967	104827
0.54033	104393
0.54100	103962
0.54167	103535
0.54233	103110
0.54300	102688
0.54367	102270
0.54433	101854
0.54500	101442
0.54567	101032
0.54633	100625
0.54700	100222
0.54767	99821
0.54833	99422
0.54900	99027
0.54967	98634
0.55033	98244
0.55100	97857
0.55167	97473
0.55233	97091
0.55300	96712
0.55367	96336
0.55433	95962
0.55500	95591
0.55567	95222
0.55633	94856
0.55700	94492
0.55767	94131
0.55833	93773
0.55900	93417
0.55967	93063
0.56033	92712
0.56100	92363
0.56167	92017
0.56233	91673
0.56300	91331
0.56367	90992
0.56433	90655
0.56500	90320
0.56567	89988
0.56633	89658
0.56700	89330
0.56767	89004
0.56833	88680
0.56900	88358
0.56967	88039
0.57033	87721
0.57100	87406
0.57167	87093
0.57233	86782
0.57300	86473
0.57367	86166
0.57433	85861
0.57500	85558
0.57567	85257
0.57633	84958
0.57700	84660
0.57767	84365
0.57833	84072
0.57900	83781
0.57967	83492
0.58033	83204
0.58100	82918
0.58167	82635
0.58233	82353
0.58300	82072
0.58367	81794
0.58433	81518
0.58500	81243
0.58567	80971
0.58633	80700
0.58700	80431
0.58767	80164
0.58833	79899
0.58900	79636
0.58967	79374
0.59033	79115
0.59100	78857
0.59167	78601
0.59233	78347
0.59300	78094
0.59367	77844
0.59433	77594
0.59500	77347
0.59567	77101
0.59633	76856
0.59700	76613
0.59767	76371
0.59833	76130
0.59900	75891
0.59967	75653
0.60033	75417
0.60100	75181
0.60167	74947
0.60233	74714
0.60300	74482
0.60367	74251
0.60433	74021
0.60500	73793
0.60567	73565
0.60633	73339
0.60700	73114
0.60767	72890
0.60833	72667
0.60900	72445
0.60967	72225
0.61033	72005
0.61100	71787
0.61167	71569
0.61233	71353
0.61300	71138
0.61367	70924
0.61433	70711
0.61500	70499
0.61567	70288
0.61633	70079
0.61700	69870
0.61767	69663
0.61833	69457
0.61900	69252
0.61967	69048
0.62033	68845
0.62100	68644
0.62167	68444
0.62233	68244
0.62300	68047
0.62367	67850
0.62433	67654
0.62500	67460
0.62567	67266
0.62633	67074
0.62700	66883
0.62767	66693
0.62833	66504
0.62900	66315
0.62967	66128
0.63033	65942
0.63100	65757
0.63167	65573
0.63233	65390
0.63300	65208
0.63367	65026
0.63433	64846
0.63500	64667
0.63567	64488
0.63633	64310
0.63700	64133
0.63767	63957
0.63833	63782
0.63900	63607
0.63967	63434
0.64033	63261
0.64100	63089
0.64167	62918
0.64233	62748
0.64300	62578
0.64367	62409
0.64433	62241
0.64500	62074
0.64567	61908
0.64633	61742
0.64700	61578
0.64767	61414
0.64833	61250
0.64900	61088
0.64967	60926
0.65033	60765
0.65100	60605
0.65167	60445
0.65233	60286
0.65300	60128
0.65367	59971
0.65433	59814
0.65500	59658
0.65567	59503
0.65633	59348
0.65700	59195
0.65767	59041
0.65833	58889
0.65900	58737
0.65967	58585
0.66033	58435
0.66100	58285
0.66167	58136
0.66233	57987
0.66300	57840
0.66367	57693
0.66433	57546
0.66500	57401
0.66567	57256
0.66633	57112
0.66700	56969
0.66767	56826
0.66833	56684
0.66900	56543
0.66967	56403
0.67033	56263
0.67100	56124
0.67167	55986
0.67233	55848
0.67300	55711
0.67367	55575
0.67433	55439
0.67500	55304
0.67567	55170
0.67633	55036
0.67700	54903
0.67767	54770
0.67833	54639
0.67900	54508
0.67967	54377
0.68033	54248
0.68100	54119
0.68167	53990
0.68233	53862
0.68300	53735
0.68367	53609
0.68433	53483
0.68500	53357
0.68567	53233
0.68633	53108
0.68700	52985
0.68767	52862
0.68833	52740
0.68900	52618
0.68967	52496
0.69033	52375
0.69100	52255
0.69167	52135
0.69233	52016
0.69300	51898
0.69367	51780
0.69433	51662
0.69500	51545
0.69567	51429
0.69633	51313
0.69700	51198
0.69767	51083
0.69833	50969
0.69900	50856
0.69967	50743
0.70033	50630
0.70100	50518
0.70167	50407
0.70233	50296
0.70300	50186
0.70367	50076
0.70433	49967
0.70500	49858
0.70567	49750
0.70633	49642
0.70700	49536
0.70767	49429
0.70833	49324
0.70900	49220
0.70967	49116
0.71033	49013
0.71100	48911
0.71167	48810
0.71233	48710
0.71300	48611
0.71367	48513
0.71433	48416
0.71500	48321
0.71567	48227
0.71633	48134
0.71700	48042
0.71767	47953
0.71833	47864
0.71900	47778
0.71967	47693
0.72033	47610
0.72100	47528
0.72167	47449
0.72233	47372
0.72300	47296
0.72367	47223
0.72433	47151
0.72500	47081
0.72567	47012
0.72633	46945
0.72700	46878
0.72767	46813
0.72833	46749
0.72900	46686
0.72967	46623
0.73033	46560
0.73100	46497
0.73167	46435
0.73233	46373
0.73300	46310
0.73367	46247
0.73433	46184
0.73500	46120
0.73567	46056
0.73633	45991
0.73700	45926
0.73767	45860
0.73833	45793
0.73900	45725
0.73967	45657
0.74033	45589
0.74100	45519
0.74167	45449
0.74233	45378
0.74300	45307
0.74367	45235
0.74433	45162
0.74500	45089
0.74567	45015
0.74633	44940
0.74700	44865
0.74767	44790
0.74833	44714
0.74900	44637
0.74967	44559
0.75033	44482
0.75100	44403
0.75167	44325
0.75233	44246
0.75300	44166
0.75367	44086
0.75433	44006
0.75500	43925
0.75567	43844
0.75633	43762
0.75700	43680
0.75767	43598
0.75833	43516
0.75900	43433
0.75967	43351
0.76033	43267
0.76100	43184
0.76167	43100
0.76233	43017
0.76300	42933
0.76367	42849
0.76433	42765
0.76500	42680
0.76567	42596
0.76633	42512
0.76700	42427
0.76767	42343
0.76833	42259
0.76900	42175
0.76967	42090
0.77033	42006
0.77100	41922
0.77167	41838
0.77233	41754
0.77300	41671
0.77367	41587
0.77433	41503
0.77500	41420
0.77567	41337
0.77633	41254
0.77700	41171
0.77767	41089
0.77833	41007
0.77900	40925
0.77967	40843
0.78033	40762
0.78100	40681
0.78167	40600
0.78233	40520
0.78300	40440
0.78367	40361
0.78433	40281
0.78500	40203
0.78567	40124
0.78633	40046
0.78700	39968
0.78767	39891
0.78833	39814
0.78900	39737
0.78967	39661
0.79033	39585
0.79100	39510
0.79167	39434
0.79233	39360
0.79300	39286
0.79367	39212
0.79433	39138
0.79500	39065
0.79567	38993
0.79633	38920
0.79700	38849
0.79767	38777
0.79833	38707
0.79900	38636
0.79967	38566
0.80033	38496
0.80100	38427
0.80167	38358
0.80233	38290
0.80300	38222
0.80367	38154
0.80433	38087
0.80500	38020
0.80567	37954
0.80633	37887
0.80700	37822
0.80767	37756
0.80833	37691
0.80900	37627
0.80967	37562
0.81033	37498
0.81100	37435
0.81167	37371
0.81233	37308
0.81300	37246
0.81367	37184
0.81433	37122
0.81500	37060
0.81567	36999
0.81633	36939
0.81700	36878
0.81767	36818
0.81833	36759
0.81900	36700
0.81967	36641
0.82033	36582
0.82100	36524
0.82167	36466
0.82233	36408
0.82300	36351
0.82367	36294
0.82433	36237
0.82500	36181
0.82567	36125
0.82633	36069
0.82700	36014
0.82767	35958
0.82833	35903
0.82900	35848
0.82967	35794
0.83033	35739
0.83100	35685
0.83167	35631
0.83233	35577
0.83300	35523
0.83367	35470
0.83433	35417
0.83500	35364
0.83567	35311
0.83633	35259
0.83700	35206
0.83767	35154
0.83833	35102
0.83900	35050
0.83967	34999
0.84033	34948
0.84100	34896
0.84167	34845
0.84233	34794
0.84300	34744
0.84367	34693
0.84433	34643
0.84500	34593
0.84567	34543
0.84633	34493
0.84700	34443
0.84767	34394
0.84833	34344
0.84900	34295
0.84967	34246
0.85033	34198
0.85100	34149
0.85167	34101
0.85233	34053
0.85300	34005
0.85367	33957
0.85433	33910
0.85500	33863
0.85567	33816
0.85633	33770
0.85700	33724
0.85767	33678
0.85833	33632
0.85900	33586
0.85967	33541
0.86033	33496
0.86100	33451
0.86167	33406
0.86233	33362
0.86300	33318
0.86367	33274
0.86433	33230
0.86500	33186
0.86567	33143
0.86633	33099
0.86700	33056
0.86767	33013
0.86833	32971
0.86900	32928
0.86967	32886
0.87033	32843
0.87100	32801
0.87167	32759
0.87233	32717
0.87300	32676
0.87367	32634
0.87433	32593
0.87500	32552
0.87567	32510
0.87633	32469
0.87700	32429
0.87767	32388
0.87833	32347
0.87900	32307
0.87967	32266
0.88033	32226
0.88100	32186
0.88167	32146
0.88233	32106
0.88300	32066
0.88367	32026
0.88433	31986
0.88500	31947
0.88567	31907
0.88633	31868
0.88700	31828
0.88767	31789
0.88833	31750
0.88900	31711
0.88967	31672
0.89033	31633
0.89100	31594
0.89167	31555
0.89233	31516
0.89300	31478
0.89367	31439
0.89433	31400
0.89500	31362
0.89567	31323
0.89633	31285
0.89700	31246
0.89767	31208
0.89833	31169
0.89900	31131
0.89967	31093
0.90033	31055
0.90100	31016
0.90167	30978
0.90233	30940
0.90300	30902
0.90367	30865
0.90433	30827
0.90500	30789
0.90567	30751
0.90633	30714
0.90700	30676
0.90767	30638
0.90833	30601
0.90900	30563
0.90967	30526
0.91033	30489
0.91100	30451
0.91167	30414
0.91233	30377
0.91300	30340
0.91367	30303
0.91433	30267
0.91500	30230
0.91567	30193
0.91633	30156
0.91700	30120
0.91767	30083
0.91833	30047
0.91900	30010
0.91967	29974
0.92033	29938
0.92100	29902
0.92167	29865
0.92233	29829
0.92300	29794
0.92367	29758
0.92433	29722
0.92500	29687
0.92567	29651
0.92633	29616
0.92700	29580
0.92767	29545
0.92833	29510
0.92900	29475
0.92967	29440
0.93033	29405
0.93100	29370
0.93167	29335
0.93233	29300
0.93300	29265
0.93367	29231
0.93433	29196
0.93500	29162
0.93567	29127
0.93633	29093
0.93700	29059
0.93767	29025
0.93833	28991
0.93900	28957
0.93967	28924
0.94033	28890
0.94100	28857
0.94167	28824
0.94233	28790
0.94300	28757
0.94367	28725
0.94433	28692
0.94500	28659
0.94567	28627
0.94633	28594
0.94700	28562
0.94767	28530
0.94833	28498
0.94900	28466
0.94967	28434
0.95033	28403
0.95100	28371
0.95167	28340
0.95233	28309
0.95300	28278
0.95367	28247
0.95433	28216
0.95500	28185
0.95567	28155
0.95633	28124
0.95700	28093
0.95767	28063
0.95833	28033
0.95900	28002
0.95967	27972
0.96033	27942
0.96100	27912
0.96167	27882
0.96233	27852
0.96300	27822
0.96367	27792
0.96433	27762
0.96500	27733
0.96567	27703
0.96633	27673
0.96700	27644
0.96767	27614
0.96833	27585
0.96900	27555
0.96967	27526
0.97033	27497
0.97100	27467
0.97167	27438
0.97233	27408
0.97300	27379
0.97367	27350
0.97433	27320
0.97500	27291
0.97567	27261
0.97633	27232
0.97700	27203
0.97767	27174
0.97833	27144
0.97900	27115
0.97967	27086
0.98033	27057
0.98100	27028
0.98167	26999
0.98233	26970
0.98300	26942
0.98367	26913
0.98433	26884
0.98500	26856
0.98567	26827
0.98633	26798
0.98700	26770
0.98767	26741
0.98833	26713
0.98900	26684
0.98967	26656
0.99033	26627
0.99100	26599
0.99167	26570
0.99233	26542
0.99300	26514
0.99367	26486
0.99433	26458
0.99500	26430
0.99567	26402
0.99633	26374
0.99700	26346
0.99767	26318
0.99833	26290
0.99900	26262
0.99967	26235
1.00033	26207
1.00100	26179
1.00167	26152
1.00233	26124
1.00300	26097
1.00367	26069
1.00433	26042
1.00500	26015
1.00567	25988
1.00633	25960
1.00700	25933
1.00767	25906
1.00833	25879
1.00900	25852
1.00967	25825
1.01033	25798
1.01100	25772
1.01167	25745
1.01233	25718
1.01300	25692
1.01367	25665
1.01433	25639
1.01500	25612
1.01567	25586
1.01633	25560
1.01700	25534
1.01767	25508
1.01833	25481
1.01900	25455
1.01967	25430
1.02033	25404
1.02100	25378
1.02167	25352
1.02233	25327
1.02300	25301
1.02367	25276
1.02433	25251
1.02500	25226
1.02567	25200
1.02633	25175
1.02700	25150
1.02767	25126
1.02833	25101
1.02900	25076
1.02967	25052
1.03033	25027
1.03100	25003
1.03167	24978
1.03233	24954
1.03300	24930
1.03367	24906
1.03433	24882
1.03500	24858
1.03567	24834
1.03633	24811
1.03700	24787
1.03767	24764
1.03833	24740
1.03900	24717
1.03967	24694
1.04033	24670
1.04100	24647
1.04167	24624
1.04233	24601
1.04300	24578
1.04367	24555
1.04433	24532
1.04500	24509
1.04567	24486
1.04633	24463
1.04700	24440
1.04767	24417
1.04833	24395
1.04900	24372
1.04967	24349
1.05033	24327
1.05100	24304
1.05167	24282
1.05233	24259
1.05300	24237
1.05367	24215
1.05433	24192
1.05500	24170
1.05567	24148
1.05633	24126
1.05700	24104
1.05767	24082
1.05833	24060
1.05900	24038
1.05967	24016
1.06033	23994
1.06100	23972
1.06167	23950
1.06233	23928
1.06300	23907
1.06367	23885
1.06433	23864
1.06500	23842
1.06567	23821
1.06633	23800
1.06700	23778
1.06767	23757
1.06833	23736
1.06900	23715
1.06967	23694
1.07033	23673
1.07100	23652
1.07167	23631
1.07233	23610
1.07300	23590
1.07367	23569
1.07433	23548
1.07500	23528
1.07567	23507
1.07633	23487
1.07700	23466
1.07767	23446
1.07833	23426
1.07900	23406
1.07967	23385
1.08033	23365
1.08100	23345
1.08167	23325
1.08233	23305
1.08300	23285
1.08367	23264
1.08433	23244
1.08500	23224
1.08567	23205
1.08633	23185
1.08700	23165
1.08767	23145
1.08833	23125
1.08900	23105
1.08967	23085
1.09033	23066
1.09100	23046
1.09167	23026
1.09233	23007
1.09300	22987
1.09367	22968
1.09433	22948
1.09500	22929
1.09567	22909
1.09633	22890
1.09700	22870
1.09767	22851
1.09833	22832
1.09900	22812
1.09967	22793
1.10033	22774
1.10100	22754
1.10167	22735
1.10233	22715
1.10300	22696
1.10367	22677
1.10433	22657
1.10500	22638
1.10567	22619
1.10633	22599
1.10700	22580
1.10767	22561
1.10833	22542
1.10900	22523
1.10967	22503
1.11033	22484
1.11100	22465
1.11167	22446
1.11233	22427
1.11300	22408
1.11367	22389
1.11433	22370
1.11500	22351
1.11567	22333
1.11633	22314
1.11700	22295
1.11767	22276
1.11833	22258
1.11900	22239
1.11967	22221
1.12033	22202
1.12100	22184
1.12167	22166
1.12233	22147
1.12300	22129
1.12367	22111
1.12433	22093
1.12500	22075
1.12567	22057
1.12633	22039
1.12700	22020
1.12767	22002
1.12833	21984
1.12900	21967
1.12967	21949
1.13033	21931
1.13100	21913
1.13167	21896
1.13233	21878
1.13300	21861
1.13367	21843
1.13433	21826
1.13500	21808
1.13567	21791
1.13633	21774
1.13700	21756
1.13767	21739
1.13833	21722
1.13900	21705
1.13967	21688
1.14033	21671
1.14100	21654
1.14167	21637
1.14233	21620
1.14300	21603
1.14367	21586
1.14433	21569
1.14500	21552
1.14567	21535
1.14633	21518
1.14700	21501
1.14767	21485
1.14833	21468
1.14900	21451
1.14967	21434
1.15033	21418
1.15100	21401
1.15167	21384
1.15233	21367
1.15300	21351
1.15367	21334
1.15433	21317
1.15500	21301
1.15567	21284
1.15633	21268
1.15700	21251
1.15767	21235
1.15833	21219
1.15900	21202
1.15967	21186
1.16033	21170
1.16100	21154
1.16167	21137
1.16233	21121
1.16300	21105
1.16367	21089
1.16433	21073
1.16500	21057
1.16567	21041
1.16633	21026
1.16700	21010
1.16767	20994
1.16833	20979
1.16900	20963
1.16967	20947
1.17033	20932
1.17100	20916
1.17167	20901
1.17233	20885
1.17300	20870
1.17367	20855
1.17433	20839
1.17500	20824
1.17567	20809
1.17633	20794
1.17700	20779
1.17767	20764
1.17833	20749
1.17900	20734
1.17967	20719
1.18033	20704
1.18100	20689
1.18167	20674
1.18233	20660
1.18300	20645
1.18367	20630
1.18433	20616
1.18500	20601
1.18567	20587
1.18633	20572
1.18700	20558
1.18767	20543
1.18833	20529
1.18900	20515
1.18967	20501
1.19033	20486
1.19100	20472
1.19167	20458
1.19233	20444
1.19300	20430
1.19367	20416
1.19433	20402
1.19500	20388
1.19567	20375
1.19633	20361
1.19700	20347
1.19767	20334
1.19833	20320
1.19900	20306
1.19967	20293
1.20033	20280
1.20100	20266
1.20167	20253
1.20233	20240
1.20300	20227
1.20367	20214
1.20433	20201
1.20500	20188
1.20567	20176
1.20633	20163
1.20700	20150
1.20767	20138
1.20833	20125
1.20900	20113
1.20967	20100
1.21033	20088
1.21100	20076
1.21167	20063
1.21233	20051
1.21300	20039
1.21367	20026
1.21433	20014
1.21500	20002
1.21567	19990
1.21633	19978
1.21700	19965
1.21767	19953
1.21833	19941
1.21900	19929
1.21967	19917
1.22033	19905
1.22100	19892
1.22167	19880
1.22233	19868
1.22300	19856
1.22367	19844
1.22433	19832
1.22500	19820
1.22567	19808
1.22633	19796
1.22700	19784
1.22767	19772
1.22833	19760
1.22900	19748
1.22967	19736
1.23033	19724
1.23100	19712
1.23167	19700
1.23233	19689
1.23300	19677
1.23367	19665
1.23433	19653
1.23500	19641
1.23567	19629
1.23633	19618
1.23700	19606
1.23767	19594
1.23833	19582
1.23900	19571
1.23967	19559
1.24033	19547
1.24100	19536
1.24167	19524
1.24233	19513
1.24300	19501
1.24367	19490
1.24433	19479
1.24500	19467
1.24567	19456
1.24633	19445
1.24700	19434
1.24767	19423
1.24833	19412
1.24900	19402
1.24967	19391
1.25033	19380
1.25100	19370
1.25167	19359
1.25233	19349
1.25300	19339
1.25367	19329
1.25433	19318
1.25500	19308
1.25567	19298
1.25633	19288
1.25700	19278
1.25767	19268
1.25833	19259
1.25900	19249
1.25967	19239
1.26033	19230
1.26100	19220
1.26167	19211
1.26233	19201
1.26300	19192
1.26367	19182
1.26433	19173
1.26500	19164
1.26567	19154
1.26633	19145
1.26700	19136
1.26767	19126
1.26833	19117
1.26900	19108
1.26967	19099
1.27033	19089
1.27100	19080
1.27167	19071
1.27233	19062
1.27300	19053
1.27367	19043
1.27433	19034
1.27500	19025
1.27567	19016
1.27633	19007
1.27700	18998
1.27767	18989
1.27833	18979
1.27900	18970
1.27967	18961
1.28033	18952
1.28100	18943
1.28167	18933
1.28233	18924
1.28300	18915
1.28367	18906
1.28433	18896
1.28500	18887
1.28567	18878
1.28633	18868
1.28700	18859
1.28767	18850
1.28833	18840
1.28900	18831
1.28967	18821
1.29033	18812
1.29100	18802
1.29167	18793
1.29233	18783
1.29300	18774
1.29367	18764
1.29433	18754
1.29500	18744
1.29567	18735
1.29633	18725
1.29700	18715
1.29767	18705
1.29833	18695
1.29900	18685
1.29967	18675
1.30033	18665
1.30100	18655
1.30167	18645
1.30233	18635
1.30300	18625
1.30367	18615
1.30433	18605
1.30500	18595
1.30567	18584
1.30633	18574
1.30700	18564
1.30767	18554
1.30833	18544
1.30900	18533
1.30967	18523
1.31033	18513
1.31100	18503
1.31167	18492
1.31233	18482
1.31300	18472
1.31367	18462
1.31433	18451
1.31500	18441
1.31567	18430
1.31633	18420
1.31700	18410
1.31767	18399
1.31833	18389
1.31900	18378
1.31967	18368
1.32033	18357
1.32100	18346
1.32167	18336
1.32233	18325
1.32300	18315
1.32367	18304
1.32433	18293
1.32500	18283
1.32567	18272
1.32633	18261
1.32700	18250
1.32767	18240
1.32833	18229
1.32900	18218
1.32967	18207
1.33033	18196
1.33100	18186
1.33167	18175
1.33233	18164
1.33300	18153
1.33367	18142
1.33433	18131
1.33500	18120
1.33567	18110
1.33633	18099
1.33700	18088
1.33767	18077
1.33833	18066
1.33900	18055
1.33967	18044
1.34033	18033
1.34100	18022
1.34167	18011
1.34233	18000
1.34300	17989
1.34367	17979
1.34433	17968
1.34500	17957
1.34567	17946
1.34633	17935
1.34700	17924
1.34767	17913
1.34833	17903
1.34900	17892
1.34967	17881
1.35033	17870
1.35100	17859
1.35167	17848
1.35233	17837
1.35300	17826
1.35367	17816
1.35433	17805
1.35500	17794
1.35567	17783
1.35633	17773
1.35700	17762
1.35767	17751
1.35833	17741
1.35900	17730
1.35967	17719
1.36033	17709
1.36100	17698
1.36167	17687
1.36233	17677
1.36300	17666
1.36367	17656
1.36433	17645
1.36500	17635
1.36567	17624
1.36633	17614
1.36700	17604
1.36767	17593
1.36833	17583
1.36900	17573
1.36967	17563
1.37033	17552
1.37100	17542
1.37167	17532
1.37233	17521
1.37300	17511
1.37367	17501
1.37433	17491
1.37500	17480
1.37567	17470
1.37633	17460
1.37700	17450
1.37767	17440
1.37833	17430
1.37900	17419
1.37967	17409
1.38033	17399
1.38100	17389
1.38167	17379
1.38233	17369
1.38300	17359
1.38367	17349
1.38433	17339
1.38500	17329
1.38567	17319
1.38633	17309
1.38700	17299
1.38767	17289
1.38833	17279
1.38900	17270
1.38967	17260
1.39033	17250
1.39100	17240
1.39167	17230
1.39233	17221
1.39300	17211
1.39367	17201
1.39433	17191
1.39500	17182
1.39567	17172
1.39633	17162
1.39700	17153
1.39767	17143
1.39833	17133
1.39900	17124
1.39967	17114
1.40033	17105
1.40100	17095
1.40167	17086
1.40233	17076
1.40300	17067
1.40367	17057
1.40433	17048
1.40500	17038
1.40567	17029
1.40633	17020
1.40700	17011
1.40767	17001
1.40833	16992
1.40900	16983
1.40967	16974
1.41033	16964
1.41100	16955
1.41167	16946
1.41233	16937
1.41300	16928
1.41367	16918
1.41433	16909
1.41500	16900
1.41567	16891
1.41633	16882
1.41700	16873
1.41767	16864
1.41833	16855
1.41900	16846
1.41967	16837
1.42033	16828
1.42100	16819
1.42167	16810
1.42233	16802
1.42300	16793
1.42367	16784
1.42433	16775
1.42500	16767
1.42567	16758
1.42633	16750
1.42700	16741
1.42767	16733
1.42833	16724
1.42900	16716
1.42967	16707
1.43033	16699
1.43100	16691
1.43167	16683
1.43233	16675
1.43300	16667
1.43367	16659
1.43433	16651
1.43500	16643
1.43567	16635
1.43633	16627
1.43700	16620
1.43767	16612
1.43833	16605
1.43900	16597
1.43967	16590
1.44033	16582
1.44100	16575
1.44167	16568
1.44233	16560
1.44300	16553
1.44367	16546
1.44433	16539
1.44500	16532
1.44567	16525
1.44633	16517
1.44700	16510
1.44767	16503
1.44833	16496
1.44900	16489
1.44967	16482
1.45033	16474
1.45100	16467
1.45167	16459
1.45233	16452
1.45300	16444
1.45367	16437
1.45433	16429
1.45500	16421
1.45567	16414
1.45633	16406
1.45700	16398
1.45767	16390
1.45833	16382
1.45900	16374
1.45967	16366
1.46033	16358
1.46100	16350
1.46167	16342
1.46233	16333
1.46300	16325
1.46367	16317
1.46433	16308
1.46500	16300
1.46567	16291
1.46633	16283
1.46700	16275
1.46767	16266
1.46833	16258
1.46900	16249
1.46967	16241
1.47033	16232
1.47100	16223
1.47167	16215
1.47233	16206
1.47300	16198
1.47367	16189
1.47433	16181
1.47500	16172
1.47567	16164
1.47633	16155
1.47700	16147
1.47767	16139
1.47833	16130
1.47900	16122
1.47967	16114
1.48033	16105
1.48100	16097
1.48167	16089
1.48233	16081
1.48300	16072
1.48367	16064
1.48433	16056
1.48500	16048
1.48567	16039
1.48633	16031
1.48700	16023
1.48767	16015
1.48833	16007
1.48900	15999
1.48967	15991
1.49033	15983
1.49100	15975
1.49167	15967
1.49233	15959
1.49300	15951
1.49367	15943
1.49433	15935
1.49500	15928
1.49567	15920
1.49633	15912
1.49700	15904
1.49767	15896
1.49833	15889
1.49900	15881
1.49967	15873
1.50033	15865
1.50100	15858
1.50167	15850
1.50233	15842
1.50300	15835
1.50367	15827
1.50433	15819
1.50500	15811
1.50567	15804
1.50633	15796
1.50700	15788
1.50767	15781
1.50833	15773
1.50900	15765
1.50967	15757
1.51033	15750
1.51100	15742
1.51167	15734
1.51233	15727
1.51300	15719
1.51367	15711
1.51433	15703
1.51500	15696
1.51567	15688
1.51633	15681
1.51700	15673
1.51767	15665
1.51833	15658
1.51900	15650
1.51967	15643
1.52033	15635
1.52100	15627
1.52167	15620
1.52233	15612
1.52300	15605
1.52367	15598
1.52433	15590
1.52500	15583
1.52567	15575
1.52633	15568
1.52700	15561
1.52767	15553
1.52833	15546
1.52900	15539
1.52967	15532
1.53033	15524
1.53100	15517
1.53167	15510
1.53233	15503
1.53300	15496
1.53367	15488
1.53433	15481
1.53500	15474
1.53567	15467
1.53633	15460
1.53700	15452
1.53767	15445
1.53833	15438
1.53900	15431
1.53967	15423
1.54033	15416
1.54100	15409
1.54167	15402
1.54233	15395
1.54300	15388
1.54367	15381
1.54433	15373
1.54500	15366
1.54567	15359
1.54633	15352
1.54700	15345
1.54767	15339
1.54833	15332
1.54900	15325
1.54967	15318
1.55033	15311
1.55100	15304
1.55167	15297
1.55233	15291
1.55300	15284
1.55367	15277
1.55433	15270
1.55500	15263
1.55567	15256
1.55633	15250
1.55700	15243
1.55767	15236
1.55833	15229
1.55900	15223
1.55967	15216
1.56033	15209
1.56100	15203
1.56167	15196
1.56233	15189
1.56300	15183
1.56367	15176
1.56433	15170
1.56500	15163
1.56567	15157
1.56633	15150
1.56700	15144
1.56767	15137
1.56833	15131
1.56900	15124
1.56967	15118
1.57033	15112
1.57100	15106
1.57167	15099
1.57233	15093
1.57300	15087
1.57367	15081
1.57433	15074
1.57500	15068
1.57567	15062
1.57633	15055
1.57700	15049
1.57767	15043
1.57833	15037
1.57900	15030
1.57967	15024
1.58033	15018
1.58100	15011
1.58167	15005
1.58233	14999
1.58300	14992
1.58367	14986
1.58433	14980
1.58500	14974
1.58567	14967
1.58633	14961
1.58700	14955
1.58767	14949
1.58833	14942
1.58900	14936
1.58967	14930
1.59033	14924
1.59100	14918
1.59167	14911
1.59233	14905
1.59300	14899
1.59367	14893
1.59433	14887
1.59500	14881
1.59567	14874
1.59633	14868
1.59700	14862
1.59767	14856
1.59833	14850
1.59900	14844
1.59967	14838
1.60033	14832
1.60100	14825
1.60167	14819
1.60233	14813
1.60300	14807
1.60367	14801
1.60433	14795
1.60500	14789
1.60567	14782
1.60633	14776
1.60700	14770
1.60767	14764
1.60833	14758
1.60900	14752
1.60967	14746
1.61033	14740
1.61100	14734
1.61167	14728
1.61233	14722
1.61300	14716
1.61367	14710
1.61433	14704
1.61500	14698
1.61567	14692
1.61633	14687
1.61700	14681
1.61767	14675
1.61833	14669
1.61900	14663
1.61967	14658
1.62033	14652
1.62100	14646
1.62167	14640
1.62233	14634
1.62300	14629
1.62367	14623
1.62433	14617
1.62500	14611
1.62567	14606
1.62633	14600
1.62700	14594
1.62767	14589
1.62833	14583
1.62900	14578
1.62967	14572
1.63033	14566
1.63100	14561
1.63167	14555
1.63233	14550
1.63300	14544
1.63367	14538
1.63433	14533
1.63500	14527
1.63567	14522
1.63633	14517
1.63700	14511
1.63767	14506
1.63833	14501
1.63900	14496
1.63967	14490
1.64033	14485
1.64100	14480
1.64167	14475
1.64233	14470
1.64300	14465
1.64367	14461
1.64433	14456
1.64500	14451
1.64567	14447
1.64633	14442
1.64700	14438
1.64767	14434
1.64833	14429
1.64900	14425
1.64967	14421
1.65033	14417
1.65100	14414
1.65167	14410
1.65233	14406
1.65300	14403
1.65367	14399
1.65433	14396
1.65500	14393
1.65567	14390
1.65633	14387
1.65700	14384
1.65767	14381
1.65833	14378
1.65900	14375
1.65967	14373
1.66033	14370
1.66100	14367
1.66167	14365
1.66233	14362
1.66300	14359
1.66367	14357
1.66433	14354
1.66500	14352
1.66567	14350
1.66633	14347
1.66700	14345
1.66767	14342
1.66833	14340
1.66900	14337
1.66967	14334
1.67033	14332
1.67100	14329
1.67167	14327
1.67233	14324
1.67300	14321
1.67367	14318
1.67433	14315
1.67500	14312
1.67567	14309
1.67633	14306
1.67700	14303
1.67767	14299
1.67833	14296
1.67900	14292
1.67967	14289
1.68033	14285
1.68100	14282
1.68167	14278
1.68233	14274
1.68300	14270
1.68367	14265
1.68433	14261
1.68500	14257
1.68567	14253
1.68633	14248
1.68700	14244
1.68767	14239
1.68833	14234
1.68900	14229
1.68967	14224
1.69033	14219
1.69100	14214
1.69167	14209
1.69233	14204
1.69300	14198
1.69367	14193
1.69433	14187
1.69500	14182
1.69567	14176
1.69633	14170
1.69700	14164
1.69767	14158
1.69833	14152
1.69900	14146
1.69967	14140
1.70033	14134
1.70100	14127
1.70167	14121
1.70233	14115
1.70300	14108
1.70367	14102
1.70433	14095
1.70500	14089
1.70567	14082
1.70633	14076
1.70700	14070
1.70767	14063
1.70833	14056
1.70900	14050
1.70967	14043
1.71033	14037
1.71100	14030
1.71167	14024
1.71233	14017
1.71300	14011
1.71367	14004
1.71433	13998
1.71500	13991
1.71567	13985
1.71633	13978
1.71700	13972
1.71767	13965
1.71833	13959
1.71900	13953
1.71967	13946
1.72033	13940
1.72100	13934
1.72167	13927
1.72233	13921
1.72300	13914
1.72367	13908
1.72433	13902
1.72500	13895
1.72567	13889
1.72633	13882
1.72700	13876
1.72767	13869
1.72833	13863
1.72900	13857
1.72967	13850
1.73033	13844
1.73100	13837
1.73167	13831
1.73233	13825
1.73300	13819
1.73367	13812
1.73433	13806
1.73500	13800
1.73567	13794
1.73633	13788
1.73700	13782
1.73767	13776
1.73833	13770
1.73900	13765
1.73967	13759
1.74033	13754
1.74100	13749
1.74167	13744
1.74233	13739
1.74300	13734
1.74367	13730
1.74433	13726
1.74500	13722
1.74567	13718
1.74633	13715
1.74700	13712
1.74767	13710
1.74833	13707
1.74900	13705
1.74967	13704
1.75033	13703
1.75100	13702
1.75167	13701
1.75233	13701
1.75300	13702
1.75367	13702
1.75433	13704
1.75500	13705
1.75567	13707
1.75633	13709
1.75700	13711
1.75767	13714
1.75833	13717
1.75900	13720
1.75967	13723
1.76033	13726
1.76100	13729
1.76167	13733
1.76233	13736
1.76300	13739
1.76367	13742
1.76433	13744
1.76500	13747
1.76567	13749
1.76633	13751
1.76700	13752
1.76767	13753
1.76833	13753
1.76900	13753
1.76967	13753
1.77033	13752
1.77100	13751
1.77167	13749
1.77233	13746
1.77300	13743
1.77367	13739
1.77433	13735
1.77500	13730
1.77567	13724
1.77633	13718
1.77700	13712
1.77767	13705
1.77833	13697
1.77900	13689
1.77967	13680
1.78033	13671
1.78100	13661
1.78167	13651
1.78233	13640
1.78300	13629
1.78367	13618
1.78433	13607
1.78500	13595
1.78567	13583
1.78633	13570
1.78700	13558
1.78767	13545
1.78833	13532
1.78900	13519
1.78967	13506
1.79033	13492
1.79100	13479
1.79167	13465
1.79233	13451
1.79300	13438
1.79367	13424
1.79433	13410
1.79500	13396
1.79567	13382
1.79633	13368
1.79700	13354
1.79767	13340
1.79833	13326
1.79900	13313
1.79967	13299
1.80033	13285
1.80100	13271
1.80167	13257
1.80233	13243
1.80300	13230
1.80367	13216
1.80433	13203
1.80500	13190
1.80567	13176
1.80633	13163
1.80700	13150
1.80767	13137
1.80833	13124
1.80900	13111
1.80967	13098
1.81033	13085
1.81100	13073
1.81167	13060
1.81233	13047
1.81300	13035
1.81367	13023
1.81433	13010
1.81500	12998
1.81567	12987
1.81633	12975
1.81700	12963
1.81767	12952
1.81833	12940
1.81900	12929
1.81967	12918
1.82033	12907
1.82100	12896
1.82167	12885
1.82233	12874
1.82300	12864
1.82367	12853
1.82433	12843
1.82500	12833
1.82567	12822
1.82633	12812
1.82700	12802
1.82767	12792
1.82833	12782
1.82900	12772
1.82967	12763
1.83033	12753
1.83100	12743
1.83167	12734
1.83233	12724
1.83300	12715
1.83367	12705
1.83433	12696
1.83500	12686
1.83567	12677
1.83633	12668
1.83700	12659
1.83767	12650
1.83833	12641
1.83900	12632
1.83967	12623
1.84033	12614
1.84100	12605
1.84167	12596
1.84233	12587
1.84300	12578
1.84367	12569
1.84433	12560
1.84500	12552
1.84567	12543
1.84633	12534
1.84700	12526
1.84767	12517
1.84833	12509
1.84900	12501
1.84967	12492
1.85033	12484
1.85100	12476
1.85167	12467
1.85233	12459
1.85300	12451
1.85367	12443
1.85433	12435
1.85500	12427
1.85567	12419
1.85633	12411
1.85700	12403
1.85767	12396
1.85833	12388
1.85900	12380
1.85967	12373
1.86033	12365
1.86100	12358
1.86167	12350
1.86233	12343
1.86300	12335
1.86367	12328
1.86433	12321
1.86500	12313
1.86567	12306
1.86633	12299
1.86700	12292
1.86767	12285
1.86833	12277
1.86900	12270
1.86967	12263
1.87033	12256
1.87100	12249
1.87167	12242
1.87233	12235
1.87300	12228
1.87367	12221
1.87433	12214
1.87500	12207
1.87567	12200
1.87633	12193
1.87700	12187
1.87767	12180
1.87833	12173
1.87900	12166
1.87967	12160
1.88033	12153
1.88100	12146
1.88167	12140
1.88233	12133
1.88300	12126
1.88367	12120
1.88433	12113
1.88500	12106
1.88567	12100
1.88633	12093
1.88700	12086
1.88767	12080
1.88833	12073
1.88900	12066
1.88967	12060
1.89033	12053
1.89100	12046
1.89167	12040
1.89233	12033
1.89300	12027
1.89367	12020
1.89433	12013
1.89500	12007
1.89567	12000
1.89633	11994
1.89700	11987
1.89767	11981
1.89833	11974
1.89900	11967
1.89967	11961
1.90033	11954
1.90100	11948
1.90167	11941
1.90233	11934
1.90300	11928
1.90367	11922
1.90433	11915
1.90500	11909
1.90567	11903
1.90633	11896
1.90700	11890
1.90767	11884
1.90833	11878
1.90900	11872
1.90967	11866
1.91033	11860
1.91100	11854
1.91167	11848
1.91233	11842
1.91300	11837
1.91367	11831
1.91433	11825
1.91500	11820
1.91567	11814
1.91633	11809
1.91700	11803
1.91767	11798
1.91833	11793
1.91900	11787
1.91967	11782
1.92033	11777
1.92100	11772
1.92167	11767
1.92233	11762
1.92300	11757
1.92367	11752
1.92433	11747
1.92500	11742
1.92567	11737
1.92633	11733
1.92700	11728
1.92767	11723
1.92833	11718
1.92900	11713
1.92967	11709
1.93033	11704
1.93100	11699
1.93167	11694
1.93233	11690
1.93300	11685
1.93367	11680
1.93433	11675
1.93500	11671
1.93567	11666
1.93633	11661
1.93700	11657
1.93767	11652
1.93833	11647
1.93900	11642
1.93967	11637
1.94033	11633
1.94100	11628
1.94167	11623
1.94233	11618
1.94300	11613
1.94367	11608
1.94433	11603
1.94500	11598
1.94567	11593
1.94633	11588
1.94700	11583
1.94767	11578
1.94833	11573
1.94900	11568
1.94967	11563
1.95033	11558
1.95100	11553
1.95167	11548
1.95233	11543
1.95300	11538
1.95367	11533
1.95433	11528
1.95500	11523
1.95567	11518
1.95633	11513
1.95700	11508
1.95767	11503
1.95833	11498
1.95900	11493
1.95967	11488
1.96033	11483
1.96100	11478
1.96167	11473
1.96233	11468
1.96300	11463
1.96367	11458
1.96433	11453
1.96500	11448
1.96567	11444
1.96633	11439
1.96700	11434
1.96767	11429
1.96833	11424
1.96900	11419
1.96967	11414
1.97033	11410
1.97100	11405
1.97167	11400
1.97233	11395
1.97300	11390
1.97367	11385
1.97433	11380
1.97500	11376
1.97567	11371
1.97633	11366
1.97700	11361
1.97767	11356
1.97833	11352
1.97900	11347
1.97967	11342
1.98033	11337
1.98100	11333
1.98167	11328
1.98233	11323
1.98300	11319
1.98367	11314
1.98433	11309
1.98500	11305
1.98567	11300
1.98633	11296
1.98700	11291
1.98767	11287
1.98833	11282
1.98900	11278
1.98967	11273
1.99033	11269
1.99100	11264
1.99167	11260
1.99233	11256
1.99300	11251
1.99367	11247
1.99433	11242
1.99500	11238
1.99567	11234
1.99633	11229
1.99700	11225
1.99767	11221
1.99833	11216
1.99900	11212
1.99967	11208
2.00033	11203
2.00100	11199
2.00167	11195
2.00233	11190
2.00300	11186
2.00367	11182
2.00433	11177
2.00500	11173
2.00567	11169
2.00633	11164
2.00700	11160
2.00767	11156
2.00833	11151
2.00900	11147
2.00967	11143
2.01033	11138
2.01100	11134
2.01167	11130
2.01233	11126
2.01300	11121
2.01367	11117
2.01433	11113
2.01500	11109
2.01567	11104
2.01633	11100
2.01700	11096
2.01767	11092
2.01833	11087
2.01900	11083
2.01967	11079
2.02033	11075
2.02100	11071
2.02167	11066
2.02233	11062
2.02300	11058
2.02367	11054
2.02433	11050
2.02500	11046
2.02567	11041
2.02633	11037
2.02700	11033
2.02767	11029
2.02833	11025
2.02900	11020
2.02967	11016
2.03033	11012
2.03100	11008
2.03167	11004
2.03233	11000
2.03300	10996
2.03367	10991
2.03433	10987
2.03500	10983
2.03567	10979
2.03633	10975
2.03700	10971
2.03767	10966
2.03833	10962
2.03900	10958
2.03967	10954
2.04033	10950
2.04100	10946
2.04167	10941
2.04233	10937
2.04300	10933
2.04367	10929
2.04433	10925
2.04500	10920
2.04567	10916
2.04633	10912
2.04700	10908
2.04767	10904
2.04833	10900
2.04900	10896
2.04967	10892
2.05033	10887
2.05100	10883
2.05167	10879
2.05233	10875
2.05300	10871
2.05367	10866
2.05433	10862
2.05500	10858
2.05567	10854
2.05633	10850
2.05700	10845
2.05767	10841
2.05833	10837
2.05900	10833
2.05967	10829
2.06033	10824
2.06100	10820
2.06167	10816
2.06233	10812
2.06300	10808
2.06367	10803
2.06433	10799
2.06500	10795
2.06567	10790
2.06633	10786
2.06700	10782
2.06767	10778
2.06833	10773
2.06900	10769
2.06967	10765
2.07033	10760
2.07100	10756
2.07167	10752
2.07233	10747
2.07300	10743
2.07367	10739
2.07433	10735
2.07500	10730
2.07567	10726
2.07633	10722
2.07700	10717
2.07767	10713
2.07833	10709
2.07900	10705
2.07967	10700
2.08033	10696
2.08100	10692
2.08167	10688
2.08233	10684
2.08300	10679
2.08367	10675
2.08433	10671
2.08500	10667
2.08567	10663
2.08633	10659
2.08700	10655
2.08767	10651
2.08833	10646
2.08900	10642
2.08967	10638
2.09033	10634
2.09100	10630
2.09167	10626
2.09233	10622
2.09300	10618
2.09367	10614
2.09433	10610
2.09500	10606
2.09567	10602
2.09633	10598
2.09700	10594
2.09767	10590
2.09833	10586
2.09900	10582
2.09967	10578
2.10033	10574
2.10100	10570
2.10167	10566
2.10233	10562
2.10300	10559
2.10367	10555
2.10433	10551
2.10500	10547
2.10567	10543
2.10633	10539
2.10700	10535
2.10767	10531
2.10833	10527
2.10900	10524
2.10967	10520
2.11033	10516
2.11100	10512
2.11167	10508
2.11233	10504
2.11300	10501
2.11367	10497
2.11433	10493
2.11500	10490
2.11567	10486
2.11633	10482
2.11700	10479
2.11767	10475
2.11833	10471
2.11900	10468
2.11967	10464
2.12033	10461
2.12100	10457
2.12167	10454
2.12233	10450
2.12300	10447
2.12367	10443
2.12433	10440
2.12500	10436
2.12567	10433
2.12633	10429
2.12700	10425
2.12767	10422
2.12833	10418
2.12900	10415
2.12967	10411
2.13033	10408
2.13100	10404
2.13167	10401
2.13233	10397
2.13300	10394
2.13367	10391
2.13433	10387
2.13500	10384
2.13567	10380
2.13633	10377
2.13700	10373
2.13767	10370
2.13833	10367
2.13900	10363
2.13967	10360
2.14033	10356
2.14100	10353
2.14167	10349
2.14233	10346
2.14300	10342
2.14367	10339
2.14433	10335
2.14500	10332
2.14567	10329
2.14633	10325
2.14700	10322
2.14767	10318
2.14833	10315
2.14900	10311
2.14967	10308
2.15033	10304
2.15100	10301
2.15167	10297
2.15233	10294
2.15300	10290
2.15367	10287
2.15433	10283
2.15500	10280
2.15567	10276
2.15633	10272
2.15700	10269
2.15767	10266
2.15833	10262
2.15900	10259
2.15967	10255
2.16033	10252
2.16100	10248
2.16167	10245
2.16233	10242
2.16300	10238
2.16367	10235
2.16433	10232
2.16500	10228
2.16567	10225
2.16633	10221
2.16700	10218
2.16767	10215
2.16833	10211
2.16900	10208
2.16967	10205
2.17033	10201
2.17100	10198
2.17167	10194
2.17233	10191
2.17300	10187
2.17367	10184
2.17433	10180
2.17500	10177
2.17567	10174
2.17633	10170
2.17700	10167
2.17767	10163
2.17833	10160
2.17900	10157
2.17967	10153
2.18033	10150
2.18100	10147
2.18167	10143
2.18233	10140
2.18300	10137
2.18367	10134
2.18433	10130
2.18500	10127
2.18567	10124
2.18633	10121
2.18700	10117
2.18767	10114
2.18833	10111
2.18900	10108
2.18967	10105
2.19033	10102
2.19100	10098
2.19167	10095
2.19233	10092
2.19300	10089
2.19367	10086
2.19433	10083
2.19500	10080
2.19567	10077
2.19633	10074
2.19700	10071
2.19767	10068
2.19833	10065
2.19900	10062
2.19967	10059
2.20033	10056
2.20100	10053
2.20167	10050
2.20233	10047
2.20300	10044
2.20367	10041
2.20433	10038
2.20500	10035
2.20567	10031
2.20633	10028
2.20700	10025
2.20767	10022
2.20833	10019
2.20900	10016
2.20967	10013
2.21033	10010
2.21100	10007
2.21167	10004
2.21233	10001
2.21300	9998
2.21367	9994
2.21433	9991
2.21500	9988
2.21567	9985
2.21633	9982
2.21700	9979
2.21767	9976
2.21833	9973
2.21900	9970
2.21967	9966
2.22033	9963
2.22100	9960
2.22167	9957
2.22233	9954
2.22300	9951
2.22367	9948
2.22433	9945
2.22500	9942
2.22567	9939
2.22633	9936
2.22700	9933
2.22767	9930
2.22833	9927
2.22900	9924
2.22967	9921
2.23033	9918
2.23100	9915
2.23167	9913
2.23233	9910
2.23300	9907
2.23367	9904
2.23433	9901
2.23500	9898
2.23567	9895
2.23633	9892
2.23700	9889
2.23767	9886
2.23833	9883
2.23900	9880
2.23967	9877
2.24033	9874
2.24100	9871
2.24167	9868
2.24233	9865
2.24300	9863
2.24367	9860
2.24433	9857
2.24500	9854
2.24567	9851
2.24633	9848
2.24700	9845
2.24767	9842
2.24833	9840
2.24900	9837
2.24967	9834
2.25033	9831
2.25100	9828
2.25167	9826
2.25233	9823
2.25300	9820
2.25367	9818
2.25433	9815
2.25500	9812
2.25567	9810
2.25633	9807
2.25700	9804
2.25767	9802
2.25833	9799
2.25900	9796
2.25967	9794
2.26033	9791
2.26100	9789
2.26167	9786
2.26233	9783
2.26300	9781
2.26367	9778
2.26433	9776
2.26500	9773
2.26567	9771
2.26633	9768
2.26700	9766
2.26767	9763
2.26833	9761
2.26900	9759
2.26967	9756
2.27033	9754
2.27100	9752
2.27167	9749
2.27233	9747
2.27300	9745
2.27367	9742
2.27433	9740
2.27500	9738
2.27567	9736
2.27633	9733
2.27700	9731
2.27767	9729
2.27833	9727
2.27900	9725
2.27967	9722
2.28033	9720
2.28100	9718
2.28167	9716
2.28233	9714
2.28300	9712
2.28367	9710
2.28433	9708
2.28500	9706
2.28567	9704
2.28633	9703
2.28700	9701
2.28767	9699
2.28833	9697
2.28900	9695
2.28967	9694
2.29033	9692
2.29100	9690
2.29167	9689
2.29233	9687
2.29300	9686
2.29367	9684
2.29433	9683
2.29500	9681
2.29567	9680
2.29633	9678
2.29700	9677
2.29767	9676
2.29833	9675
2.29900	9673
2.29967	9672
2.30033	9671
2.30100	9670
2.30167	9669
2.30233	9669
2.30300	9668
2.30367	9667
2.30433	9666
2.30500	9665
2.30567	9665
2.30633	9664
2.30700	9664
2.30767	9663
2.30833	9663
2.30900	9662
2.30967	9662
2.31033	9662
2.31100	9661
2.31167	9661
2.31233	9661
2.31300	9661
2.31367	9661
2.31433	9661
2.31500	9661
2.31567	9661
2.31633	9662
2.31700	9662
2.31767	9663
2.31833	9663
2.31900	9664
2.31967	9664
2.32033	9665
2.32100	9666
2.32167	9666
2.32233	9667
2.32300	9668
2.32367	9669
2.32433	9670
2.32500	9671
2.32567	9672
2.32633	9674
2.32700	9675
2.32767	9676
2.32833	9677
2.32900	9679
2.32967	9680
2.33033	9682
2.33100	9683
2.33167	9685
2.33233	9686
2.33300	9688
2.33367	9689
2.33433	9691
2.33500	9692
2.33567	9694
2.33633	9696
2.33700	9697
2.33767	9699
2.33833	9700
2.33900	9702
2.33967	9704
2.34033	9705
2.34100	9707
2.34167	9708
2.34233	9709
2.34300	9711
2.34367	9712
2.34433	9714
2.34500	9715
2.34567	9716
2.34633	9717
2.34700	9719
2.34767	9720
2.34833	9721
2.34900	9722
2.34967	9723
2.35033	9724
2.35100	9725
2.35167	9726
2.35233	9727
2.35300	9728
2.35367	9729
2.35433	9730
2.35500	9730
2.35567	9731
2.35633	9732
2.35700	9733
2.35767	9733
2.35833	9734
2.35900	9734
2.35967	9735
2.36033	9735
2.36100	9736
2.36167	9736
2.36233	9736
2.36300	9737
2.36367	9737
2.36433	9737
2.36500	9738
2.36567	9738
2.36633	9738
2.36700	9738
2.36767	9738
2.36833	9738
2.36900	9737
2.36967	9737
2.37033	9737
2.37100	9736
2.37167	9736
2.37233	9735
2.37300	9735
2.37367	9734
2.37433	9733
2.37500	9732
2.37567	9731
2.37633	9730
2.37700	9729
2.37767	9728
2.37833	9727
2.37900	9725
2.37967	9724
2.38033	9723
2.38100	9721
2.38167	9720
2.38233	9718
2.38300	9717
2.38367	9715
2.38433	9713
2.38500	9712
2.38567	9710
2.38633	9708
2.38700	9706
2.38767	9705
2.38833	9703
2.38900	9701
2.38967	9699
2.39033	9697
2.39100	9695
2.39167	9693
2.39233	9691
2.39300	9689
2.39367	9687
2.39433	9685
2.39500	9683
2.39567	9681
2.39633	9680
2.39700	9678
2.39767	9676
2.39833	9674
2.39900	9672
2.39967	9671
2.40033	9669
2.40100	9667
2.40167	9665
2.40233	9664
2.40300	9662
2.40367	9661
2.40433	9659
2.40500	9658
2.40567	9657
2.40633	9655
2.40700	9654
2.40767	9653
2.40833	9652
2.40900	9651
2.40967	9651
2.41033	9650
2.41100	9649
2.41167	9649
2.41233	9648
2.41300	9648
2.41367	9648
2.41433	9648
2.41500	9648
2.41567	9648
2.41633	9648
2.41700	9648
2.41767	9648
2.41833	9648
2.41900	9649
2.41967	9649
2.42033	9650
2.42100	9650
2.42167	9651
2.42233	9651
2.42300	9652
2.42367	9652
2.42433	9653
2.42500	9653
2.42567	9654
2.42633	9654
2.42700	9655
2.42767	9655
2.42833	9655
2.42900	9655
2.42967	9655
2.43033	9655
2.43100	9655
2.43167	9655
2.43233	9654
2.43300	9654
2.43367	9653
2.43433	9652
2.43500	9651
2.43567	9650
2.43633	9649
2.43700	9647
2.43767	9646
2.43833	9644
2.43900	9642
2.43967	9640
2.44033	9637
2.44100	9635
2.44167	9632
2.44233	9629
2.44300	9626
2.44367	9622
2.44433	9619
2.44500	9615
2.44567	9611
2.44633	9607
2.44700	9603
2.44767	9598
2.44833	9594
2.44900	9589
2.44967	9584
2.45033	9579
2.45100	9573
2.45167	9568
2.45233	9562
2.45300	9557
2.45367	9551
2.45433	9545
2.45500	9539
2.45567	9533
2.45633	9526
2.45700	9520
2.45767	9513
2.45833	9507
2.45900	9500
2.45967	9493
2.46033	9486
2.46100	9479
2.46167	9472
2.46233	9465
2.46300	9458
2.46367	9451
2.46433	9444
2.46500	9437
2.46567	9429
2.46633	9422
2.46700	9415
2.46767	9408
2.46833	9400
2.46900	9393
2.46967	9386
2.47033	9378
2.47100	9371
2.47167	9364
2.47233	9357
2.47300	9350
2.47367	9342
2.47433	9335
2.47500	9328
2.47567	9321
2.47633	9314
2.47700	9307
2.47767	9300
2.47833	9293
2.47900	9286
2.47967	9279
2.48033	9272
2.48100	9265
2.48167	9258
2.48233	9251
2.48300	9245
2.48367	9238
2.48433	9231
2.48500	9225
2.48567	9218
2.48633	9211
2.48700	9205
2.48767	9198
2.48833	9192
2.48900	9186
2.48967	9179
2.49033	9173
2.49100	9167
2.49167	9161
2.49233	9155
2.49300	9149
2.49367	9143
2.49433	9137
2.49500	9131
2.49567	9125
2.49633	9120
2.49700	9114
2.49767	9108
2.49833	9103
2.49900	9097
2.49967	9092
2.50033	9086
2.50100	9081
2.50167	9076
2.50233	9070
2.50300	9065
2.50367	9060
2.50433	9055
2.50500	9050
2.50567	9045
2.50633	9040
2.50700	9035
2.50767	9030
2.50833	9025
2.50900	9020
2.50967	9015
2.51033	9010
2.51100	9006
2.51167	9001
2.51233	8996
2.51300	8992
2.51367	8987
2.51433	8982
2.51500	8978
2.51567	8973
2.51633	8969
2.51700	8964
2.51767	8960
2.51833	8955
2.51900	8951
2.51967	8947
2.52033	8942
2.52100	8938
2.52167	8933
2.52233	8929
2.52300	8925
2.52367	8920
2.52433	8916
2.52500	8912
2.52567	8907
2.52633	8903
2.52700	8899
2.52767	8895
2.52833	8891
2.52900	8886
2.52967	8882
2.53033	8878
2.53100	8874
2.53167	8870
2.53233	8866
2.53300	8862
2.53367	8858
2.53433	8854
2.53500	8850
2.53567	8846
2.53633	8842
2.53700	8838
2.53767	8834
2.53833	8831
2.53900	8827
2.53967	8823
2.54033	8819
2.54100	8815
2.54167	8811
2.54233	8808
2.54300	8804
2.54367	8800
2.54433	8796
2.54500	8793
2.54567	8789
2.54633	8785
2.54700	8782
2.54767	8778
2.54833	8775
2.54900	8771
2.54967	8768
2.55033	8764
2.55100	8761
2.55167	8757
2.55233	8754
2.55300	8750
2.55367	8747
2.55433	8744
2.55500	8740
2.55567	8737
2.55633	8734
2.55700	8730
2.55767	8727
2.55833	8724
2.55900	8720
2.55967	8717
2.56033	8714
2.56100	8711
2.56167	8707
2.56233	8704
2.56300	8701
2.56367	8698
2.56433	8694
2.56500	8691
2.56567	8688
2.56633	8685
2.56700	8682
2.56767	8679
2.56833	8675
2.56900	8672
2.56967	8669
2.57033	8666
2.57100	8663
2.57167	8660
2.57233	8657
2.57300	8654
2.57367	8651
2.57433	8648
2.57500	8645
2.57567	8642
2.57633	8639
2.57700	8636
2.57767	8634
2.57833	8631
2.57900	8628
2.57967	8625
2.58033	8622
2.58100	8619
2.58167	8616
2.58233	8613
2.58300	8610
2.58367	8607
2.58433	8604
2.58500	8601
2.58567	8598
2.58633	8596
2.58700	8593
2.58767	8590
2.58833	8587
2.58900	8584
2.58967	8581
2.59033	8578
2.59100	8576
2.59167	8573
2.59233	8570
2.59300	8567
2.59367	8564
2.59433	8562
2.59500	8559
2.59567	8556
2.59633	8553
2.59700	8551
2.59767	8548
2.59833	8545
2.59900	8542
2.59967	8540
2.60033	8537
2.60100	8534
2.60167	8532
2.60233	8529
2.60300	8526
2.60367	8524
2.60433	8521
2.60500	8519
2.60567	8516
2.60633	8513
2.60700	8511
2.60767	8508
2.60833	8506
2.60900	8503
2.60967	8501
2.61033	8498
2.61100	8496
2.61167	8493
2.61233	8491
2.61300	8488
2.61367	8486
2.61433	8483
2.61500	8481
2.61567	8479
2.61633	8476
2.61700	8474
2.61767	8471
2.61833	8469
2.61900	8467
2.61967	8464
2.62033	8462
2.62100	8460
2.62167	8457
2.62233	8455
2.62300	8452
2.62367	8450
2.62433	8448
2.62500	8445
2.62567	8443
2.62633	8441
2.62700	8438
2.62767	8436
2.62833	8434
2.62900	8431
2.62967	8429
2.63033	8427
2.63100	8425
2.63167	8422
2.63233	8420
2.63300	8418
2.63367	8415
2.63433	8413
2.63500	8411
2.63567	8409
2.63633	8406
2.63700	8404
2.63767	8402
2.63833	8400
2.63900	8397
2.63967	8395
2.64033	8393
2.64100	8391
2.64167	8388
2.64233	8386
2.64300	8384
2.64367	8382
2.64433	8380
2.64500	8378
2.64567	8376
2.64633	8374
2.64700	8372
2.64767	8370
2.64833	8368
2.64900	8366
2.64967	8364
2.65033	8362
2.65100	8360
2.65167	8358
2.65233	8356
2.65300	8355
2.65367	8353
2.65433	8351
2.65500	8349
2.65567	8347
2.65633	8345
2.65700	8343
2.65767	8341
2.65833	8339
2.65900	8338
2.65967	8336
2.66033	8334
2.66100	8332
2.66167	8330
2.66233	8328
2.66300	8326
2.66367	8324
2.66433	8322
2.66500	8320
2.66567	8318
2.66633	8316
2.66700	8314
2.66767	8311
2.66833	8309
2.66900	8307
2.66967	8305
2.67033	8303
2.67100	8301
2.67167	8299
2.67233	8297
2.67300	8294
2.67367	8292
2.67433	8290
2.67500	8288
2.67567	8286
2.67633	8284
2.67700	8281
2.67767	8279
2.67833	8277
2.67900	8275
2.67967	8273
2.68033	8271
2.68100	8269
2.68167	8267
2.68233	8265
2.68300	8262
2.68367	8260
2.68433	8258
2.68500	8256
2.68567	8254
2.68633	8252
2.68700	8250
2.68767	8248
2.68833	8246
2.68900	8244
2.68967	8242
2.69033	8240
2.69100	8238
2.69167	8237
2.69233	8235
2.69300	8233
2.69367	8231
2.69433	8229
2.69500	8227
2.69567	8225
2.69633	8223
2.69700	8221
2.69767	8219
2.69833	8218
2.69900	8216
2.69967	8214
2.70033	8212
2.70100	8210
2.70167	8208
2.70233	8206
2.70300	8205
2.70367	8203
2.70433	8201
2.70500	8199
2.70567	8197
2.70633	8196
2.70700	8194
2.70767	8192
2.70833	8190
2.70900	8188
2.70967	8187
2.71033	8185
2.71100	8183
2.71167	8181
2.71233	8180
2.71300	8178
2.71367	8176
2.71433	8174
2.71500	8173
2.71567	8171
2.71633	8169
2.71700	8168
2.71767	8166
2.71833	8164
2.71900	8163
2.71967	8161
2.72033	8159
2.72100	8158
2.72167	8156
2.72233	8154
2.72300	8153
2.72367	8151
2.72433	8150
2.72500	8148
2.72567	8146
2.72633	8145
2.72700	8143
2.72767	8142
2.72833	8140
2.72900	8139
2.72967	8137
2.73033	8136
2.73100	8134
2.73167	8133
2.73233	8131
2.73300	8130
2.73367	8128
2.73433	8127
2.73500	8125
2.73567	8124
2.73633	8123
2.73700	8121
2.73767	8120
2.73833	8118
2.73900	8117
2.73967	8116
2.74033	8114
2.74100	8113
2.74167	8111
2.74233	8110
2.74300	8109
2.74367	8107
2.74433	8106
2.74500	8105
2.74567	8104
2.74633	8102
2.74700	8101
2.74767	8100
2.74833	8099
2.74900	8098
2.74967	8097
2.75033	8096
2.75100	8095
2.75167	8094
2.75233	8093
2.75300	8092
2.75367	8091
2.75433	8090
2.75500	8089
2.75567	8088
2.75633	8087
2.75700	8086
2.75767	8085
2.75833	8085
2.75900	8084
2.75967	8083
2.76033	8082
2.76100	8082
2.76167	8081
2.76233	8080
2.76300	8080
2.76367	8079
2.76433	8079
2.76500	8078
2.76567	8078
2.76633	8078
2.76700	8077
2.76767	8077
2.76833	8077
2.76900	8077
2.76967	8077
2.77033	8077
2.77100	8077
2.77167	8078
2.77233	8078
2.77300	8079
2.77367	8079
2.77433	8080
2.77500	8080
2.77567	8081
2.77633	8082
2.77700	8083
2.77767	8085
2.77833	8086
2.77900	8087
2.77967	8089
2.78033	8091
2.78100	8093
2.78167	8095
2.78233	8097
2.78300	8100
2.78367	8102
2.78433	8105
2.78500	8108
2.78567	8111
2.78633	8114
2.78700	8118
2.78767	8122
2.78833	8126
2.78900	8130
2.78967	8134
2.79033	8139
2.79100	8144
2.79167	8149
2.79233	8154
2.79300	8160
2.79367	8165
2.79433	8171
2.79500	8178
2.79567	8184
2.79633	8191
2.79700	8198
2.79767	8205
2.79833	8212
2.79900	8220
2.79967	8228
2.80033	8236
2.80100	8244
2.80167	8252
2.80233	8261
2.80300	8270
2.80367	8279
2.80433	8288
2.80500	8297
2.80567	8307
2.80633	8316
2.80700	8326
2.80767	8336
2.80833	8345
2.80900	8355
2.80967	8365
2.81033	8375
2.81100	8386
2.81167	8396
2.81233	8406
2.81300	8416
2.81367	8426
2.81433	8436
2.81500	8445
2.81567	8455
2.81633	8465
2.81700	8474
2.81767	8483
2.81833	8492
2.81900	8501
2.81967	8510
2.82033	8518
2.82100	8526
2.82167	8534
2.82233	8541
2.82300	8549
2.82367	8555
2.82433	8562
2.82500	8568
2.82567	8574
2.82633	8580
2.82700	8585
2.82767	8589
2.82833	8594
2.82900	8598
2.82967	8601
2.83033	8604
2.83100	8607
2.83167	8609
2.83233	8611
2.83300	8612
2.83367	8613
2.83433	8614
2.83500	8614
2.83567	8614
2.83633	8613
2.83700	8612
2.83767	8611
2.83833	8609
2.83900	8607
2.83967	8605
2.84033	8602
2.84100	8599
2.84167	8595
2.84233	8591
2.84300	8587
2.84367	8582
2.84433	8578
2.84500	8572
2.84567	8567
2.84633	8561
2.84700	8555
2.84767	8549
2.84833	8543
2.84900	8536
2.84967	8529
2.85033	8522
2.85100	8515
2.85167	8508
2.85233	8501
2.85300	8493
2.85367	8485
2.85433	8477
2.85500	8469
2.85567	8461
2.85633	8453
2.85700	8445
2.85767	8436
2.85833	8428
2.85900	8419
2.85967	8410
2.86033	8402
2.86100	8393
2.86167	8384
2.86233	8375
2.86300	8367
2.86367	8358
2.86433	8349
2.86500	8340
2.86567	8331
2.86633	8322
2.86700	8314
2.86767	8305
2.86833	8296
2.86900	8287
2.86967	8279
2.87033	8270
2.87100	8261
2.87167	8253
2.87233	8244
2.87300	8235
2.87367	8227
2.87433	8218
2.87500	8210
2.87567	8202
2.87633	8193
2.87700	8185
2.87767	8177
2.87833	8169
2.87900	8160
2.87967	8152
2.88033	8145
2.88100	8137
2.88167	8129
2.88233	8121
2.88300	8113
2.88367	8106
2.88433	8098
2.88500	8091
2.88567	8083
2.88633	8076
2.88700	8068
2.88767	8061
2.88833	8054
2.88900	8047
2.88967	8040
2.89033	8033
2.89100	8026
2.89167	8019
2.89233	8012
2.89300	8006
2.89367	7999
2.89433	7993
2.89500	7986
2.89567	7980
2.89633	7974
2.89700	7967
2.89767	7961
2.89833	7955
2.89900	7949
2.89967	7943
2.90033	7938
2.90100	7932
2.90167	7926
2.90233	7921
2.90300	7915
2.90367	7910
2.90433	7905
2.90500	7900
2.90567	7895
2.90633	7890
2.90700	7885
2.90767	7880
2.90833	7875
2.90900	7871
2.90967	7866
2.91033	7862
2.91100	7858
2.91167	7853
2.91233	7849
2.91300	7845
2.91367	7841
2.91433	7837
2.91500	7833
2.91567	7829
2.91633	7826
2.91700	7822
2.91767	7818
2.91833	7815
2.91900	7811
2.91967	7808
2.92033	7804
2.92100	7801
2.92167	7798
2.92233	7794
2.92300	7791
2.92367	7788
2.92433	7785
2.92500	7782
2.92567	7779
2.92633	7776
2.92700	7773
2.92767	7770
2.92833	7767
2.92900	7763
2.92967	7760
2.93033	7757
2.93100	7754
2.93167	7751
2.93233	7748
2.93300	7746
2.93367	7743
2.93433	7740
2.93500	7737
2.93567	7734
2.93633	7731
2.93700	7728
2.93767	7725
2.93833	7722
2.93900	7719
2.93967	7716
2.94033	7713
2.94100	7710
2.94167	7707
2.94233	7704
2.94300	7701
2.94367	7698
2.94433	7695
2.94500	7691
2.94567	7688
2.94633	7685
2.94700	7682
2.94767	7679
2.94833	7676
2.94900	7673
2.94967	7669
2.95033	7666
2.95100	7663
2.95167	7659
2.95233	7656
2.95300	7653
2.95367	7650
2.95433	7646
2.95500	7643
2.95567	7639
2.95633	7636
2.95700	7632
2.95767	7629
2.95833	7625
2.95900	7622
2.95967	7618
2.96033	7615
2.96100	7611
2.96167	7607
2.96233	7604
2.96300	7600
2.96367	7597
2.96433	7593
2.96500	7589
2.96567	7585
2.96633	7582
2.96700	7578
2.96767	7574
2.96833	7570
2.96900	7567
2.96967	7563
2.97033	7559
2.97100	7555
2.97167	7551
2.97233	7547
2.97300	7544
2.97367	7540
2.97433	7536
2.97500	7532
2.97567	7528
2.97633	7524
2.97700	7520
2.97767	7517
2.97833	7513
2.97900	7509
2.97967	7505
2.98033	7501
2.98100	7497
2.98167	7493
2.98233	7490
2.98300	7486
2.98367	7482
2.98433	7478
2.98500	7474
2.98567	7471
2.98633	7467
2.98700	7463
2.98767	7459
2.98833	7455
2.98900	7451
2.98967	7447
2.99033	7444
2.99100	7440
2.99167	7436
2.99233	7432
2.99300	7428
2.99367	7424
2.99433	7421
2.99500	7417
2.99567	7413
2.99633	7409
2.99700	7406
2.99767	7402
2.99833	7398
2.99900	7395
2.99967	7391
3.00033	7387
3.00100	7383
3.00167	7380
3.00233	7376
3.00300	7372
3.00367	7369
3.00433	7365
3.00500	7362
3.00567	7358
3.00633	7354
3.00700	7351
3.00767	7347
3.00833	7344
3.00900	7340
3.00967	7337
3.01033	7333
3.01100	7330
3.01167	7326
3.01233	7323
3.01300	7319
3.01367	7316
3.01433	7312
3.01500	7309
3.01567	7306
3.01633	7302
3.01700	7299
3.01767	7295
3.01833	7292
3.01900	7289
3.01967	7285
3.02033	7282
3.02100	7279
3.02167	7275
3.02233	7272
3.02300	7269
3.02367	7265
3.02433	7262
3.02500	7259
3.02567	7256
3.02633	7252
3.02700	7249
3.02767	7246
3.02833	7243
3.02900	7239
3.02967	7236
3.03033	7233
3.03100	7230
3.03167	7226
3.03233	7223
3.03300	7220
3.03367	7217
3.03433	7214
3.03500	7211
3.03567	7207
3.03633	7204
3.03700	7201
3.03767	7198
3.03833	7195
3.03900	7192
3.03967	7189
3.04033	7186
3.04100	7183
3.04167	7180
3.04233	7177
3.04300	7174
3.04367	7171
3.04433	7168
3.04500	7165
3.04567	7163
3.04633	7160
3.04700	7157
3.04767	7154
3.04833	7151
3.04900	7149
3.04967	7146
3.05033	7143
3.05100	7140
3.05167	7137
3.05233	7134
3.05300	7132
3.05367	7129
3.05433	7126
3.05500	7123
3.05567	7120
3.05633	7118
3.05700	7115
3.05767	7112
3.05833	7109
3.05900	7106
3.05967	7104
3.06033	7101
3.06100	7098
3.06167	7096
3.06233	7093
3.06300	7090
3.06367	7087
3.06433	7085
3.06500	7082
3.06567	7079
3.06633	7077
3.06700	7074
3.06767	7072
3.06833	7069
3.06900	7066
3.06967	7064
3.07033	7061
3.07100	7059
3.07167	7056
3.07233	7053
3.07300	7051
3.07367	7048
3.07433	7046
3.07500	7043
3.07567	7040
3.07633	7038
3.07700	7035
3.07767	7033
3.07833	7030
3.07900	7027
3.07967	7025
3.08033	7022
3.08100	7020
3.08167	7017
3.08233	7014
3.08300	7012
3.08367	7009
3.08433	7007
3.08500	7004
3.08567	7001
3.08633	6999
3.08700	6996
3.08767	6993
3.08833	6991
3.08900	6988
3.08967	6985
3.09033	6983
3.09100	6980
3.09167	6977
3.09233	6975
3.09300	6972
3.09367	6969
3.09433	6966
3.09500	6964
3.09567	6961
3.09633	6958
3.09700	6955
3.09767	6953
3.09833	6950
3.09900	6947
3.09967	6944
3.10033	6941
3.10100	6938
3.10167	6936
3.10233	6933
3.10300	6930
3.10367	6927
3.10433	6924
3.10500	6921
3.10567	6918
3.10633	6916
3.10700	6913
3.10767	6910
3.10833	6907
3.10900	6904
3.10967	6901
3.11033	6898
3.11100	6895
3.11167	6892
3.11233	6889
3.11300	6887
3.11367	6884
3.11433	6881
3.11500	6878
3.11567	6875
3.11633	6872
3.11700	6869
3.11767	6867
3.11833	6864
3.11900	6861
3.11967	6858
3.12033	6855
3.12100	6853
3.12167	6850
3.12233	6847
3.12300	6844
3.12367	6841
3.12433	6838
3.12500	6835
3.12567	6832
3.12633	6829
3.12700	6827
3.12767	6824
3.12833	6821
3.12900	6818
3.12967	6815
3.13033	6812
3.13100	6809
3.13167	6806
3.13233	6803
3.13300	6800
3.13367	6797
3.13433	6795
3.13500	6792
3.13567	6789
3.13633	6786
3.13700	6783
3.13767	6780
3.13833	6778
3.13900	6775
3.13967	6772
3.14033	6769
3.14100	6766
3.14167	6764
3.14233	6761
3.14300	6758
3.14367	6755
3.14433	6753
3.14500	6750
3.14567	6747
3.14633	6745
3.14700	6742
3.14767	6739
3.14833	6737
3.14900	6734
3.14967	6732
3.15033	6729
3.15100	6726
3.15167	6724
3.15233	6721
3.15300	6718
3.15367	6716
3.15433	6713
3.15500	6711
3.15567	6708
3.15633	6706
3.15700	6703
3.15767	6701
3.15833	6699
3.15900	6696
3.15967	6694
3.16033	6692
3.16100	6689
3.16167	6687
3.16233	6685
3.16300	6683
3.16367	6680
3.16433	6678
3.16500	6676
3.16567	6674
3.16633	6672
3.16700	6669
3.16767	6667
3.16833	6665
3.16900	6663
3.16967	6660
3.17033	6658
3.17100	6656
3.17167	6654
3.17233	6652
3.17300	6650
3.17367	6647
3.17433	6645
3.17500	6643
3.17567	6641
3.17633	6639
3.17700	6637
3.17767	6635
3.17833	6632
3.17900	6630
3.17967	6628
3.18033	6626
3.18100	6624
3.18167	6622
3.18233	6620
3.18300	6617
3.18367	6615
3.18433	6613
3.18500	6611
3.18567	6609
3.18633	6607
3.18700	6605
3.18767	6603
3.18833	6601
3.18900	6599
3.18967	6597
3.19033	6595
3.19100	6592
3.19167	6590
3.19233	6588
3.19300	6586
3.19367	6584
3.19433	6582
3.19500	6580
3.19567	6578
3.19633	6576
3.19700	6574
3.19767	6572
3.19833	6570
3.19900	6568
3.19967	6566
3.20033	6564
3.20100	6562
3.20167	6560
3.20233	6558
3.20300	6556
3.20367	6554
3.20433	6552
3.20500	6550
3.20567	6548
3.20633	6546
3.20700	6544
3.20767	6541
3.20833	6539
3.20900	6537
3.20967	6535
3.21033	6533
3.21100	6531
3.21167	6529
3.21233	6527
3.21300	6525
3.21367	6523
3.21433	6521
3.21500	6519
3.21567	6517
3.21633	6515
3.21700	6513
3.21767	6511
3.21833	6509
3.21900	6507
3.21967	6505
3.22033	6503
3.22100	6500
3.22167	6498
3.22233	6496
3.22300	6494
3.22367	6492
3.22433	6490
3.22500	6488
3.22567	6486
3.22633	6483
3.22700	6481
3.22767	6479
3.22833	6477
3.22900	6475
3.22967	6473
3.23033	6470
3.23100	6468
3.23167	6466
3.23233	6464
3.23300	6462
3.23367	6460
3.23433	6457
3.23500	6455
3.23567	6453
3.23633	6451
3.23700	6449
3.23767	6447
3.23833	6444
3.23900	6442
3.23967	6440
3.24033	6438
3.24100	6436
3.24167	6434
3.24233	6432
3.24300	6429
3.24367	6427
3.24433	6425
3.24500	6423
3.24567	6421
3.24633	6419
3.24700	6417
3.24767	6414
3.24833	6412
3.24900	6410
3.24967	6408
3.25033	6406
3.25100	6404
3.25167	6401
3.25233	6399
3.25300	6397
3.25367	6395
3.25433	6393
3.25500	6391
3.25567	6389
3.25633	6386
3.25700	6384
3.25767	6382
3.25833	6380
3.25900	6378
3.25967	6376
3.26033	6374
3.26100	6372
3.26167	6370
3.26233	6368
3.26300	6366
3.26367	6364
3.26433	6362
3.26500	6360
3.26567	6358
3.26633	6356
3.26700	6354
3.26767	6352
3.26833	6350
3.26900	6348
3.26967	6346
3.27033	6344
3.27100	6342
3.27167	6340
3.27233	6339
3.27300	6337
3.27367	6335
3.27433	6333
3.27500	6331
3.27567	6329
3.27633	6328
3.27700	6326
3.27767	6324
3.27833	6322
3.27900	6320
3.27967	6318
3.28033	6316
3.28100	6315
3.28167	6313
3.28233	6311
3.28300	6309
3.28367	6307
3.28433	6306
3.28500	6304
3.28567	6302
3.28633	6300
3.28700	6299
3.28767	6297
3.28833	6295
3.28900	6293
3.28967	6292
3.29033	6290
3.29100	6288
3.29167	6286
3.29233	6284
3.29300	6283
3.29367	6281
3.29433	6279
3.29500	6277
3.29567	6275
3.29633	6274
3.29700	6272
3.29767	6270
3.29833	6268
3.29900	6266
3.29967	6265
3.30033	6263
3.30100	6261
3.30167	6259
3.30233	6257
3.30300	6256
3.30367	6254
3.30433	6252
3.30500	6250
3.30567	6249
3.30633	6247
3.30700	6245
3.30767	6243
3.30833	6241
3.30900	6240
3.30967	6238
3.31033	6236
3.31100	6235
3.31167	6233
3.31233	6231
3.31300	6230
3.31367	6228
3.31433	6227
3.31500	6225
3.31567	6224
3.31633	6222
3.31700	6221
3.31767	6219
3.31833	6218
3.31900	6216
3.31967	6215
3.32033	6213
3.32100	6212
3.32167	6210
3.32233	6209
3.32300	6207
3.32367	6206
3.32433	6204
3.32500	6203
3.32567	6202
3.32633	6200
3.32700	6199
3.32767	6197
3.32833	6196
3.32900	6195
3.32967	6193
3.33033	6192
3.33100	6190
3.33167	6189
3.33233	6188
3.33300	6187
3.33367	6185
3.33433	6184
3.33500	6183
3.33567	6181
3.33633	6180
3.33700	6178
3.33767	6177
3.33833	6176
3.33900	6174
3.33967	6173
3.34033	6172
3.34100	6170
3.34167	6169
3.34233	6168
3.34300	6166
3.34367	6165
3.34433	6164
3.34500	6162
3.34567	6161
3.34633	6160
3.34700	6158
3.34767	6157
3.34833	6156
3.34900	6155
3.34967	6153
3.35033	6152
3.35100	6151
3.35167	6150
3.35233	6149
3.35300	6148
3.35367	6147
3.35433	6146
3.35500	6145
3.35567	6144
3.35633	6142
3.35700	6141
3.35767	6140
3.35833	6139
3.35900	6138
3.35967	6137
3.36033	6137
3.36100	6136
3.36167	6135
3.36233	6134
3.36300	6133
3.36367	6132
3.36433	6131
3.36500	6131
3.36567	6130
3.36633	6129
3.36700	6128
3.36767	6127
3.36833	6127
3.36900	6126
3.36967	6125
3.37033	6124
3.37100	6124
3.37167	6123
3.37233	6122
3.37300	6122
3.37367	6121
3.37433	6121
3.37500	6120
3.37567	6120
3.37633	6119
3.37700	6119
3.37767	6118
3.37833	6118
3.37900	6118
3.37967	6117
3.38033	6117
3.38100	6116
3.38167	6116
3.38233	6116
3.38300	6116
3.38367	6115
3.38433	6115
3.38500	6115
3.38567	6115
3.38633	6115
3.38700	6115
3.38767	6115
3.38833	6115
3.38900	6115
3.38967	6115
3.39033	6115
3.39100	6115
3.39167	6115
3.39233	6115
3.39300	6116
3.39367	6116
3.39433	6116
3.39500	6117
3.39567	6117
3.39633	6118
3.39700	6118
3.39767	6119
3.39833	6119
3.39900	6120
3.39967	6120
3.40033	6121
3.40100	6121
3.40167	6122
3.40233	6123
3.40300	6123
3.40367	6124
3.40433	6125
3.40500	6125
3.40567	6126
3.40633	6127
3.40700	6128
3.40767	6129
3.40833	6129
3.40900	6130
3.40967	6131
3.41033	6132
3.41100	6133
3.41167	6134
3.41233	6135
3.41300	6136
3.41367	6137
3.41433	6138
3.41500	6139
3.41567	6140
3.41633	6141
3.41700	6142
3.41767	6143
3.41833	6144
3.41900	6145
3.41967	6146
3.42033	6147
3.42100	6148
3.42167	6149
3.42233	6150
3.42300	6151
3.42367	6152
3.42433	6153
3.42500	6154
3.42567	6155
3.42633	6156
3.42700	6157
3.42767	6158
3.42833	6159
3.42900	6160
3.42967	6161
3.43033	6162
3.43100	6163
3.43167	6164
3.43233	6165
3.43300	6166
3.43367	6167
3.43433	6168
3.43500	6168
3.43567	6169
3.43633	6170
3.43700	6170
3.43767	6171
3.43833	6171
3.43900	6172
3.43967	6172
3.44033	6173
3.44100	6173
3.44167	6174
3.44233	6174
3.44300	6174
3.44367	6175
3.44433	6175
3.44500	6175
3.44567	6175
3.44633	6175
3.44700	6175
3.44767	6175
3.44833	6175
3.44900	6175
3.44967	6175
3.45033	6175
3.45100	6174
3.45167	6174
3.45233	6174
3.45300	6173
3.45367	6173
3.45433	6172
3.45500	6172
3.45567	6171
3.45633	6170
3.45700	6169
3.45767	6169
3.45833	6168
3.45900	6167
3.45967	6166
3.46033	6165
3.46100	6164
3.46167	6163
3.46233	6162
3.46300	6160
3.46367	6159
3.46433	6158
3.46500	6157
3.46567	6156
3.46633	6154
3.46700	6153
3.46767	6151
3.46833	6150
3.46900	6148
3.46967	6147
3.47033	6145
3.47100	6144
3.47167	6142
3.47233	6140
3.47300	6138
3.47367	6137
3.47433	6135
3.47500	6133
3.47567	6131
3.47633	6129
3.47700	6127
3.47767	6125
3.47833	6123
3.47900	6121
3.47967	6119
3.48033	6117
3.48100	6115
3.48167	6112
3.48233	6110
3.48300	6108
3.48367	6106
3.48433	6103
3.48500	6101
3.48567	6099
3.48633	6096
3.48700	6094
3.48767	6091
3.48833	6089
3.48900	6086
3.48967	6084
3.49033	6082
3.49100	6079
3.49167	6077
3.49233	6074
3.49300	6072
3.49367	6070
3.49433	6067
3.49500	6065
3.49567	6063
3.49633	6060
3.49700	6058
3.49767	6056
3.49833	6054
3.49900	6051
3.49967	6049
3.50033	6047
3.50100	6045
3.50167	6042
3.50233	6040
3.50300	6038
3.50367	6036
3.50433	6034
3.50500	6031
3.50567	6029
3.50633	6027
3.50700	6025
3.50767	6023
3.50833	6021
3.50900	6019
3.50967	6017
3.51033	6015
3.51100	6013
3.51167	6011
3.51233	6009
3.51300	6007
3.51367	6006
3.51433	6004
3.51500	6002
3.51567	6001
3.51633	5999
3.51700	5997
3.51767	5996
3.51833	5994
3.51900	5993
3.51967	5992
3.52033	5990
3.52100	5989
3.52167	5987
3.52233	5986
3.52300	5985
3.52367	5984
3.52433	5982
3.52500	5981
3.52567	5980
3.52633	5979
3.52700	5978
3.52767	5977
3.52833	5975
3.52900	5974
3.52967	5973
3.53033	5972
3.53100	5971
3.53167	5970
3.53233	5970
3.53300	5969
3.53367	5968
3.53433	5967
3.53500	5966
3.53567	5966
3.53633	5965
3.53700	5964
3.53767	5964
3.53833	5963
3.53900	5963
3.53967	5962
3.54033	5962
3.54100	5961
3.54167	5961
3.54233	5960
3.54300	5960
3.54367	5959
3.54433	5959
3.54500	5958
3.54567	5958
3.54633	5957
3.54700	5957
3.54767	5957
3.54833	5956
3.54900	5956
3.54967	5956
3.55033	5955
3.55100	5955
3.55167	5955
3.55233	5954
3.55300	5954
3.55367	5954
3.55433	5953
3.55500	5953
3.55567	5953
3.55633	5952
3.55700	5952
3.55767	5951
3.55833	5951
3.55900	5951
3.55967	5950
3.56033	5950
3.56100	5949
3.56167	5949
3.56233	5948
3.56300	5948
3.56367	5947
3.56433	5947
3.56500	5946
3.56567	5945
3.56633	5945
3.56700	5944
3.56767	5943
3.56833	5942
3.56900	5941
3.56967	5940
3.57033	5940
3.57100	5939
3.57167	5938
3.57233	5937
3.57300	5935
3.57367	5934
3.57433	5933
3.57500	5932
3.57567	5931
3.57633	5929
3.57700	5928
3.57767	5927
3.57833	5926
3.57900	5924
3.57967	5923
3.58033	5921
3.58100	5920
3.58167	5918
3.58233	5917
3.58300	5915
3.58367	5913
3.58433	5912
3.58500	5910
3.58567	5908
3.58633	5906
3.58700	5904
3.58767	5902
3.58833	5900
3.58900	5898
3.58967	5896
3.59033	5894
3.59100	5892
3.59167	5890
3.59233	5887
3.59300	5885
3.59367	5883
3.59433	5880
3.59500	5878
3.59567	5876
3.59633	5873
3.59700	5870
3.59767	5868
3.59833	5865
3.59900	5863
3.59967	5860
3.60033	5857
3.60100	5854
3.60167	5852
3.60233	5849
3.60300	5846
3.60367	5844
3.60433	5841
3.60500	5838
3.60567	5835
3.60633	5833
3.60700	5830
3.60767	5827
3.60833	5825
3.60900	5822
3.60967	5819
3.61033	5816
3.61100	5814
3.61167	5811
3.61233	5808
3.61300	5805
3.61367	5802
3.61433	5799
3.61500	5797
3.61567	5794
3.61633	5791
3.61700	5788
3.61767	5785
3.61833	5782
3.61900	5779
3.61967	5776
3.62033	5773
3.62100	5770
3.62167	5768
3.62233	5765
3.62300	5762
3.62367	5759
3.62433	5756
3.62500	5753
3.62567	5750
3.62633	5748
3.62700	5745
3.62767	5742
3.62833	5739
3.62900	5736
3.62967	5733
3.63033	5730
3.63100	5727
3.63167	5724
3.63233	5721
3.63300	5719
3.63367	5716
3.63433	5713
3.63500	5710
3.63567	5707
3.63633	5704
3.63700	5701
3.63767	5698
3.63833	5696
3.63900	5693
3.63967	5690
3.64033	5687
3.64100	5684
3.64167	5682
3.64233	5679
3.64300	5676
3.64367	5674
3.64433	5671
3.64500	5668
3.64567	5666
3.64633	5663
3.64700	5660
3.64767	5658
3.64833	5655
3.64900	5652
3.64967	5650
3.65033	5647
3.65100	5645
3.65167	5642
3.65233	5640
3.65300	5637
3.65367	5635
3.65433	5632
3.65500	5630
3.65567	5628
3.65633	5625
3.65700	5623
3.65767	5621
3.65833	5618
3.65900	5616
3.65967	5614
3.66033	5612
3.66100	5610
3.66167	5608
3.66233	5606
3.66300	5604
3.66367	5602
3.66433	5600
3.66500	5598
3.66567	5596
3.66633	5594
3.66700	5592
3.66767	5590
3.66833	5588
3.66900	5587
3.66967	5585
3.67033	5583
3.67100	5581
3.67167	5579
3.67233	5577
3.67300	5576
3.67367	5574
3.67433	5572
3.67500	5570
3.67567	5568
3.67633	5567
3.67700	5565
3.67767	5563
3.67833	5562
3.67900	5560
3.67967	5558
3.68033	5557
3.68100	5555
3.68167	5553
3.68233	5552
3.68300	5550
3.68367	5548
3.68433	5547
3.68500	5545
3.68567	5544
3.68633	5542
3.68700	5540
3.68767	5539
3.68833	5537
3.68900	5536
3.68967	5534
3.69033	5533
3.69100	5531
3.69167	5530
3.69233	5528
3.69300	5527
3.69367	5525
3.69433	5524
3.69500	5522
3.69567	5521
3.69633	5519
3.69700	5518
3.69767	5516
3.69833	5515
3.69900	5513
3.69967	5512
3.70033	5510
3.70100	5509
3.70167	5507
3.70233	5506
3.70300	5504
3.70367	5503
3.70433	5501
3.70500	5500
3.70567	5499
3.70633	5497
3.70700	5496
3.70767	5494
3.70833	5493
3.70900	5491
3.70967	5490
3.71033	5489
3.71100	5487
3.71167	5486
3.71233	5484
3.71300	5483
3.71367	5481
3.71433	5480
3.71500	5479
3.71567	5477
3.71633	5476
3.71700	5474
3.71767	5473
3.71833	5471
3.71900	5470
3.71967	5468
3.72033	5467
3.72100	5466
3.72167	5464
3.72233	5463
3.72300	5461
3.72367	5460
3.72433	5458
3.72500	5457
3.72567	5455
3.72633	5454
3.72700	5452
3.72767	5451
3.72833	5449
3.72900	5447
3.72967	5446
3.73033	5444
3.73100	5443
3.73167	5441
3.73233	5439
3.73300	5438
3.73367	5436
3.73433	5434
3.73500	5433
3.73567	5431
3.73633	5430
3.73700	5428
3.73767	5427
3.73833	5425
3.73900	5424
3.73967	5422
3.74033	5420
3.74100	5419
3.74167	5417
3.74233	5416
3.74300	5414
3.74367	5413
3.74433	5411
3.74500	5410
3.74567	5408
3.74633	5406
3.74700	5405
3.74767	5403
3.74833	5402
3.74900	5400
3.74967	5399
3.75033	5397
3.75100	5395
3.75167	5394
3.75233	5392
3.75300	5390
3.75367	5389
3.75433	5387
3.75500	5386
3.75567	5384
3.75633	5382
3.75700	5381
3.75767	5379
3.75833	5378
3.75900	5376
3.75967	5375
3.76033	5373
3.76100	5371
3.76167	5370
3.76233	5368
3.76300	5367
3.76367	5366
3.76433	5364
3.76500	5363
3.76567	5361
3.76633	5360
3.76700	5358
3.76767	5357
3.76833	5355
3.76900	5354
3.76967	5352
3.77033	5351
3.77100	5349
3.77167	5348
3.77233	5346
3.77300	5345
3.77367	5343
3.77433	5342
3.77500	5340
3.77567	5339
3.77633	5337
3.77700	5336
3.77767	5334
3.77833	5333
3.77900	5331
3.77967	5330
3.78033	5329
3.78100	5327
3.78167	5326
3.78233	5325
3.78300	5323
3.78367	5322
3.78433	5321
3.78500	5319
3.78567	5318
3.78633	5317
3.78700	5316
3.78767	5315
3.78833	5313
3.78900	5312
3.78967	5311
3.79033	5310
3.79100	5309
3.79167	5308
3.79233	5306
3.79300	5305
3.79367	5304
3.79433	5303
3.79500	5302
3.79567	5301
3.79633	5299
3.79700	5298
3.79767	5297
3.79833	5296
3.79900	5295
3.79967	5294
3.80033	5292
3.80100	5291
3.80167	5290
3.80233	5289
3.80300	5288
3.80367	5286
3.80433	5285
3.80500	5284
3.80567	5283
3.80633	5282
3.80700	5281
3.80767	5280
3.80833	5278
3.80900	5277
3.80967	5276
3.81033	5275
3.81100	5274
3.81167	5273
3.81233	5271
3.81300	5270
3.81367	5269
3.81433	5268
3.81500	5267
3.81567	5266
3.81633	5265
3.81700	5264
3.81767	5262
3.81833	5261
3.81900	5260
3.81967	5259
3.82033	5258
3.82100	5257
3.82167	5256
3.82233	5255
3.82300	5254
3.82367	5253
3.82433	5252
3.82500	5251
3.82567	5250
3.82633	5249
3.82700	5248
3.82767	5246
3.82833	5245
3.82900	5244
3.82967	5243
3.83033	5242
3.83100	5241
3.83167	5239
3.83233	5238
3.83300	5237
3.83367	5236
3.83433	5235
3.83500	5233
3.83567	5232
3.83633	5231
3.83700	5230
3.83767	5229
3.83833	5228
3.83900	5227
3.83967	5225
3.84033	5224
3.84100	5223
3.84167	5222
3.84233	5221
3.84300	5220
3.84367	5218
3.84433	5217
3.84500	5216
3.84567	5215
3.84633	5214
3.84700	5213
3.84767	5212
3.84833	5210
3.84900	5209
3.84967	5208
3.85033	5207
3.85100	5206
3.85167	5204
3.85233	5203
3.85300	5202
3.85367	5201
3.85433	5200
3.85500	5199
3.85567	5198
3.85633	5196
3.85700	5195
3.85767	5194
3.85833	5193
3.85900	5192
3.85967	5191
3.86033	5190
3.86100	5189
3.86167	5188
3.86233	5187
3.86300	5186
3.86367	5185
3.86433	5184
3.86500	5183
3.86567	5182
3.86633	5181
3.86700	5181
3.86767	5180
3.86833	5179
3.86900	5178
3.86967	5177
3.87033	5176
3.87100	5175
3.87167	5174
3.87233	5174
3.87300	5173
3.87367	5172
3.87433	5171
3.87500	5170
3.87567	5170
3.87633	5169
3.87700	5168
3.87767	5167
3.87833	5167
3.87900	5166
3.87967	5165
3.88033	5165
3.88100	5164
3.88167	5163
3.88233	5163
3.88300	5162
3.88367	5161
3.88433	5161
3.88500	5160
3.88567	5159
3.88633	5159
3.88700	5158
3.88767	5158
3.88833	5157
3.88900	5157
3.88967	5156
3.89033	5156
3.89100	5155
3.89167	5155
3.89233	5154
3.89300	5154
3.89367	5154
3.89433	5153
3.89500	5153
3.89567	5152
3.89633	5152
3.89700	5151
3.89767	5150
3.89833	5150
3.89900	5149
3.89967	5149
3.90033	5148
3.90100	5148
3.90167	5147
3.90233	5146
3.90300	5146
3.90367	5145
3.90433	5145
3.90500	5144
3.90567	5144
3.90633	5143
3.90700	5142
3.90767	5142
3.90833	5141
3.90900	5141
3.90967	5140
3.91033	5140
3.91100	5139
3.91167	5138
3.91233	5138
3.91300	5137
3.91367	5137
3.91433	5136
3.91500	5135
3.91567	5135
3.91633	5134
3.91700	5134
3.91767	5133
3.91833	5132
3.91900	5132
3.91967	5131
3.92033	5130
3.92100	5130
3.92167	5129
3.92233	5129
3.92300	5128
3.92367	5127
3.92433	5126
3.92500	5126
3.92567	5125
3.92633	5124
3.92700	5124
3.92767	5123
3.92833	5122
3.92900	5121
3.92967	5121
3.93033	5120
3.93100	5119
3.93167	5118
3.93233	5117
3.93300	5117
3.93367	5116
3.93433	5115
3.93500	5114
3.93567	5113
3.93633	5112
3.93700	5112
3.93767	5111
3.93833	5110
3.93900	5109
3.93967	5108
3.94033	5108
3.94100	5107
3.94167	5106
3.94233	5105
3.94300	5104
3.94367	5104
3.94433	5103
3.94500	5102
3.94567	5101
3.94633	5100
3.94700	5099
3.94767	5098
3.94833	5097
3.94900	5096
3.94967	5095
3.95033	5094
3.95100	5093
3.95167	5092
3.95233	5092
3.95300	5091
3.95367	5090
3.95433	5089
3.95500	5088
3.95567	5087
3.95633	5086
3.95700	5086
3.95767	5085
3.95833	5084
3.95900	5083
3.95967	5082
3.96033	5081
3.96100	5080
3.96167	5080
3.96233	5079
3.96300	5078
3.96367	5077
3.96433	5077
3.96500	5076
3.96567	5075
3.96633	5075
3.96700	5074
3.96767	5073
3.96833	5073
3.96900	5072
3.96967	5071
3.97033	5071
3.97100	5070
3.97167	5070
3.97233	5069
3.97300	5069
3.97367	5069
3.97433	5068
3.97500	5068
3.97567	5068
3.97633	5068
3.97700	5068
3.97767	5068
3.97833	5068
3.97900	5068
3.97967	5068
3.98033	5068
3.98100	5068
3.98167	5068
3.98233	5069
3.98300	5069
3.98367	5069
3.98433	5070
3.98500	5070
3.98567	5071
3.98633	5072
3.98700	5072
3.98767	5073
3.98833	5074
3.98900	5075
3.98967	5076
3.99033	5077
3.99100	5078
3.99167	5079
3.99233	5080
3.99300	5082
3.99367	5083
3.99433	5085
3.99500	5087
3.99567	5089
3.99633	5091
3.99700	5093
3.99767	5095
3.99833	5097
3.99900	5100
3.99967	5102
4.00033	5105
4.00100	5107
4.00167	5110
4.00233	5113
4.00300	5117
4.00367	5120
4.00433	5124
4.00500	5127
4.00567	5131
4.00633	5135
4.00700	5139
4.00767	5144
4.00833	5148
4.00900	5153
4.00967	5157
4.01033	5162
4.01100	5167
4.01167	5173
4.01233	5178
4.01300	5184
4.01367	5190
4.01433	5196
4.01500	5202
4.01567	5208
4.01633	5215
4.01700	5221
4.01767	5228
4.01833	5235
4.01900	5243
4.01967	5250
4.02033	5258
4.02100	5266
4.02167	5274
4.02233	5282
4.02300	5291
4.02367	5300
4.02433	5309
4.02500	5318
4.02567	5327
4.02633	5337
4.02700	5347
4.02767	5357
4.02833	5367
4.02900	5377
4.02967	5388
4.03033	5399
4.03100	5410
4.03167	5421
4.03233	5432
4.03300	5444
4.03367	5456
4.03433	5468
4.03500	5480
4.03567	5492
4.03633	5504
4.03700	5517
4.03767	5529
4.03833	5542
4.03900	5555
4.03967	5568
4.04033	5582
4.04100	5595
4.04167	5609
4.04233	5622
4.04300	5636
4.04367	5650
4.04433	5664
4.04500	5678
4.04567	5692
4.04633	5706
4.04700	5720
4.04767	5734
4.04833	5748
4.04900	5762
4.04967	5776
4.05033	5791
4.05100	5805
4.05167	5819
4.05233	5834
4.05300	5848
4.05367	5862
4.05433	5876
4.05500	5891
4.05567	5905
4.05633	5919
4.05700	5933
4.05767	5947
4.05833	5961
4.05900	5975
4.05967	5989
4.06033	6003
4.06100	6016
4.06167	6030
4.06233	6043
4.06300	6056
4.06367	6070
4.06433	6083
4.06500	6095
4.06567	6108
4.06633	6121
4.06700	6133
4.06767	6145
4.06833	6157
4.06900	6169
4.06967	6181
4.07033	6192
4.07100	6203
4.07167	6214
4.07233	6224
4.07300	6235
4.07367	6245
4.07433	6255
4.07500	6264
4.07567	6273
4.07633	6282
4.07700	6291
4.07767	6299
4.07833	6308
4.07900	6315
4.07967	6323
4.08033	6330
4.08100	6337
4.08167	6344
4.08233	6351
4.08300	6357
4.08367	6363
4.08433	6368
4.08500	6374
4.08567	6379
4.08633	6383
4.08700	6388
4.08767	6392
4.08833	6396
4.08900	6400
4.08967	6403
4.09033	6406
4.09100	6409
4.09167	6412
4.09233	6414
4.09300	6416
4.09367	6418
4.09433	6419
4.09500	6421
4.09567	6422
4.09633	6423
4.09700	6423
4.09767	6424
4.09833	6424
4.09900	6424
4.09967	6424
4.10033	6424
4.10100	6423
4.10167	6422
4.10233	6421
4.10300	6420
4.10367	6419
4.10433	6418
4.10500	6416
4.10567	6415
4.10633	6413
4.10700	6412
4.10767	6410
4.10833	6408
4.10900	6406
4.10967	6404
4.11033	6402
4.11100	6399
4.11167	6397
4.11233	6395
4.11300	6393
4.11367	6390
4.11433	6388
4.11500	6385
4.11567	6383
4.11633	6381
4.11700	6378
4.11767	6376
4.11833	6373
4.11900	6371
4.11967	6368
4.12033	6366
4.12100	6364
4.12167	6361
4.12233	6359
4.12300	6357
4.12367	6355
4.12433	6353
4.12500	6351
4.12567	6349
4.12633	6347
4.12700	6346
4.12767	6344
4.12833	6342
4.12900	6341
4.12967	6339
4.13033	6338
4.13100	6337
4.13167	6335
4.13233	6334
4.13300	6333
4.13367	6332
4.13433	6331
4.13500	6330
4.13567	6330
4.13633	6329
4.13700	6328
4.13767	6328
4.13833	6327
4.13900	6327
4.13967	6326
4.14033	6326
4.14100	6326
4.14167	6325
4.14233	6325
4.14300	6325
4.14367	6325
4.14433	6325
4.14500	6325
4.14567	6325
4.14633	6326
4.14700	6326
4.14767	6326
4.14833	6327
4.14900	6327
4.14967	6327
4.15033	6328
4.15100	6328
4.15167	6329
4.15233	6329
4.15300	6330
4.15367	6330
4.15433	6331
4.15500	6331
4.15567	6332
4.15633	6332
4.15700	6333
4.15767	6333
4.15833	6334
4.15900	6334
4.15967	6334
4.16033	6335
4.16100	6335
4.16167	6335
4.16233	6335
4.16300	6335
4.16367	6335
4.16433	6335
4.16500	6335
4.16567	6335
4.16633	6335
4.16700	6334
4.16767	6334
4.16833	6333
4.16900	6332
4.16967	6332
4.17033	6331
4.17100	6330
4.17167	6329
4.17233	6328
4.17300	6327
4.17367	6325
4.17433	6324
4.17500	6323
4.17567	6321
4.17633	6319
4.17700	6318
4.17767	6316
4.17833	6314
4.17900	6312
4.17967	6311
4.18033	6308
4.18100	6306
4.18167	6304
4.18233	6302
4.18300	6300
4.18367	6297
4.18433	6295
4.18500	6293
4.18567	6290
4.18633	6288
4.18700	6286
4.18767	6283
4.18833	6281
4.18900	6278
4.18967	6276
4.19033	6274
4.19100	6271
4.19167	6269
4.19233	6267
4.19300	6265
4.19367	6263
4.19433	6261
4.19500	6259
4.19567	6257
4.19633	6255
4.19700	6254
4.19767	6252
4.19833	6251
4.19900	6250
4.19967	6248
4.20033	6247
4.20100	6246
4.20167	6246
4.20233	6245
4.20300	6245
4.20367	6244
4.20433	6244
4.20500	6244
4.20567	6245
4.20633	6245
4.20700	6246
4.20767	6247
4.20833	6248
4.20900	6250
4.20967	6252
4.21033	6254
4.21100	6256
4.21167	6259
4.21233	6262
4.21300	6265
4.21367	6269
4.21433	6273
4.21500	6278
4.21567	6282
4.21633	6288
4.21700	6293
4.21767	6299
4.21833	6306
4.21900	6312
4.21967	6320
4.22033	6327
4.22100	6335
4.22167	6344
4.22233	6353
4.22300	6362
4.22367	6372
4.22433	6383
4.22500	6394
4.22567	6405
4.22633	6417
4.22700	6430
4.22767	6443
4.22833	6457
4.22900	6471
4.22967	6486
4.23033	6502
4.23100	6518
4.23167	6534
4.23233	6551
4.23300	6569
4.23367	6588
4.23433	6607
4.23500	6626
4.23567	6647
4.23633	6668
4.23700	6689
4.23767	6711
4.23833	6734
4.23900	6758
4.23967	6782
4.24033	6807
4.24100	6832
4.24167	6858
4.24233	6885
4.24300	6912
4.24367	6940
4.24433	6969
4.24500	6998
4.24567	7028
4.24633	7058
4.24700	7090
4.24767	7121
4.24833	7154
4.24900	7187
4.24967	7221
4.25033	7255
4.25100	7290
4.25167	7326
4.25233	7362
4.25300	7399
4.25367	7437
4.25433	7475
4.25500	7514
4.25567	7554
4.25633	7594
4.25700	7635
4.25767	7676
4.25833	7718
4.25900	7760
4.25967	7803
4.26033	7846
4.26100	7890
4.26167	7934
4.26233	7979
4.26300	8023
4.26367	8069
4.26433	8115
4.26500	8161
4.26567	8207
4.26633	8254
4.26700	8301
4.26767	8348
4.26833	8395
4.26900	8443
4.26967	8491
4.27033	8539
4.27100	8587
4.27167	8635
4.27233	8684
4.27300	8732
4.27367	8781
4.27433	8830
4.27500	8879
4.27567	8928
4.27633	8977
4.27700	9026
4.27767	9074
4.27833	9123
4.27900	9172
4.27967	9221
4.28033	9269
4.28100	9318
4.28167	9366
4.28233	9415
4.28300	9463
4.28367	9511
4.28433	9559
4.28500	9606
4.28567	9654
4.28633	9701
4.28700	9748
4.28767	9795
4.28833	9842
4.28900	9889
4.28967	9936
4.29033	9982
4.29100	10028
4.29167	10074
4.29233	10119
4.29300	10164
4.29367	10209
4.29433	10254
4.29500	10298
4.29567	10342
4.29633	10386
4.29700	10430
4.29767	10473
4.29833	10516
4.29900	10558
4.29967	10601
4.30033	10643
4.30100	10685
4.30167	10726
4.30233	10767
4.30300	10808
4.30367	10848
4.30433	10888
4.30500	10928
4.30567	10967
4.30633	11005
4.30700	11044
4.30767	11081
4.30833	11119
4.30900	11156
4.30967	11192
4.31033	11228
4.31100	11264
4.31167	11299
4.31233	11333
4.31300	11367
4.31367	11401
4.31433	11434
4.31500	11467
4.31567	11499
4.31633	11530
4.31700	11562
4.31767	11593
4.31833	11623
4.31900	11653
4.31967	11683
4.32033	11713
4.32100	11742
4.32167	11771
4.32233	11799
4.32300	11828
4.32367	11856
4.32433	11884
4.32500	11912
4.32567	11939
4.32633	11966
4.32700	11994
4.32767	12020
4.32833	12047
4.32900	12074
4.32967	12100
4.33033	12127
4.33100	12153
4.33167	12179
4.33233	12204
4.33300	12230
4.33367	12255
4.33433	12280
4.33500	12305
4.33567	12330
4.33633	12355
4.33700	12380
4.33767	12404
4.33833	12429
4.33900	12454
4.33967	12478
4.34033	12503
4.34100	12527
4.34167	12552
4.34233	12577
4.34300	12602
4.34367	12627
4.34433	12653
4.34500	12678
4.34567	12704
4.34633	12731
4.34700	12758
4.34767	12785
4.34833	12812
4.34900	12841
4.34967	12869
4.35033	12898
4.35100	12928
4.35167	12958
4.35233	12989
4.35300	13021
4.35367	13053
4.35433	13086
4.35500	13119
4.35567	13153
4.35633	13189
4.35700	13225
4.35767	13262
4.35833	13300
4.35900	13339
4.35967	13380
4.36033	13421
4.36100	13464
4.36167	13508
4.36233	13554
4.36300	13601
4.36367	13649
4.36433	13699
4.36500	13750
4.36567	13803
4.36633	13858
4.36700	13914
4.36767	13973
4.36833	14033
4.36900	14095
4.36967	14158
4.37033	14224
4.37100	14292
4.37167	14363
4.37233	14435
4.37300	14510
4.37367	14587
4.37433	14666
4.37500	14748
4.37567	14832
4.37633	14919
4.37700	15008
4.37767	15100
4.37833	15194
4.37900	15291
4.37967	15391
4.38033	15494
4.38100	15600
4.38167	15709
4.38233	15821
4.38300	15936
4.38367	16054
4.38433	16175
4.38500	16299
4.38567	16426
4.38633	16557
4.38700	16691
4.38767	16828
4.38833	16968
4.38900	17111
4.38967	17258
4.39033	17408
4.39100	17561
4.39167	17718
4.39233	17878
4.39300	18042
4.39367	18208
4.39433	18378
4.39500	18552
4.39567	18729
4.39633	18910
4.39700	19094
4.39767	19281
4.39833	19472
4.39900	19666
4.39967	19863
4.40033	20063
4.40100	20267
4.40167	20473
4.40233	20683
4.40300	20895
4.40367	21110
4.40433	21328
4.40500	21549
4.40567	21772
4.40633	21998
4.40700	22226
4.40767	22457
4.40833	22690
4.40900	22925
4.40967	23162
4.41033	23402
4.41100	23643
4.41167	23886
4.41233	24132
4.41300	24379
4.41367	24627
4.41433	24878
4.41500	25129
4.41567	25382
4.41633	25636
4.41700	25892
4.41767	26148
4.41833	26406
4.41900	26664
4.41967	26922
4.42033	27181
4.42100	27441
4.42167	27700
4.42233	27959
4.42300	28217
4.42367	28475
4.42433	28732
4.42500	28988
4.42567	29243
4.42633	29497
4.42700	29749
4.42767	30000
4.42833	30250
4.42900	30497
4.42967	30743
4.43033	30986
4.43100	31228
4.43167	31467
4.43233	31704
4.43300	31938
4.43367	32170
4.43433	32399
4.43500	32625
4.43567	32848
4.43633	33068
4.43700	33284
4.43767	33496
4.43833	33705
4.43900	33910
4.43967	34110
4.44033	34306
4.44100	34498
4.44167	34685
4.44233	34867
4.44300	35045
4.44367	35217
4.44433	35384
4.44500	35545
4.44567	35702
4.44633	35852
4.44700	35997
4.44767	36136
4.44833	36269
4.44900	36396
4.44967	36517
4.45033	36632
4.45100	36740
4.45167	36842
4.45233	36938
4.45300	37027
4.45367	37109
4.45433	37185
4.45500	37254
4.45567	37317
4.45633	37373
4.45700	37422
4.45767	37464
4.45833	37500
4.45900	37529
4.45967	37552
4.46033	37567
4.46100	37576
4.46167	37578
4.46233	37574
4.46300	37562
4.46367	37544
4.46433	37519
4.46500	37487
4.46567	37448
4.46633	37403
4.46700	37351
4.46767	37292
4.46833	37227
4.46900	37155
4.46967	37077
4.47033	36992
4.47100	36902
4.47167	36804
4.47233	36701
4.47300	36592
4.47367	36477
4.47433	36356
4.47500	36229
4.47567	36097
4.47633	35959
4.47700	35815
4.47767	35667
4.47833	35513
4.47900	35354
4.47967	35190
4.48033	35021
4.48100	34847
4.48167	34669
4.48233	34486
4.48300	34299
4.48367	34108
4.48433	33912
4.48500	33713
4.48567	33510
4.48633	33304
4.48700	33094
4.48767	32880
4.48833	32663
4.48900	32444
4.48967	32221
4.49033	31995
4.49100	31767
4.49167	31536
4.49233	31303
4.49300	31067
4.49367	30829
4.49433	30590
4.49500	30348
4.49567	30104
4.49633	29859
4.49700	29613
4.49767	29364
4.49833	29115
4.49900	28865
4.49967	28613
4.50033	28361
4.50100	28108
4.50167	27854
4.50233	27600
4.50300	27345
4.50367	27090
4.50433	26835
4.50500	26579
4.50567	26324
4.50633	26069
4.50700	25815
4.50767	25561
4.50833	25307
4.50900	25055
4.50967	24803
4.51033	24551
4.51100	24301
4.51167	24052
4.51233	23804
4.51300	23557
4.51367	23312
4.51433	23068
4.51500	22825
4.51567	22584
4.51633	22345
4.51700	22107
4.51767	21871
4.51833	21636
4.51900	21404
4.51967	21173
4.52033	20944
4.52100	20717
4.52167	20493
4.52233	20270
4.52300	20049
4.52367	19831
4.52433	19615
4.52500	19401
4.52567	19190
4.52633	18980
4.52700	18773
4.52767	18569
4.52833	18366
4.52900	18166
4.52967	17969
4.53033	17774
4.53100	17581
4.53167	17391
4.53233	17203
4.53300	17017
4.53367	16834
4.53433	16654
4.53500	16476
4.53567	16301
4.53633	16128
4.53700	15958
4.53767	15790
4.53833	15625
4.53900	15462
4.53967	15302
4.54033	15144
4.54100	14989
4.54167	14836
4.54233	14686
4.54300	14538
4.54367	14392
4.54433	14249
4.54500	14109
4.54567	13970
4.54633	13834
4.54700	13701
4.54767	13569
4.54833	13440
4.54900	13313
4.54967	13189
4.55033	13066
4.55100	12946
4.55167	12828
4.55233	12712
4.55300	12598
4.55367	12487
4.55433	12377
4.55500	12269
4.55567	12164
4.55633	12060
4.55700	11958
4.55767	11858
4.55833	11760
4.55900	11664
4.55967	11569
4.56033	11477
4.56100	11386
4.56167	11297
4.56233	11209
4.56300	11124
4.56367	11040
4.56433	10957
4.56500	10877
4.56567	10797
4.56633	10720
4.56700	10644
4.56767	10569
4.56833	10496
4.56900	10424
4.56967	10354
4.57033	10285
4.57100	10217
4.57167	10151
4.57233	10086
4.57300	10022
4.57367	9960
4.57433	9899
4.57500	9839
4.57567	9780
4.57633	9723
4.57700	9667
4.57767	9612
4.57833	9558
4.57900	9505
4.57967	9453
4.58033	9402
4.58100	9352
4.58167	9304
4.58233	9256
4.58300	9209
4.58367	9163
4.58433	9118
4.58500	9075
4.58567	9032
4.58633	8989
4.58700	8948
4.58767	8908
4.58833	8868
4.58900	8830
4.58967	8792
4.59033	8755
4.59100	8718
4.59167	8683
4.59233	8648
4.59300	8614
4.59367	8580
4.59433	8548
4.59500	8515
4.59567	8484
4.59633	8453
4.59700	8423
4.59767	8393
4.59833	8364
4.59900	8336
4.59967	8308
4.60033	8281
4.60100	8254
4.60167	8228
4.60233	8202
4.60300	8177
4.60367	8152
4.60433	8128
4.60500	8104
4.60567	8081
4.60633	8058
4.60700	8036
4.60767	8014
4.60833	7992
4.60900	7971
4.60967	7951
4.61033	7930
4.61100	7910
4.61167	7891
4.61233	7871
4.61300	7852
4.61367	7834
4.61433	7815
4.61500	7797
4.61567	7780
4.61633	7762
4.61700	7746
4.61767	7729
4.61833	7713
4.61900	7697
4.61967	7681
4.62033	7665
4.62100	7650
4.62167	7635
4.62233	7621
4.62300	7606
4.62367	7592
4.62433	7578
4.62500	7565
4.62567	7551
4.62633	7538
4.62700	7525
4.62767	7513
4.62833	7500
4.62900	7488
4.62967	7476
4.63033	7464
4.63100	7452
4.63167	7441
4.63233	7429
4.63300	7418
4.63367	7407
4.63433	7396
4.63500	7385
4.63567	7375
4.63633	7364
4.63700	7354
4.63767	7344
4.63833	7334
4.63900	7324
4.63967	7315
4.64033	7305
4.64100	7296
4.64167	7286
4.64233	7277
4.64300	7268
4.64367	7259
4.64433	7250
4.64500	7241
4.64567	7233
4.64633	7224
4.64700	7216
4.64767	7207
4.64833	7199
4.64900	7191
4.64967	7183
4.65033	7175
4.65100	7167
4.65167	7159
4.65233	7151
4.65300	7143
4.65367	7135
4.65433	7128
4.65500	7120
4.65567	7113
4.65633	7105
4.65700	7098
4.65767	7091
4.65833	7084
4.65900	7076
4.65967	7069
4.66033	7062
4.66100	7055
4.66167	7049
4.66233	7042
4.66300	7035
4.66367	7028
4.66433	7022
4.66500	7015
4.66567	7009
4.66633	7003
4.66700	6996
4.66767	6990
4.66833	6984
4.66900	6978
4.66967	6972
4.67033	6966
4.67100	6959
4.67167	6953
4.67233	6948
4.67300	6942
4.67367	6936
4.67433	6930
4.67500	6924
4.67567	6918
4.67633	6912
4.67700	6907
4.67767	6901
4.67833	6895
4.67900	6890
4.67967	6884
4.68033	6879
4.68100	6873
4.68167	6868
4.68233	6862
4.68300	6857
4.68367	6852
4.68433	6847
4.68500	6841
4.68567	6836
4.68633	6831
4.68700	6826
4.68767	6821
4.68833	6816
4.68900	6811
4.68967	6806
4.69033	6801
4.69100	6796
4.69167	6791
4.69233	6786
4.69300	6781
4.69367	6776
4.69433	6771
4.69500	6766
4.69567	6761
4.69633	6756
4.69700	6751
4.69767	6747
4.69833	6742
4.69900	6737
4.69967	6732
4.70033	6727
4.70100	6723
4.70167	6718
4.70233	6713
4.70300	6708
4.70367	6704
4.70433	6699
4.70500	6694
4.70567	6690
4.70633	6685
4.70700	6680
4.70767	6676
4.70833	6671
4.70900	6667
4.70967	6662
4.71033	6658
4.71100	6653
4.71167	6649
4.71233	6645
4.71300	6640
4.71367	6636
4.71433	6632
4.71500	6628
4.71567	6623
4.71633	6619
4.71700	6615
4.71767	6611
4.71833	6606
4.71900	6602
4.71967	6598
4.72033	6593
4.72100	6589
4.72167	6585
4.72233	6581
4.72300	6576
4.72367	6572
4.72433	6568
4.72500	6564
4.72567	6559
4.72633	6555
4.72700	6551
4.72767	6546
4.72833	6542
4.72900	6538
4.72967	6533
4.73033	6529
4.73100	6525
4.73167	6521
4.73233	6517
4.73300	6512
4.73367	6508
4.73433	6504
4.73500	6500
4.73567	6496
4.73633	6492
4.73700	6488
4.73767	6484
4.73833	6479
4.73900	6475
4.73967	6471
4.74033	6467
4.74100	6463
4.74167	6459
4.74233	6455
4.74300	6452
4.74367	6448
4.74433	6444
4.74500	6440
4.74567	6436
4.74633	6432
4.74700	6429
4.74767	6425
4.74833	6421
4.74900	6418
4.74967	6414
4.75033	6410
4.75100	6407
4.75167	6403
4.75233	6400
4.75300	6396
4.75367	6393
4.75433	6389
4.75500	6386
4.75567	6382
4.75633	6379
4.75700	6375
4.75767	6372
4.75833	6368
4.75900	6365
4.75967	6361
4.76033	6358
4.76100	6354
4.76167	6351
4.76233	6347
4.76300	6344
4.76367	6341
4.76433	6337
4.76500	6334
4.76567	6330
4.76633	6327
4.76700	6323
4.76767	6320
4.76833	6317
4.76900	6313
4.76967	6310
4.77033	6307
4.77100	6304
4.77167	6301
4.77233	6297
4.77300	6294
4.77367	6291
4.77433	6288
4.77500	6285
4.77567	6282
4.77633	6279
4.77700	6276
4.77767	6273
4.77833	6269
4.77900	6266
4.77967	6263
4.78033	6260
4.78100	6257
4.78167	6254
4.78233	6251
4.78300	6248
4.78367	6245
4.78433	6242
4.78500	6239
4.78567	6236
4.78633	6233
4.78700	6230
4.78767	6228
4.78833	6225
4.78900	6222
4.78967	6219
4.79033	6216
4.79100	6214
4.79167	6211
4.79233	6208
4.79300	6206
4.79367	6203
4.79433	6201
4.79500	6198
4.79567	6196
4.79633	6193
4.79700	6191
4.79767	6188
4.79833	6186
4.79900	6183
4.79967	6181
4.80033	6179
4.80100	6176
4.80167	6174
4.80233	6172
4.80300	6170
4.80367	6168
4.80433	6165
4.80500	6163
4.80567	6161
4.80633	6159
4.80700	6157
4.80767	6155
4.80833	6153
4.80900	6151
4.80967	6149
4.81033	6147
4.81100	6145
4.81167	6143
4.81233	6141
4.81300	6139
4.81367	6137
4.81433	6136
4.81500	6134
4.81567	6132
4.81633	6130
4.81700	6128
4.81767	6126
4.81833	6125
4.81900	6123
4.81967	6121
4.82033	6119
4.82100	6118
4.82167	6116
4.82233	6114
4.82300	6113
4.82367	6111
4.82433	6110
4.82500	6108
4.82567	6106
4.82633	6105
4.82700	6103
4.82767	6101
4.82833	6100
4.82900	6098
4.82967	6097
4.83033	6095
4.83100	6094
4.83167	6092
4.83233	6091
4.83300	6089
4.83367	6088
4.83433	6087
4.83500	6085
4.83567	6084
4.83633	6083
4.83700	6081
4.83767	6080
4.83833	6079
4.83900	6077
4.83967	6076
4.84033	6075
4.84100	6073
4.84167	6072
4.84233	6070
4.84300	6069
4.84367	6068
4.84433	6066
4.84500	6065
4.84567	6064
4.84633	6062
4.84700	6061
4.84767	6060
4.84833	6058
4.84900	6057
4.84967	6056
4.85033	6055
4.85100	6053
4.85167	6052
4.85233	6051
4.85300	6050
4.85367	6049
4.85433	6048
4.85500	6047
4.85567	6045
4.85633	6044
4.85700	6043
4.85767	6042
4.85833	6041
4.85900	6040
4.85967	6039
4.86033	6037
4.86100	6036
4.86167	6035
4.86233	6034
4.86300	6033
4.86367	6032
4.86433	6030
4.86500	6029
4.86567	6028
4.86633	6027
4.86700	6026
4.86767	6024
4.86833	6023
4.86900	6022
4.86967	6021
4.87033	6019
4.87100	6018
4.87167	6017
4.87233	6016
4.87300	6014
4.87367	6013
4.87433	6012
4.87500	6010
4.87567	6009
4.87633	6008
4.87700	6007
4.87767	6005
4.87833	6004
4.87900	6003
4.87967	6002
4.88033	6001
4.88100	6000
4.88167	5998
4.88233	5997
4.88300	5996
4.88367	5995
4.88433	5994
4.88500	5993
4.88567	5991
4.88633	5990
4.88700	5989
4.88767	5988
4.88833	5987
4.88900	5985
4.88967	5984
4.89033	5983
4.89100	5982
4.89167	5980
4.89233	5979
4.89300	5978
4.89367	5977
4.89433	5975
4.89500	5974
4.89567	5973
4.89633	5972
4.89700	5971
4.89767	5969
4.89833	5968
4.89900	5967
4.89967	5966
4.90033	5965
4.90100	5964
4.90167	5963
4.90233	5962
4.90300	5961
4.90367	5959
4.90433	5958
4.90500	5957
4.90567	5956
4.90633	5955
4.90700	5954
4.90767	5953
4.90833	5953
4.90900	5952
4.90967	5951
4.91033	5950
4.91100	5949
4.91167	5948
4.91233	5948
4.91300	5947
4.91367	5946
4.91433	5945
4.91500	5945
4.91567	5944
4.91633	5943
4.91700	5942
4.91767	5942
4.91833	5941
4.91900	5940
4.91967	5939
4.92033	5939
4.92100	5938
4.92167	5937
4.92233	5936
4.92300	5935
4.92367	5935
4.92433	5934
4.92500	5933
4.92567	5932
4.92633	5931
4.92700	5931
4.92767	5930
4.92833	5929
4.92900	5928
4.92967	5927
4.93033	5927
4.93100	5926
4.93167	5925
4.93233	5924
4.93300	5923
4.93367	5922
4.93433	5922
4.93500	5921
4.93567	5920
4.93633	5919
4.93700	5918
4.93767	5917
4.93833	5916
4.93900	5915
4.93967	5914
4.94033	5913
4.94100	5912
4.94167	5911
4.94233	5910
4.94300	5909
4.94367	5907
4.94433	5906
4.94500	5905
4.94567	5904
4.94633	5903
4.94700	5902
4.94767	5901
4.94833	5900
4.94900	5899
4.94967	5898
4.95033	5897
4.95100	5896
4.95167	5895
4.95233	5894
4.95300	5893
4.95367	5892
4.95433	5891
4.95500	5890
4.95567	5889
4.95633	5888
4.95700	5887
4.95767	5886
4.95833	5885
4.95900	5884
4.95967	5883
4.96033	5883
4.96100	5882
4.96167	5881
4.96233	5880
4.96300	5879
4.96367	5878
4.96433	5878
4.96500	5877
4.96567	5876
4.96633	5875
4.96700	5874
4.96767	5873
4.96833	5873
4.96900	5872
4.96967	5871
4.97033	5870
4.97100	5869
4.97167	5869
4.97233	5868
4.97300	5867
4.97367	5866
4.97433	5866
4.97500	5865
4.97567	5864
4.97633	5864
4.97700	5863
4.97767	5862
4.97833	5862
4.97900	5861
4.97967	5860
4.98033	5860
4.98100	5859
4.98167	5859
4.98233	5858
4.98300	5858
4.98367	5857
4.98433	5857
4.98500	5856
4.98567	5856
4.98633	5855
4.98700	5855
4.98767	5854
4.98833	5854
4.98900	5853
4.98967	5853
4.99033	5852
4.99100	5852
4.99167	5851
4.99233	5851
4.99300	5850
4.99367	5850
4.99433	5849
4.99500	5849
4.99567	5848
4.99633	5848
4.99700	5847
4.99767	5847
4.99833	5846
4.99900	5846
4.99967	5845
5.00033	5845
5.00100	5844
5.00167	5844
5.00233	5843
5.00300	5843
5.00367	5842
5.00433	5842
5.00500	5841
5.00567	5841
5.00633	5840
5.00700	5840
5.00767	5839
5.00833	5839
5.00900	5838
5.00967	5838
5.01033	5838
5.01100	5837
5.01167	5837
5.01233	5836
5.01300	5836
5.01367	5836
5.01433	5835
5.01500	5835
5.01567	5835
5.01633	5834
5.01700	5834
5.01767	5834
5.01833	5834
5.01900	5833
5.01967	5833
5.02033	5833
5.02100	5832
5.02167	5832
5.02233	5832
5.02300	5831
5.02367	5831
5.02433	5831
5.02500	5830
5.02567	5830
5.02633	5829
5.02700	5829
5.02767	5829
5.02833	5828
5.02900	5828
5.02967	5827
5.03033	5827
5.03100	5826
5.03167	5826
5.03233	5825
5.03300	5825
5.03367	5824
5.03433	5824
5.03500	5823
5.03567	5823
5.03633	5822
5.03700	5822
5.03767	5821
5.03833	5820
5.03900	5820
5.03967	5819
5.04033	5818
5.04100	5818
5.04167	5817
5.04233	5816
5.04300	5816
5.04367	5815
5.04433	5814
5.04500	5814
5.04567	5813
5.04633	5812
5.04700	5812
5.04767	5811
5.04833	5810
5.04900	5809
5.04967	5809
5.05033	5808
5.05100	5807
5.05167	5807
5.05233	5806
5.05300	5805
5.05367	5805
5.05433	5804
5.05500	5804
5.05567	5803
5.05633	5802
5.05700	5802
5.05767	5801
5.05833	5801
5.05900	5800
5.05967	5800
5.06033	5799
5.06100	5799
5.06167	5798
5.06233	5798
5.06300	5797
5.06367	5797
5.06433	5796
5.06500	5796
5.06567	5795
5.06633	5795
5.06700	5794
5.06767	5794
5.06833	5793
5.06900	5793
5.06967	5792
5.07033	5792
5.07100	5791
5.07167	5791
5.07233	5790
5.07300	5790
5.07367	5789
5.07433	5789
5.07500	5788
5.07567	5788
5.07633	5787
5.07700	5786
5.07767	5786
5.07833	5785
5.07900	5785
5.07967	5784
5.08033	5783
5.08100	5783
5.08167	5782
5.08233	5782
5.08300	5781
5.08367	5780
5.08433	5780
5.08500	5779
5.08567	5778
5.08633	5778
5.08700	5777
5.08767	5776
5.08833	5775
5.08900	5775
5.08967	5774
5.09033	5773
5.09100	5772
5.09167	5771
5.09233	5771
5.09300	5770
5.09367	5769
5.09433	5768
5.09500	5767
5.09567	5766
5.09633	5765
5.09700	5764
5.09767	5763
5.09833	5762
5.09900	5761
5.09967	5761
5.10033	5760
5.10100	5759
5.10167	5758
5.10233	5757
5.10300	5756
5.10367	5755
5.10433	5754
5.10500	5753
5.10567	5752
5.10633	5751
5.10700	5750
5.10767	5749
5.10833	5748
5.10900	5746
5.10967	5745
5.11033	5744
5.11100	5743
5.11167	5742
5.11233	5741
5.11300	5740
5.11367	5738
5.11433	5737
5.11500	5736
5.11567	5735
5.11633	5734
5.11700	5732
5.11767	5731
5.11833	5730
5.11900	5729
5.11967	5727
5.12033	5726
5.12100	5725
5.12167	5724
5.12233	5722
5.12300	5721
5.12367	5720
5.12433	5718
5.12500	5717
5.12567	5716
5.12633	5714
5.12700	5713
5.12767	5712
5.12833	5710
5.12900	5709
5.12967	5707
5.13033	5706
5.13100	5705
5.13167	5703
5.13233	5702
5.13300	5701
5.13367	5699
5.13433	5698
5.13500	5696
5.13567	5695
5.13633	5694
5.13700	5692
5.13767	5691
5.13833	5690
5.13900	5688
5.13967	5687
5.14033	5686
5.14100	5684
5.14167	5683
5.14233	5681
5.14300	5680
5.14367	5679
5.14433	5677
5.14500	5676
5.14567	5675
5.14633	5673
5.14700	5672
5.14767	5671
5.14833	5669
5.14900	5668
5.14967	5667
5.15033	5665
5.15100	5664
5.15167	5663
5.15233	5661
5.15300	5660
5.15367	5659
5.15433	5657
5.15500	5656
5.15567	5655
5.15633	5653
5.15700	5652
5.15767	5651
5.15833	5650
5.15900	5648
5.15967	5647
5.16033	5646
5.16100	5645
5.16167	5643
5.16233	5642
5.16300	5641
5.16367	5640
5.16433	5638
5.16500	5637
5.16567	5636
5.16633	5635
5.16700	5633
5.16767	5632
5.16833	5631
5.16900	5630
5.16967	5629
5.17033	5627
5.17100	5626
5.17167	5625
5.17233	5624
5.17300	5622
5.17367	5621
5.17433	5620
5.17500	5619
5.17567	5617
5.17633	5616
5.17700	5615
5.17767	5613
5.17833	5612
5.17900	5611
5.17967	5609
5.18033	5608
5.18100	5607
5.18167	5605
5.18233	5604
5.18300	5603
5.18367	5601
5.18433	5600
5.18500	5599
5.18567	5597
5.18633	5596
5.18700	5595
5.18767	5594
5.18833	5592
5.18900	5591
5.18967	5590
5.19033	5588
5.19100	5587
5.19167	5586
5.19233	5585
5.19300	5584
5.19367	5582
5.19433	5581
5.19500	5580
5.19567	5579
5.19633	5578
5.19700	5577
5.19767	5576
5.19833	5575
5.19900	5574
5.19967	5572
5.20033	5571
5.20100	5570
5.20167	5569
5.20233	5568
5.20300	5567
5.20367	5566
5.20433	5565
5.20500	5564
5.20567	5563
5.20633	5562
5.20700	5560
5.20767	5559
5.20833	5558
5.20900	5557
5.20967	5556
5.21033	5555
5.21100	5554
5.21167	5553
5.21233	5552
5.21300	5551
5.21367	5550
5.21433	5549
5.21500	5548
5.21567	5547
5.21633	5546
5.21700	5545
5.21767	5544
5.21833	5543
5.21900	5542
5.21967	5541
5.22033	5540
5.22100	5539
5.22167	5538
5.22233	5537
5.22300	5536
5.22367	5535
5.22433	5534
5.22500	5533
5.22567	5532
5.22633	5531
5.22700	5530
5.22767	5529
5.22833	5528
5.22900	5527
5.22967	5526
5.23033	5525
5.23100	5524
5.23167	5523
5.23233	5522
5.23300	5521
5.23367	5520
5.23433	5519
5.23500	5518
5.23567	5517
5.23633	5516
5.23700	5515
5.23767	5514
5.23833	5513
5.23900	5512
5.23967	5512
5.24033	5511
5.24100	5510
5.24167	5509
5.24233	5508
5.24300	5507
5.24367	5506
5.24433	5506
5.24500	5505
5.24567	5504
5.24633	5503
5.24700	5502
5.24767	5501
5.24833	5501
5.24900	5500
5.24967	5499
5.25033	5498
5.25100	5497
5.25167	5496
5.25233	5495
5.25300	5494
5.25367	5493
5.25433	5492
5.25500	5491
5.25567	5490
5.25633	5489
5.25700	5488
5.25767	5487
5.25833	5486
5.25900	5485
5.25967	5484
5.26033	5483
5.26100	5482
5.26167	5481
5.26233	5480
5.26300	5479
5.26367	5478
5.26433	5477
5.26500	5476
5.26567	5475
5.26633	5474
5.26700	5473
5.26767	5472
5.26833	5470
5.26900	5469
5.26967	5468
5.27033	5467
5.27100	5466
5.27167	5466
5.27233	5465
5.27300	5464
5.27367	5463
5.27433	5462
5.27500	5461
5.27567	5460
5.27633	5459
5.27700	5459
5.27767	5458
5.27833	5457
5.27900	5456
5.27967	5455
5.28033	5455
5.28100	5454
5.28167	5453
5.28233	5452
5.28300	5452
5.28367	5451
5.28433	5450
5.28500	5449
5.28567	5449
5.28633	5448
5.28700	5448
5.28767	5447
5.28833	5446
5.28900	5446
5.28967	5445
5.29033	5445
5.29100	5444
5.29167	5443
5.29233	5443
5.29300	5442
5.29367	5442
5.29433	5441
5.29500	5441
5.29567	5440
5.29633	5440
5.29700	5439
5.29767	5439
5.29833	5438
5.29900	5438
5.29967	5437
5.30033	5437
5.30100	5437
5.30167	5436
5.30233	5436
5.30300	5435
5.30367	5435
5.30433	5434
5.30500	5434
5.30567	5434
5.30633	5433
5.30700	5433
5.30767	5432
5.30833	5432
5.30900	5432
5.30967	5431
5.31033	5431
5.31100	5430
5.31167	5430
5.31233	5430
5.31300	5429
5.31367	5429
5.31433	5428
5.31500	5428
5.31567	5428
5.31633	5427
5.31700	5427
5.31767	5426
5.31833	5426
5.31900	5425
5.31967	5425
5.32033	5425
5.32100	5424
5.32167	5424
5.32233	5423
5.32300	5422
5.32367	5422
5.32433	5421
5.32500	5421
5.32567	5420
5.32633	5419
5.32700	5419
5.32767	5418
5.32833	5417
5.32900	5417
5.32967	5416
5.33033	5416
5.33100	5415
5.33167	5414
5.33233	5414
5.33300	5413
5.33367	5412
5.33433	5412
5.33500	5411
5.33567	5410
5.33633	5410
5.33700	5409
5.33767	5408
5.33833	5408
5.33900	5407
5.33967	5407
5.34033	5406
5.34100	5406
5.34167	5405
5.34233	5404
5.34300	5404
5.34367	5403
5.34433	5403
5.34500	5402
5.34567	5401
5.34633	5401
5.34700	5400
5.34767	5399
5.34833	5399
5.34900	5398
5.34967	5397
5.35033	5397
5.35100	5396
5.35167	5395
5.35233	5395
5.35300	5394
5.35367	5394
5.35433	5393
5.35500	5392
5.35567	5392
5.35633	5391
5.35700	5390
5.35767	5389
5.35833	5389
5.35900	5388
5.35967	5387
5.36033	5387
5.36100	5386
5.36167	5386
5.36233	5385
5.36300	5384
5.36367	5384
5.36433	5383
5.36500	5383
5.36567	5382
5.36633	5382
5.36700	5381
5.36767	5381
5.36833	5380
5.36900	5380
5.36967	5379
5.37033	5379
5.37100	5378
5.37167	5378
5.37233	5377
5.37300	5377
5.37367	5376
5.37433	5376
5.37500	5375
5.37567	5374
5.37633	5374
5.37700	5373
5.37767	5372
5.37833	5372
5.37900	5371
5.37967	5370
5.38033	5369
5.38100	5368
5.38167	5368
5.38233	5367
5.38300	5366
5.38367	5365
5.38433	5364
5.38500	5364
5.38567	5363
5.38633	5362
5.38700	5361
5.38767	5360
5.38833	5359
5.38900	5359
5.38967	5358
5.39033	5357
5.39100	5356
5.39167	5356
5.39233	5355
5.39300	5354
5.39367	5353
5.39433	5352
5.39500	5352
5.39567	5351
5.39633	5350
5.39700	5349
5.39767	5349
5.39833	5348
5.39900	5347
5.39967	5346
5.40033	5346
5.40100	5345
5.40167	5344
5.40233	5344
5.40300	5343
5.40367	5342
5.40433	5342
5.40500	5341
5.40567	5340
5.40633	5340
5.40700	5339
5.40767	5339
5.40833	5338
5.40900	5338
5.40967	5337
5.41033	5337
5.41100	5336
5.41167	5336
5.41233	5335
5.41300	5335
5.41367	5334
5.41433	5334
5.41500	5333
5.41567	5333
5.41633	5332
5.41700	5332
5.41767	5331
5.41833	5331
5.41900	5330
5.41967	5330
5.42033	5329
5.42100	5329
5.42167	5328
5.42233	5328
5.42300	5327
5.42367	5327
5.42433	5326
5.42500	5326
5.42567	5325
5.42633	5325
5.42700	5324
5.42767	5324
5.42833	5323
5.42900	5323
5.42967	5323
5.43033	5322
5.43100	5322
5.43167	5322
5.43233	5321
5.43300	5321
5.43367	5320
5.43433	5320
5.43500	5320
5.43567	5319
5.43633	5319
5.43700	5319
5.43767	5318
5.43833	5318
5.43900	5317
5.43967	5317
5.44033	5317
5.44100	5316
5.44167	5316
5.44233	5315
5.44300	5315
5.44367	5314
5.44433	5314
5.44500	5313
5.44567	5313
5.44633	5313
5.44700	5312
5.44767	5312
5.44833	5311
5.44900	5311
5.44967	5310
5.45033	5310
5.45100	5309
5.45167	5309
5.45233	5308
5.45300	5308
5.45367	5307
5.45433	5307
5.45500	5306
5.45567	5306
5.45633	5305
5.45700	5305
5.45767	5304
5.45833	5303
5.45900	5303
5.45967	5302
5.46033	5302
5.46100	5301
5.46167	5301
5.46233	5300
5.46300	5299
5.46367	5299
5.46433	5298
5.46500	5298
5.46567	5297
5.46633	5296
5.46700	5296
5.46767	5295
5.46833	5295
5.46900	5294
5.46967	5294
5.47033	5293
5.47100	5293
5.47167	5292
5.47233	5292
5.47300	5292
5.47367	5291
5.47433	5291
5.47500	5290
5.47567	5290
5.47633	5290
5.47700	5289
5.47767	5289
5.47833	5289
5.47900	5288
5.47967	5288
5.48033	5287
5.48100	5287
5.48167	5287
5.48233	5286
5.48300	5286
5.48367	5285
5.48433	5285
5.48500	5284
5.48567	5284
5.48633	5284
5.48700	5283
5.48767	5283
5.48833	5282
5.48900	5282
5.48967	5282
5.49033	5281
5.49100	5281
5.49167	5280
5.49233	5280
5.49300	5280
5.49367	5279
5.49433	5279
5.49500	5279
5.49567	5278
5.49633	5278
5.49700	5278
5.49767	5277
5.49833	5277
5.49900	5277
5.49967	5276
5.50033	5276
5.50100	5276
5.50167	5275
5.50233	5275
5.50300	5275
5.50367	5274
5.50433	5274
5.50500	5274
5.50567	5273
5.50633	5273
5.50700	5273
5.50767	5273
5.50833	5272
5.50900	5272
5.50967	5272
5.51033	5271
5.51100	5271
5.51167	5271
5.51233	5270
5.51300	5270
5.51367	5270
5.51433	5269
5.51500	5269
5.51567	5269
5.51633	5268
5.51700	5268
5.51767	5268
5.51833	5267
5.51900	5267
5.51967	5266
5.52033	5266
5.52100	5265
5.52167	5265
5.52233	5265
5.52300	5264
5.52367	5264
5.52433	5263
5.52500	5263
5.52567	5262
5.52633	5262
5.52700	5262
5.52767	5261
5.52833	5261
5.52900	5260
5.52967	5260
5.53033	5259
5.53100	5259
5.53167	5259
5.53233	5258
5.53300	5258
5.53367	5257
5.53433	5257
5.53500	5256
5.53567	5256
5.53633	5255
5.53700	5255
5.53767	5255
5.53833	5254
5.53900	5254
5.53967	5253
5.54033	5253
5.54100	5252
5.54167	5252
5.54233	5251
5.54300	5251
5.54367	5251
5.54433	5250
5.54500	5250
5.54567	5249
5.54633	5249
5.54700	5248
5.54767	5248
5.54833	5248
5.54900	5247
5.54967	5247
5.55033	5246
5.55100	5246
5.55167	5245
5.55233	5245
5.55300	5245
5.55367	5244
5.55433	5244
5.55500	5243
5.55567	5243
5.55633	5242
5.55700	5242
5.55767	5241
5.55833	5241
5.55900	5241
5.55967	5240
5.56033	5240
5.56100	5239
5.56167	5239
5.56233	5239
5.56300	5238
5.56367	5238
5.56433	5238
5.56500	5237
5.56567	5237
5.56633	5236
5.56700	5236
5.56767	5236
5.56833	5236
5.56900	5235
5.56967	5235
5.57033	5234
5.57100	5234
5.57167	5234
5.57233	5233
5.57300	5233
5.57367	5233
5.57433	5232
5.57500	5232
5.57567	5231
5.57633	5231
5.57700	5231
5.57767	5230
5.57833	5230
5.57900	5230
5.57967	5229
5.58033	5229
5.58100	5229
5.58167	5229
5.58233	5228
5.58300	5228
5.58367	5228
5.58433	5228
5.58500	5228
5.58567	5227
5.58633	5227
5.58700	5227
5.58767	5227
5.58833	5226
5.58900	5226
5.58967	5226
5.59033	5226
5.59100	5226
5.59167	5225
5.59233	5225
5.59300	5225
5.59367	5225
5.59433	5225
5.59500	5225
5.59567	5225
5.59633	5224
5.59700	5224
5.59767	5224
5.59833	5224
5.59900	5224
5.59967	5224
5.60033	5223
5.60100	5223
5.60167	5223
5.60233	5223
5.60300	5223
5.60367	5222
5.60433	5222
5.60500	5222
5.60567	5222
5.60633	5222
5.60700	5221
5.60767	5221
5.60833	5221
5.60900	5221
5.60967	5220
5.61033	5220
5.61100	5220
5.61167	5220
5.61233	5219
5.61300	5219
5.61367	5219
5.61433	5218
5.61500	5218
5.61567	5218
5.61633	5217
5.61700	5217
5.61767	5217
5.61833	5217
5.61900	5216
5.61967	5216
5.62033	5216
5.62100	5216
5.62167	5215
5.62233	5215
5.62300	5215
5.62367	5215
5.62433	5215
5.62500	5214
5.62567	5214
5.62633	5214
5.62700	5214
5.62767	5213
5.62833	5213
5.62900	5213
5.62967	5213
5.63033	5213
5.63100	5212
5.63167	5212
5.63233	5212
5.63300	5212
5.63367	5212
5.63433	5211
5.63500	5211
5.63567	5211
5.63633	5211
5.63700	5210
5.63767	5210
5.63833	5210
5.63900	5210
5.63967	5209
5.64033	5209
5.64100	5209
5.64167	5208
5.64233	5208
5.64300	5208
5.64367	5208
5.64433	5208
5.64500	5207
5.64567	5207
5.64633	5207
5.64700	5207
5.64767	5207
5.64833	5207
5.64900	5207
5.64967	5207
5.65033	5206
5.65100	5206
5.65167	5206
5.65233	5206
5.65300	5206
5.65367	5206
5.65433	5205
5.65500	5205
5.65567	5205
5.65633	5205
5.65700	5205
5.65767	5205
5.65833	5204
5.65900	5204
5.65967	5204
5.66033	5204
5.66100	5204
5.66167	5204
5.66233	5204
5.66300	5204
5.66367	5203
5.66433	5203
5.66500	5203
5.66567	5203
5.66633	5203
5.66700	5203
5.66767	5203
5.66833	5203
5.66900	5203
5.66967	5203
5.67033	5203
5.67100	5202
5.67167	5202
5.67233	5202
5.67300	5202
5.67367	5202
5.67433	5202
5.67500	5202
5.67567	5202
5.67633	5201
5.67700	5201
5.67767	5201
5.67833	5201
5.67900	5201
5.67967	5200
5.68033	5200
5.68100	5200
5.68167	5200
5.68233	5200
5.68300	5200
5.68367	5199
5.68433	5199
5.68500	5199
5.68567	5199
5.68633	5199
5.68700	5198
5.68767	5198
5.68833	5198
5.68900	5198
5.68967	5198
5.69033	5198
5.69100	5198
5.69167	5197
5.69233	5197
5.69300	5197
5.69367	5197
5.69433	5197
5.69500	5196
5.69567	5196
5.69633	5196
5.69700	5196
5.69767	5196
5.69833	5196
5.69900	5195
5.69967	5195
5.70033	5195
5.70100	5195
5.70167	5195
5.70233	5195
5.70300	5195
5.70367	5195
5.70433	5195
5.70500	5194
5.70567	5194
5.70633	5194
5.70700	5194
5.70767	5194
5.70833	5194
5.70900	5194
5.70967	5193
5.71033	5193
5.71100	5193
5.71167	5193
5.71233	5193
5.71300	5193
5.71367	5192
5.71433	5192
5.71500	5192
5.71567	5192
5.71633	5192
5.71700	5191
5.71767	5191
5.71833	5191
5.71900	5191
5.71967	5190
5.72033	5190
5.72100	5190
5.72167	5190
5.72233	5190
5.72300	5190
5.72367	5190
5.72433	5189
5.72500	5189
5.72567	5189
5.72633	5189
5.72700	5189
5.72767	5189
5.72833	5189
5.72900	5189
5.72967	5189
5.73033	5189
5.73100	5189
5.73167	5189
5.73233	5188
5.73300	5188
5.73367	5188
5.73433	5188
5.73500	5188
5.73567	5187
5.73633	5187
5.73700	5187
5.73767	5187
5.73833	5187
5.73900	5186
5.73967	5186
5.74033	5186
5.74100	5186
5.74167	5186
5.74233	5185
5.74300	5185
5.74367	5185
5.74433	5185
5.74500	5185
5.74567	5185
5.74633	5184
5.74700	5184
5.74767	5184
5.74833	5184
5.74900	5184
5.74967	5184
5.75033	5184
5.75100	5184
5.75167	5184
5.75233	5184
5.75300	5184
5.75367	5184
5.75433	5184
5.75500	5184
5.75567	5184
5.75633	5184
5.75700	5185
5.75767	5185
5.75833	5185
5.75900	5185
5.75967	5185
5.76033	5185
5.76100	5185
5.76167	5185
5.76233	5185
5.76300	5185
5.76367	5186
5.76433	5186
5.76500	5186
5.76567	5186
5.76633	5186
5.76700	5186
5.76767	5186
5.76833	5186
5.76900	5186
5.76967	5186
5.77033	5186
5.77100	5186
5.77167	5186
5.77233	5186
5.77300	5187
5.77367	5187
5.77433	5187
5.77500	5187
5.77567	5187
5.77633	5187
5.77700	5188
5.77767	5188
5.77833	5188
5.77900	5188
5.77967	5189
5.78033	5189
5.78100	5189
5.78167	5189
5.78233	5189
5.78300	5190
5.78367	5190
5.78433	5190
5.78500	5190
5.78567	5190
5.78633	5191
5.78700	5191
5.78767	5191
5.78833	5191
5.78900	5191
5.78967	5191
5.79033	5191
5.79100	5192
5.79167	5192
5.79233	5192
5.79300	5192
5.79367	5192
5.79433	5192
5.79500	5193
5.79567	5193
5.79633	5193
5.79700	5193
5.79767	5194
5.79833	5194
5.79900	5194
5.79967	5194
5.80033	5195
5.80100	5195
5.80167	5195
5.80233	5195
5.80300	5196
5.80367	5196
5.80433	5196
5.80500	5197
5.80567	5197
5.80633	5197
5.80700	5198
5.80767	5198
5.80833	5199
5.80900	5199
5.80967	5200
5.81033	5200
5.81100	5200
5.81167	5201
5.81233	5201
5.81300	5202
5.81367	5202
5.81433	5203
5.81500	5203
5.81567	5204
5.81633	5204
5.81700	5205
5.81767	5205
5.81833	5205
5.81900	5206
5.81967	5206
5.82033	5207
5.82100	5207
5.82167	5208
5.82233	5208
5.82300	5208
5.82367	5209
5.82433	5209
5.82500	5210
5.82567	5210
5.82633	5211
5.82700	5211
5.82767	5212
5.82833	5212
5.82900	5213
5.82967	5213
5.83033	5214
5.83100	5214
5.83167	5215
5.83233	5215
5.83300	5216
5.83367	5216
5.83433	5217
5.83500	5217
5.83567	5218
5.83633	5218
5.83700	5218
5.83767	5219
5.83833	5219
5.83900	5220
5.83967	5220
5.84033	5220
5.84100	5221
5.84167	5221
5.84233	5222
5.84300	5222
5.84367	5223
5.84433	5223
5.84500	5224
5.84567	5224
5.84633	5224
5.84700	5225
5.84767	5225
5.84833	5226
5.84900	5226
5.84967	5227
5.85033	5227
5.85100	5228
5.85167	5229
5.85233	5229
5.85300	5230
5.85367	5230
5.85433	5231
5.85500	5232
5.85567	5232
5.85633	5233
5.85700	5233
5.85767	5234
5.85833	5234
5.85900	5235
5.85967	5235
5.86033	5236
5.86100	5237
5.86167	5237
5.86233	5238
5.86300	5238
5.86367	5239
5.86433	5239
5.86500	5240
5.86567	5240
5.86633	5241
5.86700	5241
5.86767	5242
5.86833	5243
5.86900	5243
5.86967	5244
5.87033	5244
5.87100	5245
5.87167	5245
5.87233	5245
5.87300	5246
5.87367	5246
5.87433	5247
5.87500	5247
5.87567	5248
5.87633	5248
5.87700	5249
5.87767	5249
5.87833	5249
5.87900	5250
5.87967	5250
5.88033	5251
5.88100	5251
5.88167	5251
5.88233	5252
5.88300	5252
5.88367	5253
5.88433	5253
5.88500	5253
5.88567	5254
5.88633	5254
5.88700	5255
5.88767	5255
5.88833	5255
5.88900	5256
5.88967	5256
5.89033	5256
5.89100	5256
5.89167	5257
5.89233	5257
5.89300	5257
5.89367	5257
5.89433	5258
5.89500	5258
5.89567	5258
5.89633	5258
5.89700	5258
5.89767	5258
5.89833	5258
5.89900	5258
5.89967	5259
5.90033	5259
5.90100	5259
5.90167	5259
5.90233	5259
5.90300	5258
5.90367	5258
5.90433	5258
5.90500	5258
5.90567	5258
5.90633	5258
5.90700	5258
5.90767	5258
5.90833	5258
5.90900	5258
5.90967	5258
5.91033	5258
5.91100	5258
5.91167	5258
5.91233	5258
5.91300	5258
5.91367	5258
5.91433	5258
5.91500	5258
5.91567	5257
5.91633	5257
5.91700	5257
5.91767	5257
5.91833	5257
5.91900	5257
5.91967	5257
5.92033	5256
5.92100	5256
5.92167	5256
5.92233	5256
5.92300	5256
5.92367	5256
5.92433	5256
5.92500	5255
5.92567	5255
5.92633	5255
5.92700	5255
5.92767	5255
5.92833	5255
5.92900	5255
5.92967	5254
5.93033	5254
5.93100	5254
5.93167	5254
5.93233	5254
5.93300	5254
5.93367	5254
5.93433	5254
5.93500	5253
5.93567	5253
5.93633	5253
5.93700	5253
5.93767	5253
5.93833	5253
5.93900	5253
5.93967	5253
5.94033	5252
5.94100	5252
5.94167	5252
5.94233	5252
5.94300	5252
5.94367	5251
5.94433	5251
5.94500	5251
5.94567	5251
5.94633	5250
5.94700	5250
5.94767	5250
5.94833	5250
5.94900	5249
5.94967	5249
5.95033	5249
5.95100	5249
5.95167	5248
5.95233	5248
5.95300	5248
5.95367	5248
5.95433	5248
5.95500	5247
5.95567	5247
5.95633	5247
5.95700	5247
5.95767	5247
5.95833	5246
5.95900	5246
5.95967	5246
5.96033	5246
5.96100	5245
5.96167	5245
5.96233	5245
5.96300	5245
5.96367	5245
5.96433	5244
5.96500	5244
5.96567	5244
5.96633	5244
5.96700	5244
5.96767	5244
5.96833	5243
5.96900	5243
5.96967	5243
5.97033	5243
5.97100	5242
5.97167	5242
5.97233	5242
5.97300	5241
5.97367	5241
5.97433	5241
5.97500	5241
5.97567	5241
5.97633	5240
5.97700	5240
5.97767	5240
5.97833	5240
5.97900	5239
5.97967	5239
5.98033	5239
5.98100	5238
5.98167	5238
5.98233	5238
5.98300	5237
5.98367	5237
5.98433	5237
5.98500	5236
5.98567	5236
5.98633	5236
5.98700	5235
5.98767	5235
5.98833	5235
5.98900	5235
5.98967	5234
5.99033	5234
5.99100	5234
5.99167	5234
5.99233	5234
5.99300	5233
5.99367	5233
5.99433	5233
5.99500	5232
5.99567	5232
5.99633	5232
5.99700	5232
5.99767	5231
5.99833	5231
5.99900	5231
5.99967	5230
6.00033	5230
6.00100	5230
6.00167	5230
6.00233	5229
6.00300	5229
6.00367	5229
6.00433	5229
6.00500	5228
6.00567	5228
6.00633	5228
6.00700	5228
6.00767	5228
6.00833	5227
6.00900	5227
6.00967	5227
6.01033	5227
6.01100	5227
6.01167	5227
6.01233	5227
6.01300	5227
6.01367	5227
6.01433	5227
6.01500	5227
6.01567	5227
6.01633	5227
6.01700	5227
6.01767	5227
6.01833	5227
6.01900	5227
6.01967	5228
6.02033	5228
6.02100	5228
6.02167	5228
6.02233	5228
6.02300	5228
6.02367	5229
6.02433	5229
6.02500	5229
6.02567	5229
6.02633	5229
6.02700	5230
6.02767	5230
6.02833	5230
6.02900	5230
6.02967	5230
6.03033	5230
6.03100	5231
6.03167	5231
6.03233	5231
6.03300	5231
6.03367	5231
6.03433	5231
6.03500	5231
6.03567	5232
6.03633	5232
6.03700	5232
6.03767	5232
6.03833	5232
6.03900	5232
6.03967	5232
6.04033	5232
6.04100	5232
6.04167	5232
6.04233	5232
6.04300	5232
6.04367	5232
6.04433	5232
6.04500	5232
6.04567	5232
6.04633	5232
6.04700	5232
6.04767	5232
6.04833	5232
6.04900	5232
6.04967	5232
6.05033	5232
6.05100	5232
6.05167	5232
6.05233	5231
6.05300	5231
6.05367	5231
6.05433	5231
6.05500	5231
6.05567	5231
6.05633	5231
6.05700	5231
6.05767	5231
6.05833	5231
6.05900	5231
6.05967	5231
6.06033	5231
6.06100	5231
6.06167	5231
6.06233	5231
6.06300	5231
6.06367	5232
6.06433	5232
6.06500	5232
6.06567	5232
6.06633	5232
6.06700	5232
6.06767	5232
6.06833	5232
6.06900	5232
6.06967	5232
6.07033	5233
6.07100	5233
6.07167	5233
6.07233	5233
6.07300	5233
6.07367	5234
6.07433	5234
6.07500	5234
6.07567	5234
6.07633	5234
6.07700	5235
6.07767	5235
6.07833	5235
6.07900	5235
6.07967	5235
6.08033	5236
6.08100	5236
6.08167	5236
6.08233	5236
6.08300	5236
6.08367	5237
6.08433	5237
6.08500	5237
6.08567	5237
6.08633	5237
6.08700	5237
6.08767	5238
6.08833	5238
6.08900	5238
6.08967	5238
6.09033	5238
6.09100	5239
6.09167	5239
6.09233	5239
6.09300	5239
6.09367	5239
6.09433	5239
6.09500	5239
6.09567	5239
6.09633	5240
6.09700	5240
6.09767	5240
6.09833	5240
6.09900	5240
6.09967	5240
6.10033	5240
6.10100	5240
6.10167	5241
6.10233	5241
6.10300	5241
6.10367	5241
6.10433	5241
6.10500	5241
6.10567	5241
6.10633	5242
6.10700	5242
6.10767	5242
6.10833	5242
6.10900	5242
6.10967	5242
6.11033	5242
6.11100	5242
6.11167	5243
6.11233	5243
6.11300	5243
6.11367	5243
6.11433	5243
6.11500	5243
6.11567	5243
6.11633	5244
6.11700	5244
6.11767	5244
6.11833	5244
6.11900	5244
6.11967	5244
6.12033	5244
6.12100	5245
6.12167	5245
6.12233	5245
6.12300	5245
6.12367	5246
6.12433	5246
6.12500	5246
6.12567	5246
6.12633	5246
6.12700	5247
6.12767	5247
6.12833	5247
6.12900	5247
6.12967	5248
6.13033	5248
6.13100	5248
6.13167	5248
6.13233	5249
6.13300	5249
6.13367	5249
6.13433	5249
6.13500	5250
6.13567	5250
6.13633	5250
6.13700	5250
6.13767	5250
6.13833	5251
6.13900	5251
6.13967	5251
6.14033	5251
6.14100	5251
6.14167	5251
6.14233	5251
6.14300	5251
6.14367	5252
6.14433	5252
6.14500	5252
6.14567	5252
6.14633	5252
6.14700	5253
6.14767	5253
6.14833	5253
6.14900	5253
6.14967	5254
6.15033	5254
6.15100	5254
6.15167	5254
6.15233	5254
6.15300	5255
6.15367	5255
6.15433	5255
6.15500	5255
6.15567	5256
6.15633	5256
6.15700	5256
6.15767	5256
6.15833	5257
6.15900	5257
6.15967	5257
6.16033	5258
6.16100	5258
6.16167	5258
6.16233	5258
6.16300	5259
6.16367	5259
6.16433	5259
6.16500	5260
6.16567	5260
6.16633	5260
6.16700	5261
6.16767	5261
6.16833	5261
6.16900	5261
6.16967	5262
6.17033	5262
6.17100	5262
6.17167	5262
6.17233	5262
6.17300	5262
6.17367	5263
6.17433	5263
6.17500	5263
6.17567	5263
6.17633	5263
6.17700	5263
6.17767	5263
6.17833	5263
6.17900	5264
6.17967	5264
6.18033	5264
6.18100	5264
6.18167	5264
6.18233	5264
6.18300	5264
6.18367	5264
6.18433	5264
6.18500	5265
6.18567	5265
6.18633	5265
6.18700	5265
6.18767	5265
6.18833	5266
6.18900	5266
6.18967	5266
6.19033	5266
6.19100	5266
6.19167	5267
6.19233	5267
6.19300	5267
6.19367	5267
6.19433	5268
6.19500	5268
6.19567	5268
6.19633	5268
6.19700	5268
6.19767	5269
6.19833	5269
6.19900	5269
6.19967	5270
6.20033	5270
6.20100	5270
6.20167	5270
6.20233	5270
6.20300	5271
6.20367	5271
6.20433	5271
6.20500	5271
6.20567	5272
6.20633	5272
6.20700	5272
6.20767	5272
6.20833	5273
6.20900	5273
6.20967	5273
6.21033	5274
6.21100	5274
6.21167	5274
6.21233	5275
6.21300	5275
6.21367	5276
6.21433	5276
6.21500	5276
6.21567	5277
6.21633	5277
6.21700	5278
6.21767	5278
6.21833	5278
6.21900	5279
6.21967	5279
6.22033	5279
6.22100	5280
6.22167	5280
6.22233	5281
6.22300	5281
6.22367	5281
6.22433	5282
6.22500	5282
6.22567	5283
6.22633	5283
6.22700	5283
6.22767	5284
6.22833	5284
6.22900	5284
6.22967	5285
6.23033	5285
6.23100	5285
6.23167	5286
6.23233	5286
6.23300	5286
6.23367	5286
6.23433	5287
6.23500	5287
6.23567	5287
6.23633	5288
6.23700	5288
6.23767	5288
6.23833	5289
6.23900	5289
6.23967	5289
6.24033	5290
6.24100	5290
6.24167	5290
6.24233	5291
6.24300	5291
6.24367	5291
6.24433	5292
6.24500	5292
6.24567	5292
6.24633	5292
6.24700	5293
6.24767	5293
6.24833	5293
6.24900	5294
6.24967	5294
6.25033	5294
6.25100	5294
6.25167	5295
6.25233	5295
6.25300	5295
6.25367	5296
6.25433	5296
6.25500	5296
6.25567	5296
6.25633	5297
6.25700	5297
6.25767	5297
6.25833	5298
6.25900	5298
6.25967	5298
6.26033	5298
6.26100	5299
6.26167	5299
6.26233	5300
6.26300	5300
6.26367	5300
6.26433	5301
6.26500	5301
6.26567	5301
6.26633	5302
6.26700	5302
6.26767	5302
6.26833	5303
6.26900	5303
6.26967	5303
6.27033	5304
6.27100	5304
6.27167	5304
6.27233	5305
6.27300	5305
6.27367	5305
6.27433	5306
6.27500	5306
6.27567	5306
6.27633	5307
6.27700	5307
6.27767	5308
6.27833	5308
6.27900	5309
6.27967	5309
6.28033	5309
6.28100	5310
6.28167	5310
6.28233	5311
6.28300	5311
6.28367	5312
6.28433	5313
6.28500	5313
6.28567	5314
6.28633	5314
6.28700	5315
6.28767	5315
6.28833	5316
6.28900	5316
6.28967	5317
6.29033	5317
6.29100	5318
6.29167	5318
6.29233	5319
6.29300	5319
6.29367	5320
6.29433	5320
6.29500	5321
6.29567	5321
6.29633	5322
6.29700	5322
6.29767	5323
6.29833	5324
6.29900	5324
6.29967	5325
6.30033	5325
6.30100	5326
6.30167	5327
6.30233	5327
6.30300	5328
6.30367	5328
6.30433	5329
6.30500	5329
6.30567	5330
6.30633	5330
6.30700	5331
6.30767	5332
6.30833	5332
6.30900	5333
6.30967	5333
6.31033	5334
6.31100	5334
6.31167	5335
6.31233	5335
6.31300	5336
6.31367	5336
6.31433	5337
6.31500	5337
6.31567	5338
6.31633	5338
6.31700	5339
6.31767	5339
6.31833	5339
6.31900	5340
6.31967	5340
6.32033	5341
6.32100	5341
6.32167	5342
6.32233	5342
6.32300	5343
6.32367	5343
6.32433	5344
6.32500	5344
6.32567	5345
6.32633	5345
6.32700	5346
6.32767	5346
6.32833	5347
6.32900	5347
6.32967	5348
6.33033	5348
6.33100	5349
6.33167	5349
6.33233	5350
6.33300	5350
6.33367	5351
6.33433	5351
6.33500	5352
6.33567	5352
6.33633	5353
6.33700	5353
6.33767	5353
6.33833	5354
6.33900	5354
6.33967	5355
6.34033	5355
6.34100	5356
6.34167	5356
6.34233	5356
6.34300	5357
6.34367	5357
6.34433	5358
6.34500	5358
6.34567	5358
6.34633	5359
6.34700	5359
6.34767	5360
6.34833	5360
6.34900	5361
6.34967	5361
6.35033	5361
6.35100	5362
6.35167	5362
6.35233	5362
6.35300	5363
6.35367	5363
6.35433	5364
6.35500	5364
6.35567	5364
6.35633	5365
6.35700	5365
6.35767	5366
6.35833	5366
6.35900	5366
6.35967	5367
6.36033	5367
6.36100	5368
6.36167	5368
6.36233	5369
6.36300	5369
6.36367	5369
6.36433	5370
6.36500	5370
6.36567	5371
6.36633	5371
6.36700	5372
6.36767	5372
6.36833	5373
6.36900	5373
6.36967	5373
6.37033	5374
6.37100	5374
6.37167	5375
6.37233	5375
6.37300	5376
6.37367	5376
6.37433	5377
6.37500	5377
6.37567	5377
6.37633	5378
6.37700	5378
6.37767	5378
6.37833	5379
6.37900	5379
6.37967	5379
6.38033	5380
6.38100	5380
6.38167	5380
6.38233	5381
6.38300	5381
6.38367	5381
6.38433	5382
6.38500	5382
6.38567	5382
6.38633	5383
6.38700	5383
6.38767	5383
6.38833	5383
6.38900	5384
6.38967	5384
6.39033	5384
6.39100	5384
6.39167	5385
6.39233	5385
6.39300	5385
6.39367	5386
6.39433	5386
6.39500	5386
6.39567	5387
6.39633	5387
6.39700	5387
6.39767	5388
6.39833	5387
6.39900	5388
6.39967	5388

